<WeldAnalyseData xmlns:i="http:www.w3.org/2001/XMLSchema-instance">
<WeldParameter>
<TimeStamp>DT#2024-01-24-15:01:27</TimeStamp>
<Generator>SG-22-10000</Generator>
<GenFreq>20</GenFreq>
<MaxForce>8000</MaxForce>
<MaxPower>10000</MaxPower>
<RunupPressure>1.5</RunupPressure>
<RunupDist>10</RunupDist>
<RunPress>0.8</RunPress>
<ShakeDelay>0.03</ShakeDelay>
<ShakeTime>0.3</ShakeTime>
<RunBackPress1>6</RunBackPress1>
<RunBackPress2>2</RunBackPress2>
<RunBackDist>1</RunBackDist>
<TrigValue>500</TrigValue>
<TrigModeUnit>W</TrigModeUnit>
<WeldModeUnit>Ws</WeldModeUnit>
<PressNr>0</PressNr>
<MaxLoss>1500</MaxLoss>
</WeldParameter>
<WeldSets>
<WeldSet>
<PressRiseTime>0</PressRiseTime>
<RunPressure>1</RunPressure>
<Amplitude>86</Amplitude>
<WeldMode>3270</WeldMode>
</WeldSet>
</WeldSets>
<WeldValue>
<WeldNr>2973</WeldNr>
<RecipeName>RickStyle</RecipeName>
<WeldTime>1660</WeldTime>
<DistDiff>2.17001</DistDiff>
<DistAbs>77.94</DistAbs>
<Energy>3270.97</Energy>
<MaxPower>2244.04</MaxPower>
<CycleTime>5950</CycleTime>
<TrigForce>500.748</TrigForce>
<TrigDist>75.77</TrigDist>
<RunSpeed>68.8818</RunSpeed>
<MaxForce>623.066</MaxForce>
<LossPower>326.224</LossPower>
</WeldValue>
</WeldAnalyseData>
#CSV-START#
ms;Power[W];Force[N];Distance[mm]
1;0;0;0
2;0;500.748;0
3;0;500.748;0
4;0;500.748;0
5;0;502.701;0
6;0;500.748;0
7;0;500.748;0
8;0;469.008;0
9;0;433.607;0.0100021
10;0;407.971;0.0400009
11;0;380.139;0.0699997
12;31.7583;372.326;0.100006
13;95.8472;332.774;0.130005
14;177.332;330.821;0.170006
15;249.05;317.148;0.210007
16;310.697;312.998;0.25
17;374.786;299.326;0.300003
18;441.622;301.279;0.340004
19;508.152;291.269;0.380005
20;572.241;330.821;0.420006
21;629.311;319.102;0.450005
22;686.075;307.138;0.480003
23;765.118;356.456;0.5
24;841.414;344.737;0.520004
25;910.691;354.503;0.540001
26;969.897;354.503;0.560005
27;1024.22;374.279;0.57
28;1063.59;380.139;0.580002
29;1110.59;407.971;0.590004
30;1174.98;380.139;0.590004
31;1224.12;405.774;0.600006
32;1263.79;437.513;0.600006
33;1298.28;388.195;0.610001
34;1310.79;415.784;0.610001
35;1315.67;413.831;0.610001
36;1337.95;425.55;0.620003
37;1382.2;413.831;0.620003
38;1411.81;423.597;0.630005
39;1441.41;409.925;0.640007
40;1453.92;451.186;0.640007
41;1449.04;431.654;0.650002
42;1449.04;409.925;0.650002
43;1495.73;467.055;0.660004
44;1537.85;433.607;0.660004
45;1569.89;431.654;0.670006
46;1592.17;427.503;0.670006
47;1604.38;443.373;0.68
48;1604.38;441.42;0.68
49;1624.21;463.149;0.690002
50;1680.98;433.607;0.690002
51;1723.09;437.513;0.700005
52;1755.14;475.112;0.710007
53;1772.23;431.654;0.710007
54;1769.79;439.467;0.720001
55;1755.14;439.467;0.720001
56;1774.98;455.336;0.730003
57;1819.23;443.373;0.740005
58;1846.39;455.336;0.740005
59;1868.67;433.607;0.75
60;1868.67;472.915;0.75
61;1846.39;465.102;0.760002
62;1836.62;433.607;0.760002
63;1878.43;482.925;0.770004
64;1922.99;472.915;0.770004
65;1950.15;475.112;0.780006
66;1969.99;461.196;0.780006
67;1965.11;482.925;0.790001
68;1950.15;472.915;0.790001
69;1957.48;496.597;0.800003
70;2016.68;459.243;0.800003
71;2053.91;472.915;0.800003
72;2076.19;512.467;0.810005
73;2085.96;455.336;0.810005
74;2063.68;475.112;0.82
75;2036.52;475.112;0.82
76;2043.84;492.691;0.830002
77;2081.08;469.008;0.830002
78;2103.35;484.878;0.830002
79;2113.12;463.149;0.840004
80;2100.91;512.467;0.840004
81;2066.12;492.691;0.850006
82;2041.4;459.243;0.850006
83;2081.08;518.326;0.850006
84;2122.89;498.795;0.860001
85;2142.72;498.795;0.860001
86;2155.24;484.878;0.870003
87;2142.72;508.56;0.870003
88;2115.56;496.597;0.870003
89;2115.56;520.524;0.880005
90;2169.89;472.915;0.880005
91;2204.37;496.597;0.880005
92;2221.77;532.243;0.890007
93;2221.77;469.008;0.890007
94;2192.16;498.795;0.890007
95;2155.24;498.795;0.900002
96;2160.12;514.42;0.900002
97;2192.16;494.644;0.900002
98;2209.56;502.701;0.910004
99;2214.44;488.784;0.910004
100;2199.49;536.149;0.910004
101;2155.24;510.514;0.920006
102;2120.45;480.972;0.920006
103;2155.24;540.056;0.920006
104;2194.6;510.514;0.93
105;2209.56;508.56;0.93
106;2212;500.748;0.93
107;2192.16;522.477;0.940002
108;2157.68;512.467;0.940002
109;2152.49;530.29;0.940002
110;2199.49;486.831;0.950005
111;2231.53;512.467;0.950005
112;2244.04;538.102;0.950005
113;2236.72;477.065;0.960007
114;2204.37;508.56;0.960007
115;2165;512.467;0.960007
116;2165;524.43;0.960007
117;2194.6;506.607;0.970001
118;2209.56;512.467;0.970001
119;2214.44;502.701;0.970001
120;2197.05;544.206;0.970001
121;2155.24;514.42;0.980003
122;2120.45;496.597;0.980003
123;2155.24;555.925;0.980003
124;2187.28;518.326;0.990005
125;2201.93;526.383;0.990005
126;2201.93;510.514;0.990005
127;2177.21;532.243;0.990005
128;2142.72;522.477;1
129;2135.4;548.112;1
130;2182.4;512.467;1
131;2209.56;518.326;1
132;2221.77;553.972;1.01
133;2214.44;504.654;1.01
134;2177.21;514.42;1.01
135;2137.84;516.373;1.02
136;2135.4;532.243;1.02
137;2162.56;514.42;1.02
138;2174.77;522.477;1.02
139;2174.77;498.795;1.03001
140;2152.49;546.159;1.03001
141;2108.24;530.29;1.03001
142;2073.75;496.597;1.03001
143;2105.8;546.159;1.04
144;2137.84;532.243;1.04
145;2155.24;536.149;1.04
146;2157.68;518.326;1.04
147;2137.84;540.056;1.04
148;2105.8;528.336;1.05
149;2105.8;553.972;1.05
150;2157.68;514.42;1.05
151;2192.16;526.383;1.05
152;2206.81;563.738;1.05
153;2199.49;504.654;1.06001
154;2162.56;524.43;1.06001
155;2118;524.43;1.06001
156;2113.12;540.056;1.06001
157;2137.84;520.524;1.07
158;2147.61;530.29;1.07
159;2145.17;510.514;1.07
160;2122.89;557.878;1.07
161;2076.19;536.149;1.07
162;2043.84;502.701;1.08
163;2071.01;561.785;1.08
164;2103.35;538.102;1.08
165;2115.56;538.102;1.08
166;2118;526.383;1.08
167;2098.17;546.159;1.09
168;2063.68;536.149;1.09
169;2058.8;553.972;1.09
170;2100.91;512.467;1.09
171;2125.33;534.196;1.09
172;2140.28;565.935;1.09
173;2135.4;506.607;1.10001
174;2105.8;534.196;1.10001
175;2063.68;534.196;1.10001
176;2063.68;548.112;1.10001
177;2090.84;528.336;1.10001
178;2100.91;536.149;1.11
179;2100.91;520.524;1.11
180;2083.52;565.935;1.11
181;2038.96;542.009;1.11
182;2011.8;516.373;1.11
183;2038.96;571.795;1.11
184;2071.01;542.009;1.12
185;2085.96;540.056;1.12
186;2088.4;530.29;1.12
187;2066.12;550.066;1.12
188;2036.52;546.159;1.12
189;2034.08;561.785;1.12
190;2078.63;516.373;1.12
191;2103.35;540.056;1.13
192;2118;567.888;1.13
193;2110.68;504.654;1.13
194;2078.63;538.102;1.13
195;2043.84;540.056;1.13
196;2043.84;552.019;1.13
197;2068.56;534.196;1.14001
198;2078.63;540.056;1.14001
199;2078.63;528.336;1.14001
200;2058.8;569.842;1.14001
201;2016.68;542.009;1.14001
202;1989.52;524.43;1.14001
203;2016.68;571.795;1.15
204;2049.03;548.112;1.15
205;2063.68;550.066;1.15
206;2068.56;536.149;1.15
207;2049.03;557.878;1.15
208;2016.68;548.112;1.15
209;2014.24;569.842;1.15
210;2061.24;522.477;1.16
211;2085.96;544.206;1.16
212;2100.91;577.654;1.16
213;2095.73;518.326;1.16
214;2066.12;544.206;1.16
215;2026.75;544.206;1.16
216;2026.75;555.925;1.16
217;2053.91;538.102;1.17001
218;2061.24;546.159;1.17001
219;2063.68;528.336;1.17001
220;2046.59;575.701;1.17001
221;2004.47;552.019;1.17001
222;1969.99;524.43;1.17001
223;2004.47;581.561;1.17001
224;2031.64;552.019;1.18
225;2043.84;552.019;1.18
226;2051.47;542.009;1.18
227;2031.64;559.832;1.18
228;2002.03;553.972;1.18
229;1997.15;569.842;1.18
230;2041.4;528.336;1.18
231;2066.12;553.972;1.19
232;2081.08;577.654;1.19
233;2073.75;516.373;1.19
234;2043.84;550.066;1.19
235;2009.36;553.972;1.19
236;2009.36;561.785;1.19
237;2034.08;546.159;1.19
238;2043.84;548.112;1.2
239;2046.59;540.056;1.2
240;2024.31;579.608;1.2
241;1987.08;559.832;1.2
242;1957.48;522.477;1.2
243;1987.08;569.842;1.2
244;2016.68;565.935;1.2
245;2031.64;561.785;1.2
246;2034.08;548.112;1.21001
247;2016.68;569.842;1.21001
248;1989.52;555.925;1.21001
249;1984.64;581.561;1.21001
250;2026.75;546.159;1.21001
251;2051.47;552.019;1.21001
252;2063.68;587.42;1.21001
253;2063.68;538.102;1.22
254;2034.08;550.066;1.22
255;1997.15;548.112;1.22
256;1994.71;569.842;1.22
257;2024.31;546.159;1.22
258;2034.08;559.832;1.22
259;2036.52;538.102;1.22
260;2019.43;581.561;1.22
261;1979.75;561.785;1.23
262;1947.71;530.29;1.23
263;1974.87;585.467;1.23
264;2006.92;563.738;1.23
265;2021.87;569.842;1.23
266;2024.31;552.019;1.23
267;2006.92;577.654;1.23
268;1977.31;557.878;1.23
269;1972.43;587.42;1.24001
270;2016.68;544.206;1.24001
271;2041.4;559.832;1.24001
272;2053.91;595.477;1.24001
273;2051.47;540.056;1.24001
274;2021.87;559.832;1.24001
275;1987.08;559.832;1.24001
276;1984.64;573.748;1.24001
277;2014.24;553.972;1.24001
278;2021.87;565.935;1.25
279;2021.87;548.112;1.25
280;2004.47;593.524;1.25
281;1962.36;567.888;1.25
282;1937.94;538.102;1.25
283;1962.36;593.524;1.25
284;1997.15;571.795;1.25
285;2011.8;571.795;1.25
286;2014.24;559.832;1.26
287;1999.59;581.561;1.26
288;1969.99;569.842;1.26
289;1962.36;589.618;1.26
290;2006.92;548.112;1.26
291;2034.08;565.935;1.26
292;2046.59;597.43;1.26
293;2043.84;540.056;1.26
294;2016.68;565.935;1.27
295;1979.75;565.935;1.27
296;1979.75;579.608;1.27
297;2006.92;559.832;1.27
298;2016.68;567.888;1.27
299;2019.43;553.972;1.27
300;2002.03;597.43;1.27
301;1959.92;569.842;1.27
302;1932.76;550.066;1.27
303;1962.36;607.196;1.28001
304;1992.27;571.795;1.28001
305;2004.47;573.748;1.28001
306;2011.8;563.738;1.28001
307;1994.71;581.561;1.28001
308;1965.11;575.701;1.28001
309;1959.92;591.571;1.28001
310;2004.47;548.112;1.28001
311;2029.19;575.701;1.29
312;2041.4;599.384;1.29
313;2038.96;538.102;1.29
314;2009.36;573.748;1.29
315;1974.87;575.701;1.29
316;1974.87;583.514;1.29
317;1999.59;567.888;1.29
318;2009.36;573.748;1.29
319;2009.36;552.019;1.29
320;1994.71;587.42;1.3
321;1952.59;579.608;1.3
322;1927.87;542.009;1.3
323;1955.03;593.524;1.3
324;1984.64;585.467;1.3
325;2002.03;581.561;1.3
326;2004.47;565.935;1.3
327;1989.52;587.42;1.3
328;1957.48;577.654;1.3
329;1955.03;599.384;1.31001
330;1994.71;561.785;1.31001
331;2024.31;573.748;1.31001
332;2036.52;611.347;1.31001
333;2031.64;557.878;1.31001
334;2002.03;569.842;1.31001
335;1965.11;567.888;1.31001
336;1965.11;589.618;1.31001
337;1992.27;565.935;1.31001
338;1999.59;575.701;1.32
339;1999.59;553.972;1.32
340;1982.2;597.43;1.32
341;1945.27;583.514;1.32
342;1915.67;548.112;1.32
343;1945.27;597.43;1.32
344;1974.87;581.561;1.32
345;1987.08;583.514;1.32
346;1992.27;567.888;1.32
347;1977.31;591.571;1.32
348;1947.71;579.608;1.33
349;1945.27;601.337;1.33
350;1987.08;559.832;1.33
351;2011.8;573.748;1.33
352;2024.31;611.347;1.33
353;2024.31;552.019;1.33
354;1992.27;575.701;1.33
355;1959.92;573.748;1.33
356;1959.92;587.42;1.33
357;1984.64;569.842;1.34
358;1994.71;577.654;1.34
359;1997.15;559.832;1.34
360;1979.75;605.243;1.34
361;1937.94;581.561;1.34
362;1910.78;550.066;1.34
363;1937.94;609.149;1.34
364;1969.99;583.514;1.34
365;1982.2;585.467;1.34
366;1987.08;569.842;1.34
367;1972.43;589.618;1.35001
368;1942.83;581.561;1.35001
369;1937.94;599.384;1.35001
370;1979.75;555.925;1.35001
371;2006.92;579.608;1.35001
372;2021.87;609.149;1.35001
373;2019.43;548.112;1.35001
374;1989.52;577.654;1.35001
375;1955.03;575.701;1.35001
376;1955.03;591.571;1.35001
377;1982.2;573.748;1.36
378;1987.08;577.654;1.36
379;1992.27;563.738;1.36
380;1974.87;607.196;1.36
381;1935.2;581.561;1.36
382;1908.04;557.878;1.36
383;1937.94;617.206;1.36
384;1967.55;581.561;1.36
385;1979.75;579.608;1.36
386;1984.64;571.795;1.36
387;1972.43;589.618;1.36
388;1940.39;585.467;1.37
389;1937.94;597.43;1.37
390;1979.75;555.925;1.37
391;2004.47;581.561;1.37
392;2019.43;603.29;1.37
393;2016.68;546.159;1.37
394;1987.08;579.608;1.37
395;1952.59;573.748;1.37
396;1955.03;587.42;1.37
397;1977.31;569.842;1.37
398;1987.08;579.608;1.38
399;1987.08;561.785;1.38
400;1972.43;607.196;1.38
401;1935.2;583.514;1.38
402;1905.59;552.019;1.38
403;1935.2;611.347;1.38
404;1965.11;585.467;1.38
405;1979.75;581.561;1.38
406;1984.64;571.795;1.38
407;1969.99;593.524;1.38
408;1937.94;579.608;1.38
409;1935.2;601.337;1.38
410;1982.2;555.925;1.39001
411;2002.03;579.608;1.39001
412;2019.43;609.149;1.39001
413;2019.43;550.066;1.39001
414;1987.08;577.654;1.39001
415;1950.15;579.608;1.39001
416;1955.03;587.42;1.39001
417;1977.31;573.748;1.39001
418;1984.64;575.701;1.39001
419;1987.08;565.935;1.39001
420;1969.99;605.243;1.39001
421;1937.94;581.561;1.39001
422;1908.04;559.832;1.4
423;1935.2;615.253;1.4
424;1969.99;583.514;1.4
425;1979.75;579.608;1.4
426;1984.64;573.748;1.4
427;1969.99;591.571;1.4
428;1940.39;583.514;1.4
429;1937.94;601.337;1.4
430;1982.2;557.878;1.4
431;2006.92;581.561;1.4
432;2019.43;601.337;1.4
433;2019.43;563.738;1.4
434;1992.27;571.795;1.41
435;1955.03;571.795;1.41
436;1952.59;591.571;1.41
437;1979.75;569.842;1.41
438;1987.08;577.654;1.41
439;1992.27;555.925;1.41
440;1974.87;597.43;1.41
441;1935.2;585.467;1.41
442;1910.78;550.066;1.41
443;1935.2;599.384;1.41
444;1965.11;589.618;1.41
445;1979.75;585.467;1.41
446;1984.64;571.795;1.42001
447;1969.99;593.524;1.42001
448;1942.83;581.561;1.42001
449;1937.94;607.196;1.42001
450;1979.75;567.888;1.42001
451;2004.47;577.654;1.42001
452;2019.43;613.3;1.42001
453;2016.68;561.785;1.42001
454;1989.52;575.701;1.42001
455;1955.03;573.748;1.42001
456;1955.03;591.571;1.42001
457;1979.75;569.842;1.42001
458;1987.08;579.608;1.42001
459;1992.27;561.785;1.43
460;1972.43;605.243;1.43
461;1935.2;585.467;1.43
462;1908.04;550.066;1.43
463;1935.2;609.149;1.43
464;1967.55;587.42;1.43
465;1979.75;589.618;1.43
466;1982.2;573.748;1.43
467;1969.99;593.524;1.43
468;1940.39;579.608;1.43
469;1935.2;605.243;1.43
470;1979.75;557.878;1.43
471;2006.92;579.608;1.43
472;2016.68;611.347;1.44
473;2016.68;553.972;1.44
474;1989.52;579.608;1.44
475;1955.03;577.654;1.44
476;1952.59;591.571;1.44
477;1977.31;571.795;1.44
478;1989.52;581.561;1.44
479;1992.27;563.738;1.44
480;1974.87;609.149;1.44
481;1935.2;583.514;1.44
482;1908.04;553.972;1.44
483;1937.94;613.3;1.44
484;1965.11;585.467;1.44
485;1979.75;585.467;1.45
486;1984.64;573.748;1.45
487;1969.99;593.524;1.45
488;1940.39;583.514;1.45
489;1937.94;603.29;1.45
490;1979.75;557.878;1.45
491;2004.47;581.561;1.45
492;2016.68;609.149;1.45
493;2016.68;550.066;1.45
494;1987.08;579.608;1.45
495;1952.59;579.608;1.45
496;1955.03;593.524;1.45
497;1977.31;573.748;1.45
498;1987.08;575.701;1.45
499;1989.52;567.888;1.46001
500;1974.87;609.149;1.46001
501;1937.94;583.514;1.46001
502;1908.04;561.785;1.46001
503;1937.94;623.066;1.46001
504;1967.55;583.514;1.46001
505;1979.75;579.608;1.46001
506;1984.64;573.748;1.46001
507;1969.99;589.618;1.46001
508;1942.83;587.42;1.46001
509;1935.2;599.384;1.46001
510;1979.75;571.795;1.46001
511;2004.47;575.701;1.46001
512;2019.43;615.253;1.46001
513;2019.43;565.935;1.47
514;1989.52;573.748;1.47
515;1955.03;573.748;1.47
516;1950.15;591.571;1.47
517;1977.31;571.795;1.47
518;1987.08;581.561;1.47
519;1992.27;559.832;1.47
520;1977.31;601.337;1.47
521;1937.94;587.42;1.47
522;1908.04;550.066;1.47
523;1937.94;603.29;1.47
524;1967.55;589.618;1.47
525;1979.75;589.618;1.47
526;1984.64;571.795;1.47
527;1972.43;593.524;1.48
528;1942.83;585.467;1.48
529;1937.94;607.196;1.48
530;1984.64;567.888;1.48
531;2006.92;579.608;1.48
532;2021.87;617.206;1.48
533;2019.43;561.785;1.48
534;1992.27;577.654;1.48
535;1955.03;577.654;1.48
536;1955.03;593.524;1.48
537;1984.64;573.748;1.48
538;1992.27;581.561;1.48
539;1994.71;563.738;1.48
540;1979.75;607.196;1.48
541;1940.39;585.467;1.49001
542;1910.78;552.019;1.49001
543;1940.39;609.149;1.49001
544;1969.99;587.42;1.49001
545;1982.2;589.618;1.49001
546;1987.08;573.748;1.49001
547;1974.87;593.524;1.49001
548;1945.27;583.514;1.49001
549;1942.83;605.243;1.49001
550;1984.64;561.785;1.49001
551;2009.36;579.608;1.49001
552;2024.31;613.3;1.49001
553;2024.31;555.925;1.49001
554;1994.71;579.608;1.49001
555;1957.48;577.654;1.5
556;1957.48;593.524;1.5
557;1984.64;571.795;1.5
558;1992.27;581.561;1.5
559;1994.71;563.738;1.5
560;1979.75;611.347;1.5
561;1942.83;583.514;1.5
562;1913.22;557.878;1.5
563;1942.83;615.253;1.5
564;1972.43;585.467;1.5
565;1982.2;583.514;1.5
566;1989.52;573.748;1.5
567;1974.87;591.571;1.5
568;1947.71;583.514;1.5
569;1942.83;601.337;1.5
570;1984.64;557.878;1.51
571;2011.8;581.561;1.51
572;2021.87;609.149;1.51
573;2021.87;550.066;1.51
574;1994.71;579.608;1.51
575;1959.92;579.608;1.51
576;1957.48;591.571;1.51
577;1984.64;571.795;1.51
578;1994.71;573.748;1.51
579;1994.71;565.935;1.51
580;1982.2;609.149;1.51
581;1942.83;581.561;1.51
582;1915.67;559.832;1.51
583;1942.83;619.16;1.51
584;1969.99;583.514;1.52
585;1982.2;581.561;1.52
586;1987.08;573.748;1.52
587;1977.31;593.524;1.52
588;1945.27;581.561;1.52
589;1940.39;605.243;1.52
590;1984.64;559.832;1.52
591;2011.8;581.561;1.52
592;2024.31;613.3;1.52
593;2024.31;553.972;1.52
594;1994.71;579.608;1.52
595;1962.36;575.701;1.52
596;1959.92;589.618;1.52
597;1987.08;571.795;1.52
598;1997.15;581.561;1.52
599;1997.15;563.738;1.53001
600;1982.2;609.149;1.53001
601;1942.83;585.467;1.53001
602;1915.67;555.925;1.53001
603;1945.27;613.3;1.53001
604;1972.43;585.467;1.53001
605;1984.64;581.561;1.53001
606;1992.27;573.748;1.53001
607;1974.87;593.524;1.53001
608;1947.71;583.514;1.53001
609;1942.83;599.384;1.53001
610;1987.08;557.878;1.53001
611;2011.8;581.561;1.53001
612;2024.31;609.149;1.53001
613;2024.31;546.159;1.53001
614;1994.71;579.608;1.54
615;1959.92;581.561;1.54
616;1962.36;591.571;1.54
617;1987.08;573.748;1.54
618;1997.15;575.701;1.54
619;1999.59;567.888;1.54
620;1982.2;607.196;1.54
621;1945.27;579.608;1.54
622;1915.67;557.878;1.54
623;1942.83;619.16;1.54
624;1972.43;581.561;1.54
625;1987.08;577.654;1.54
626;1992.27;571.795;1.54
627;1979.75;593.524;1.54
628;1947.71;579.608;1.54
629;1945.27;609.149;1.55
630;1989.52;571.795;1.55
631;2009.36;577.654;1.55
632;2026.75;613.3;1.55
633;2024.31;565.935;1.55
634;1997.15;571.795;1.55
635;1962.36;573.748;1.55
636;1962.36;589.618;1.55
637;1989.52;571.795;1.55
638;1997.15;579.608;1.55
639;2002.03;555.925;1.55
640;1982.2;599.384;1.55
641;1945.27;587.42;1.55
642;1915.67;548.112;1.55
643;1942.83;599.384;1.55
644;1974.87;587.42;1.55
645;1987.08;585.467;1.56001
646;1992.27;571.795;1.56001
647;1979.75;593.524;1.56001
648;1947.71;579.608;1.56001
649;1942.83;603.29;1.56001
650;1987.08;565.935;1.56001
651;2011.8;577.654;1.56001
652;2026.75;611.347;1.56001
653;2024.31;555.925;1.56001
654;1994.71;575.701;1.56001
655;1965.11;573.748;1.56001
656;1962.36;589.618;1.56001
657;1987.08;569.842;1.56001
658;1994.71;579.608;1.56001
659;1997.15;557.878;1.56001
660;1982.2;607.196;1.57
661;1945.27;583.514;1.57
662;1913.22;548.112;1.57
663;1945.27;603.29;1.57
664;1972.43;583.514;1.57
665;1987.08;585.467;1.57
666;1992.27;569.842;1.57
667;1974.87;591.571;1.57
668;1947.71;579.608;1.57
669;1945.27;601.337;1.57
670;1984.64;555.925;1.57
671;2011.8;577.654;1.57
672;2024.31;611.347;1.57
673;2024.31;552.019;1.57
674;1994.71;577.654;1.57
675;1959.92;575.701;1.57
676;1959.92;589.618;1.58
677;1984.64;567.888;1.58
678;1994.71;577.654;1.58
679;1999.59;559.832;1.58
680;1979.75;607.196;1.58
681;1940.39;579.608;1.58
682;1913.22;553.972;1.58
683;1942.83;611.347;1.58
684;1972.43;583.514;1.58
685;1984.64;581.561;1.58
686;1989.52;571.795;1.58
687;1974.87;587.42;1.58
688;1947.71;579.608;1.58
689;1937.94;597.43;1.58
690;1984.64;553.972;1.58
691;2011.8;579.608;1.58
692;2024.31;603.29;1.59
693;2021.87;544.206;1.59
694;1994.71;579.608;1.59
695;1959.92;579.608;1.59
696;1959.92;587.42;1.59
697;1984.64;571.795;1.59
698;1994.71;571.795;1.59
699;1997.15;563.738;1.59
700;1979.75;605.243;1.59
701;1945.27;579.608;1.59
702;1915.67;557.878;1.59
703;1940.39;593.524;1.59
704;1969.99;589.618;1.59
705;1982.2;587.42;1.59
706;1989.52;567.888;1.59
707;1974.87;589.618;1.59
708;1942.83;579.608;1.60001
709;1940.39;603.29;1.60001
710;1982.2;569.842;1.60001
711;2009.36;571.795;1.60001
712;2016.68;611.347;1.60001
713;2021.87;561.785;1.60001
714;1994.71;571.795;1.60001
715;1957.48;569.842;1.60001
716;1959.92;585.467;1.60001
717;1982.2;567.888;1.60001
718;1992.27;577.654;1.60001
719;1994.71;553.972;1.60001
720;1982.2;597.43;1.60001
721;1942.83;581.561;1.60001
722;1913.22;546.159;1.60001
723;1942.83;597.43;1.60001
724;1969.99;583.514;1.60001
725;1984.64;585.467;1.61
726;1987.08;565.935;1.61
727;1977.31;589.618;1.61
728;1945.27;579.608;1.61
729;1942.83;603.29;1.61
730;1984.64;559.832;1.61
731;2009.36;573.748;1.61
732;2019.43;609.149;1.61
733;2021.87;555.925;1.61
734;1994.71;573.748;1.61
735;1957.48;569.842;1.61
736;1957.48;587.42;1.61
737;1982.2;567.888;1.61
738;1989.52;575.701;1.61
739;1994.71;555.925;1.61
740;1977.31;603.29;1.61
741;1937.94;583.514;1.61
742;1910.78;548.112;1.62
743;1937.94;603.29;1.62
744;1967.55;579.608;1.62
745;1982.2;579.608;1.62
746;1987.08;569.842;1.62
747;1972.43;587.42;1.62
748;1945.27;579.608;1.62
749;1940.39;599.384;1.62
750;1982.2;553.972;1.62
751;2009.36;575.701;1.62
752;2021.87;609.149;1.62
753;2021.87;548.112;1.62
754;1992.27;575.701;1.62
755;1957.48;571.795;1.62
756;1957.48;587.42;1.62
757;1982.2;569.842;1.62
758;1989.52;575.701;1.62
759;1992.27;557.878;1.63
760;1977.31;605.243;1.63
761;1940.39;579.608;1.63
762;1913.22;553.972;1.63
763;1940.39;613.3;1.63
764;1967.55;581.561;1.63
765;1979.75;577.654;1.63
766;1987.08;567.888;1.63
767;1969.99;589.618;1.63
768;1942.83;579.608;1.63
769;1937.94;595.477;1.63
770;1979.75;553.972;1.63
771;2004.47;577.654;1.63
772;2016.68;599.384;1.63
773;2019.43;542.009;1.63
774;1992.27;577.654;1.63
775;1957.48;577.654;1.63
776;1957.48;583.514;1.64001
777;1982.2;569.842;1.64001
778;1989.52;571.795;1.64001
779;1994.71;563.738;1.64001
780;1979.75;603.29;1.64001
781;1942.83;579.608;1.64001
782;1915.67;550.066;1.64001
783;1937.94;605.243;1.64001
784;1969.99;581.561;1.64001
785;1982.2;581.561;1.64001
786;1989.52;569.842;1.64001
787;1972.43;589.618;1.64001
788;1942.83;577.654;1.64001
789;1940.39;597.43;1.64001
790;1982.2;552.019;1.64001
791;2006.92;571.795;1.64001
792;2021.87;607.196;1.65
793;2019.43;546.159;1.65
794;1994.71;571.795;1.65
795;1957.48;571.795;1.65
796;1957.48;585.467;1.65
797;1982.2;567.888;1.65
798;1992.27;573.748;1.65
799;1994.71;559.832;1.65
800;1977.31;605.243;1.65
801;1940.39;577.654;1.65
802;1913.22;553.972;1.65
803;1937.94;611.347;1.65
804;1967.55;579.608;1.65
805;1982.2;577.654;1.65
806;1987.08;569.842;1.65
807;1972.43;587.42;1.65
808;1942.83;579.608;1.65
809;1937.94;593.524;1.66
810;1982.2;553.972;1.66
811;2006.92;575.701;1.66
812;2019.43;599.384;1.66
813;2019.43;542.009;1.66
814;1989.52;573.748;1.66
815;1955.03;575.701;1.66
816;1952.59;583.514;1.66
817;1982.2;567.888;1.66
818;1987.08;571.795;1.66
819;1989.52;550.066;1.66
820;1977.31;587.42;1.66
821;1937.94;583.514;1.66
822;1908.04;546.159;1.66
823;1935.2;591.571;1.66
824;1965.11;585.467;1.66
825;1977.31;585.467;1.67001
826;1984.64;567.888;1.67001
827;1969.99;587.42;1.67001
828;1937.94;579.608;1.67001
829;1937.94;603.29;1.67001
830;1977.31;565.935;1.67001
831;2006.92;571.795;1.67001
832;2019.43;609.149;1.67001
833;2016.68;557.878;1.67001
834;1987.08;569.842;1.67001
835;1955.03;567.888;1.67001
836;1955.03;585.467;1.67001
837;1977.31;565.935;1.67001
838;1987.08;575.701;1.67001
839;1992.27;552.019;1.67001
840;1974.87;599.384;1.67001
841;1937.94;581.561;1.67001
842;1908.04;546.159;1.68
843;1935.2;601.337;1.68
844;1965.11;581.561;1.68
845;1977.31;583.514;1.68
846;1982.2;567.888;1.68
847;1969.99;587.42;1.68
848;1940.39;577.654;1.68
849;1935.2;601.337;1.68
850;1979.75;559.832;1.68
851;2004.47;571.795;1.68
852;2019.43;607.196;1.68
853;2016.68;550.066;1.68
854;1987.08;573.748;1.68
855;1955.03;569.842;1.68
856;1952.59;583.514;1.68
857;1979.75;565.935;1.68
858;1989.52;573.748;1.68
859;1989.52;555.925;1.69
860;1974.87;601.337;1.69
861;1935.2;579.608;1.69
862;1908.04;546.159;1.69
863;1935.2;605.243;1.69
864;1965.11;577.654;1.69
865;1977.31;579.608;1.69
866;1979.75;565.935;1.69
867;1967.55;587.42;1.69
868;1942.83;577.654;1.69
869;1935.2;597.43;1.69
870;1974.87;552.019;1.69
871;2002.03;573.748;1.69
872;2014.24;605.243;1.69
873;2016.68;548.112;1.69
874;1987.08;573.748;1.69
875;1952.59;571.795;1.69
876;1950.15;585.467;1.7
877;1977.31;565.935;1.7
878;1987.08;573.748;1.7
879;1987.08;557.878;1.7
880;1974.87;603.29;1.7
881;1935.2;577.654;1.7
882;1908.04;552.019;1.7
883;1935.2;607.196;1.7
884;1965.11;577.654;1.7
885;1977.31;573.748;1.7
886;1979.75;565.935;1.7
887;1969.99;583.514;1.7
888;1940.39;577.654;1.7
889;1935.2;591.571;1.7
890;1977.31;552.019;1.7
891;2004.47;577.654;1.7
892;2016.68;599.384;1.7
893;2016.68;540.056;1.7
894;1989.52;573.748;1.71001
895;1952.59;573.748;1.71001
896;1952.59;585.467;1.71001
897;1982.2;565.935;1.71001
898;1984.64;571.795;1.71001
899;1989.52;548.112;1.71001
900;1972.43;591.571;1.71001
901;1937.94;579.608;1.71001
902;1908.04;544.206;1.71001
903;1935.2;591.571;1.71001
904;1965.11;583.514;1.71001
905;1977.31;581.561;1.71001
906;1982.2;563.738;1.71001
907;1969.99;587.42;1.71001
908;1940.39;575.701;1.71001
909;1932.76;601.337;1.71001
910;1977.31;563.738;1.71001
911;2002.03;571.795;1.72
912;2016.68;607.196;1.72
913;2016.68;555.925;1.72
914;1989.52;571.795;1.72
915;1952.59;565.935;1.72
916;1952.59;583.514;1.72
917;1977.31;563.738;1.72
918;1984.64;571.795;1.72
919;1987.08;552.019;1.72
920;1972.43;595.477;1.72
921;1937.94;579.608;1.72
922;1908.04;542.009;1.72
923;1935.2;597.43;1.72
924;1962.36;581.561;1.72
925;1974.87;581.561;1.72
926;1982.2;565.935;1.72
927;1967.55;587.42;1.72
928;1940.39;573.748;1.73
929;1932.76;599.384;1.73
930;1977.31;555.925;1.73
931;2002.03;571.795;1.73
932;2014.24;603.29;1.73
933;2011.8;550.066;1.73
934;1987.08;569.842;1.73
935;1950.15;569.842;1.73
936;1952.59;583.514;1.73
937;1977.31;559.832;1.73
938;1987.08;573.748;1.73
939;1987.08;552.019;1.73
940;1972.43;601.337;1.73
941;1935.2;577.654;1.73
942;1905.59;548.112;1.73
943;1932.76;603.29;1.73
944;1965.11;577.654;1.73
945;1974.87;575.701;1.74001
946;1982.2;567.888;1.74001
947;1967.55;585.467;1.74001
948;1937.94;575.701;1.74001
949;1932.76;593.524;1.74001
950;1977.31;550.066;1.74001
951;2002.03;573.748;1.74001
952;2014.24;601.337;1.74001
953;2014.24;544.206;1.74001
954;1987.08;571.795;1.74001
955;1955.03;569.842;1.74001
956;1952.59;581.561;1.74001
957;1977.31;563.738;1.74001
958;1984.64;571.795;1.74001
959;1989.52;559.832;1.74001
960;1974.87;601.337;1.74001
961;1935.2;573.748;1.74001
962;1908.04;550.066;1.74001
963;1935.2;609.149;1.75
964;1962.36;573.748;1.75
965;1974.87;573.748;1.75
966;1982.2;565.935;1.75
967;1967.55;581.561;1.75
968;1937.94;577.654;1.75
969;1932.76;591.571;1.75
970;1974.87;550.066;1.75
971;1999.59;573.748;1.75
972;2014.24;597.43;1.75
973;2011.8;548.112;1.75
974;1987.08;571.795;1.75
975;1952.59;569.842;1.75
976;1950.15;583.514;1.75
977;1977.31;561.785;1.75
978;1982.2;571.795;1.75
979;1987.08;553.972;1.75
980;1972.43;599.384;1.76
981;1937.94;577.654;1.76
982;1908.04;548.112;1.76
983;1935.2;603.29;1.76
984;1967.55;579.608;1.76
985;1977.31;577.654;1.76
986;1984.64;565.935;1.76
987;1972.43;583.514;1.76
988;1940.39;575.701;1.76
989;1935.2;593.524;1.76
990;1979.75;550.066;1.76
991;2002.03;571.795;1.76
992;2014.24;603.29;1.76
993;2014.24;544.206;1.76
994;1987.08;569.842;1.76
995;1955.03;571.795;1.76
996;1950.15;583.514;1.76
997;1977.31;563.738;1.76
998;1987.08;573.748;1.77
999;1989.52;559.832;1.77
1000;1974.87;603.29;1.77
1001;1937.94;573.748;1.77
1002;1908.04;550.066;1.77
1003;1937.94;609.149;1.77
1004;1967.55;575.701;1.77
1005;1979.75;573.748;1.77
1006;1982.2;567.888;1.77
1007;1969.99;583.514;1.77
1008;1940.39;579.608;1.77
1009;1932.76;589.618;1.77
1010;1979.75;552.019;1.77
1011;2004.47;569.842;1.77
1012;2019.43;605.243;1.77
1013;2016.68;559.832;1.77
1014;1989.52;565.935;1.77
1015;1952.59;563.738;1.78001
1016;1950.15;581.561;1.78001
1017;1977.31;563.738;1.78001
1018;1987.08;573.748;1.78001
1019;1992.27;548.112;1.78001
1020;1977.31;589.618;1.78001
1021;1942.83;579.608;1.78001
1022;1910.78;542.009;1.78001
1023;1937.94;593.524;1.78001
1024;1969.99;579.608;1.78001
1025;1977.31;579.608;1.78001
1026;1984.64;563.738;1.78001
1027;1969.99;585.467;1.78001
1028;1942.83;573.748;1.78001
1029;1940.39;599.384;1.78001
1030;1982.2;561.785;1.78001
1031;2004.47;571.795;1.78001
1032;2016.68;605.243;1.78001
1033;2016.68;552.019;1.79
1034;1992.27;567.888;1.79
1035;1957.48;565.935;1.79
1036;1955.03;583.514;1.79
1037;1982.2;561.785;1.79
1038;1989.52;571.795;1.79
1039;1992.27;552.019;1.79
1040;1977.31;597.43;1.79
1041;1940.39;575.701;1.79
1042;1910.78;542.009;1.79
1043;1937.94;597.43;1.79
1044;1967.55;577.654;1.79
1045;1982.2;579.608;1.79
1046;1987.08;565.935;1.79
1047;1974.87;585.467;1.79
1048;1945.27;573.748;1.79
1049;1937.94;597.43;1.79
1050;1979.75;552.019;1.8
1051;2006.92;571.795;1.8
1052;2019.43;603.29;1.8
1053;2019.43;548.112;1.8
1054;1992.27;571.795;1.8
1055;1957.48;565.935;1.8
1056;1955.03;581.561;1.8
1057;1979.75;563.738;1.8
1058;1989.52;573.748;1.8
1059;1992.27;555.925;1.8
1060;1979.75;601.337;1.8
1061;1945.27;577.654;1.8
1062;1913.22;546.159;1.8
1063;1942.83;601.337;1.8
1064;1969.99;577.654;1.8
1065;1984.64;573.748;1.8
1066;1987.08;563.738;1.8
1067;1972.43;583.514;1.8
1068;1945.27;575.701;1.81001
1069;1937.94;593.524;1.81001
1070;1982.2;550.066;1.81001
1071;2006.92;571.795;1.81001
1072;2019.43;601.337;1.81001
1073;2021.87;542.009;1.81001
1074;1994.71;571.795;1.81001
1075;1957.48;571.795;1.81001
1076;1957.48;581.561;1.81001
1077;1982.2;563.738;1.81001
1078;1992.27;571.795;1.81001
1079;1994.71;555.925;1.81001
1080;1979.75;601.337;1.81001
1081;1942.83;571.795;1.81001
1082;1913.22;550.066;1.81001
1083;1940.39;609.149;1.81001
1084;1972.43;573.748;1.81001
1085;1982.2;571.795;1.81001
1086;1989.52;565.935;1.82
1087;1974.87;581.561;1.82
1088;1947.71;573.748;1.82
1089;1942.83;599.384;1.82
1090;1984.64;563.738;1.82
1091;2009.36;569.842;1.82
1092;2021.87;605.243;1.82
1093;2024.31;559.832;1.82
1094;1997.15;563.738;1.82
1095;1959.92;565.935;1.82
1096;1959.92;583.514;1.82
1097;1982.2;561.785;1.82
1098;1994.71;571.795;1.82
1099;1997.15;553.972;1.82
1100;1982.2;589.618;1.82
1101;1945.27;577.654;1.82
1102;1918.11;542.009;1.82
1103;1942.83;593.524;1.82
1104;1974.87;583.514;1.83
1105;1984.64;581.561;1.83
1106;1992.27;563.738;1.83
1107;1979.75;583.514;1.83
1108;1950.15;573.748;1.83
1109;1942.83;597.43;1.83
1110;1987.08;559.832;1.83
1111;2011.8;569.842;1.83
1112;2024.31;605.243;1.83
1113;2024.31;550.066;1.83
1114;1997.15;569.842;1.83
1115;1965.11;565.935;1.83
1116;1959.92;579.608;1.83
1117;1989.52;561.785;1.83
1118;1994.71;569.842;1.83
1119;2002.03;553.972;1.83
1120;1984.64;595.477;1.83
1121;1947.71;577.654;1.84
1122;1918.11;544.206;1.84
1123;1945.27;597.43;1.84
1124;1974.87;579.608;1.84
1125;1989.52;577.654;1.84
1126;1992.27;567.888;1.84
1127;1982.2;585.467;1.84
1128;1950.15;573.748;1.84
1129;1945.27;593.524;1.84
1130;1987.08;552.019;1.84
1131;2014.24;571.795;1.84
1132;2026.75;603.29;1.84
1133;2026.75;546.159;1.84
1134;2002.03;567.888;1.84
1135;1967.55;569.842;1.84
1136;1965.11;581.561;1.84
1137;1987.08;559.832;1.84
1138;1997.15;571.795;1.84
1139;2002.03;552.019;1.85001
1140;1987.08;601.337;1.85001
1141;1950.15;573.748;1.85001
1142;1918.11;544.206;1.85001
1143;1945.27;605.243;1.85001
1144;1977.31;575.701;1.85001
1145;1987.08;573.748;1.85001
1146;1994.71;563.738;1.85001
1147;1982.2;581.561;1.85001
1148;1955.03;575.701;1.85001
1149;1945.27;593.524;1.85001
1150;1989.52;546.159;1.85001
1151;2016.68;571.795;1.85001
1152;2026.75;599.384;1.85001
1153;2029.19;538.102;1.85001
1154;2004.47;569.842;1.85001
1155;1969.99;571.795;1.85001
1156;1965.11;583.514;1.85001
1157;1992.27;563.738;1.85001
1158;2002.03;569.842;1.86
1159;2004.47;557.878;1.86
1160;1989.52;599.384;1.86
1161;1952.59;573.748;1.86
1162;1920.55;550.066;1.86
1163;1945.27;609.149;1.86
1164;1979.75;575.701;1.86
1165;1992.27;579.608;1.86
1166;1997.15;563.738;1.86
1167;1984.64;585.467;1.86
1168;1957.48;571.795;1.86
1169;1950.15;595.477;1.86
1170;1989.52;550.066;1.86
1171;2019.43;571.795;1.86
1172;2031.64;603.29;1.86
1173;2031.64;544.206;1.86
1174;2004.47;569.842;1.86
1175;1969.99;567.888;1.86
1176;1967.55;583.514;1.86
1177;1994.71;559.832;1.86
1178;2004.47;571.795;1.87
1179;2009.36;555.925;1.87
1180;1992.27;599.384;1.87
1181;1952.59;575.701;1.87
1182;1922.99;546.159;1.87
1183;1952.59;605.243;1.87
1184;1982.2;573.748;1.87
1185;1994.71;573.748;1.87
1186;2002.03;561.785;1.87
1187;1984.64;581.561;1.87
1188;1959.92;573.748;1.87
1189;1952.59;593.524;1.87
1190;1994.71;546.159;1.87
1191;2021.87;571.795;1.87
1192;2031.64;599.384;1.87
1193;2034.08;538.102;1.87
1194;2009.36;569.842;1.87
1195;1972.43;571.795;1.87
1196;1972.43;583.514;1.87
1197;1999.59;563.738;1.88
1198;2006.92;569.842;1.88
1199;2009.36;553.972;1.88
1200;1994.71;597.43;1.88
1201;1957.48;573.748;1.88
1202;1925.43;550.066;1.88
1203;1950.15;611.347;1.88
1204;1984.64;581.561;1.88
1205;1997.15;579.608;1.88
1206;2002.03;565.935;1.88
1207;1992.27;583.514;1.88
1208;1959.92;575.701;1.88
1209;1955.03;599.384;1.88
1210;1997.15;563.738;1.88
1211;2024.31;569.842;1.88
1212;2036.52;607.196;1.88
1213;2038.96;553.972;1.88
1214;2011.8;565.935;1.88
1215;1974.87;563.738;1.88
1216;1974.87;583.514;1.89001
1217;2002.03;559.832;1.89001
1218;2009.36;569.842;1.89001
1219;2014.24;548.112;1.89001
1220;1999.59;591.571;1.89001
1221;1959.92;577.654;1.89001
1222;1927.87;540.056;1.89001
1223;1955.03;593.524;1.89001
1224;1989.52;579.608;1.89001
1225;2002.03;579.608;1.89001
1226;2006.92;565.935;1.89001
1227;1994.71;587.42;1.89001
1228;1965.11;573.748;1.89001
1229;1959.92;597.43;1.89001
1230;2002.03;555.925;1.89001
1231;2029.19;573.748;1.89001
1232;2041.4;603.29;1.89001
1233;2041.4;548.112;1.89001
1234;2014.24;567.888;1.89001
1235;1979.75;563.738;1.9
1236;1977.31;583.514;1.9
1237;2006.92;561.785;1.9
1238;2014.24;569.842;1.9
1239;2016.68;550.066;1.9
1240;2002.03;597.43;1.9
1241;1965.11;571.795;1.9
1242;1932.76;542.009;1.9
1243;1962.36;601.337;1.9
1244;1992.27;577.654;1.9
1245;2004.47;579.608;1.9
1246;2014.24;563.738;1.9
1247;1999.59;585.467;1.9
1248;1969.99;571.795;1.9
1249;1962.36;593.524;1.9
1250;2004.47;552.019;1.9
1251;2034.08;571.795;1.9
1252;2046.59;601.337;1.9
1253;2043.84;544.206;1.91
1254;2019.43;569.842;1.91
1255;1984.64;567.888;1.91
1256;1982.2;579.608;1.91
1257;2009.36;561.785;1.91
1258;2019.43;571.795;1.91
1259;2019.43;553.972;1.91
1260;2006.92;601.337;1.91
1261;1969.99;575.701;1.91
1262;1937.94;548.112;1.91
1263;1962.36;607.196;1.91
1264;1997.15;573.748;1.91
1265;2011.8;573.748;1.91
1266;2016.68;563.738;1.91
1267;2004.47;583.514;1.91
1268;1974.87;573.748;1.91
1269;1967.55;589.618;1.91
1270;2006.92;548.112;1.91
1271;2036.52;571.795;1.92001
1272;2049.03;599.384;1.92001
1273;2049.03;538.102;1.92001
1274;2021.87;569.842;1.92001
1275;1987.08;573.748;1.92001
1276;1984.64;581.561;1.92001
1277;2011.8;563.738;1.92001
1278;2021.87;567.888;1.92001
1279;2024.31;555.925;1.92001
1280;2009.36;599.384;1.92001
1281;1972.43;577.654;1.92001
1282;1937.94;540.056;1.92001
1283;1967.55;587.42;1.92001
1284;2002.03;583.514;1.92001
1285;2014.24;579.608;1.92001
1286;2019.43;561.785;1.92001
1287;2004.47;585.467;1.92001
1288;1977.31;573.748;1.93
1289;1969.99;597.43;1.93
1290;2009.36;561.785;1.93
1291;2041.4;567.888;1.93
1292;2051.47;605.243;1.93
1293;2053.91;552.019;1.93
1294;2026.75;563.738;1.93
1295;1992.27;563.738;1.93
1296;1987.08;581.561;1.93
1297;2016.68;563.738;1.93
1298;2024.31;569.842;1.93
1299;2029.19;548.112;1.93
1300;2011.8;589.618;1.93
1301;1974.87;575.701;1.93
1302;1945.27;538.102;1.93
1303;1967.55;595.477;1.93
1304;2002.03;579.608;1.93
1305;2014.24;577.654;1.94
1306;2021.87;561.785;1.94
1307;2006.92;583.514;1.94
1308;1979.75;573.748;1.94
1309;1972.43;595.477;1.94
1310;2014.24;553.972;1.94
1311;2041.4;567.888;1.94
1312;2053.91;605.243;1.94
1313;2056.36;550.066;1.94
1314;2029.19;567.888;1.94
1315;1994.71;563.738;1.94
1316;1992.27;581.561;1.94
1317;2016.68;559.832;1.94
1318;2026.75;569.842;1.94
1319;2029.19;552.019;1.94
1320;2016.68;597.43;1.94
1321;1977.31;575.701;1.94
1322;1947.71;540.056;1.94
1323;1972.43;599.384;1.95
1324;2006.92;575.701;1.95
1325;2019.43;575.701;1.95
1326;2026.75;563.738;1.95
1327;2014.24;583.514;1.95
1328;1982.2;571.795;1.95
1329;1977.31;595.477;1.95
1330;2019.43;546.159;1.95
1331;2046.59;569.842;1.95
1332;2058.8;603.29;1.95
1333;2058.8;544.206;1.95
1334;2031.64;571.795;1.95
1335;1999.59;567.888;1.95
1336;1994.71;581.561;1.95
1337;2021.87;561.785;1.95
1338;2034.08;569.842;1.95
1339;2034.08;552.019;1.95
1340;2019.43;601.337;1.96001
1341;1987.08;573.748;1.96001
1342;1952.59;546.159;1.96001
1343;1979.75;603.29;1.96001
1344;2011.8;573.748;1.96001
1345;2024.31;571.795;1.96001
1346;2034.08;563.738;1.96001
1347;2014.24;583.514;1.96001
1348;1989.52;573.748;1.96001
1349;1979.75;591.571;1.96001
1350;2024.31;550.066;1.96001
1351;2051.47;571.795;1.96001
1352;2063.68;597.43;1.96001
1353;2063.68;538.102;1.96001
1354;2036.52;569.842;1.96001
1355;2004.47;573.748;1.96001
1356;1999.59;579.608;1.97
1357;2026.75;561.785;1.97
1358;2036.52;569.842;1.97
1359;2041.4;553.972;1.97
1360;2024.31;597.43;1.97
1361;1984.64;575.701;1.97
1362;1952.59;542.009;1.97
1363;1979.75;601.337;1.97
1364;2014.24;575.701;1.97
1365;2026.75;575.701;1.97
1366;2029.19;563.738;1.97
1367;2021.87;581.561;1.97
1368;1989.52;569.842;1.97
1369;1979.75;593.524;1.97
1370;2024.31;546.159;1.97
1371;2049.03;567.888;1.97
1372;2066.12;599.384;1.98
1373;2063.68;544.206;1.98
1374;2038.96;567.888;1.98
1375;2004.47;569.842;1.98
1376;1999.59;581.561;1.98
1377;2029.19;559.832;1.98
1378;2036.52;569.842;1.98
1379;2038.96;552.019;1.98
1380;2026.75;597.43;1.98
1381;1987.08;573.748;1.98
1382;1957.48;546.159;1.98
1383;1984.64;605.243;1.98
1384;2016.68;573.748;1.98
1385;2031.64;571.795;1.98
1386;2034.08;563.738;1.98
1387;2024.31;579.608;1.98
1388;1994.71;573.748;1.98
1389;1984.64;591.571;1.99001
1390;2026.75;548.112;1.99001
1391;2058.8;571.795;1.99001
1392;2071.01;595.477;1.99001
1393;2071.01;536.149;1.99001
1394;2041.4;569.842;1.99001
1395;2009.36;571.795;1.99001
1396;2004.47;581.561;1.99001
1397;2034.08;563.738;1.99001
1398;2041.4;567.888;1.99001
1399;2043.84;548.112;1.99001
1400;2029.19;587.42;1.99001
1401;1992.27;577.654;1.99001
1402;1959.92;538.102;1.99001
1403;1989.52;587.42;1.99001
1404;2021.87;581.561;1.99001
1405;2034.08;581.561;2
1406;2041.4;563.738;2
1407;2026.75;583.514;2
1408;1997.15;573.748;2
1409;1987.08;599.384;2
1410;2034.08;559.832;2
1411;2061.24;569.842;2
1412;2073.75;603.29;2
1413;2073.75;552.019;2
1414;2049.03;563.738;2
1415;2011.8;561.785;2
1416;2009.36;581.561;2
1417;2036.52;559.832;2
1418;2046.59;567.888;2
1419;2049.03;548.112;2
1420;2036.52;591.571;2
1421;1997.15;577.654;2
1422;1967.55;538.102;2.01
1423;1989.52;595.477;2.01
1424;2026.75;577.654;2.01
1425;2036.52;579.608;2.01
1426;2043.84;563.738;2.01
1427;2031.64;583.514;2.01
1428;2002.03;573.748;2.01
1429;1989.52;595.477;2.01
1430;2036.52;552.019;2.01
1431;2063.68;567.888;2.01
1432;2078.63;601.337;2.01
1433;2078.63;546.159;2.01
1434;2053.91;567.888;2.01
1435;2016.68;565.935;2.01
1436;2011.8;579.608;2.01
1437;2038.96;561.785;2.01
1438;2051.47;571.795;2.02
1439;2053.91;550.066;2.02
1440;2038.96;599.384;2.02
1441;2002.03;575.701;2.02
1442;1969.99;540.056;2.02
1443;1997.15;601.337;2.02
1444;2029.19;573.748;2.02
1445;2043.84;573.748;2.02
1446;2049.03;561.785;2.02
1447;2038.96;585.467;2.02
1448;2006.92;571.795;2.02
1449;1997.15;591.571;2.02
1450;2041.4;548.112;2.02
1451;2068.56;567.888;2.02
1452;2083.52;601.337;2.02
1453;2083.52;542.009;2.02
1454;2058.8;567.888;2.03001
1455;2024.31;567.888;2.03001
1456;2016.68;579.608;2.03001
1457;2043.84;561.785;2.03001
1458;2056.36;571.795;2.03001
1459;2061.24;553.972;2.03001
1460;2043.84;599.384;2.03001
1461;2006.92;573.748;2.03001
1462;1974.87;544.206;2.03001
1463;1997.15;605.243;2.03001
1464;2031.64;573.748;2.03001
1465;2051.47;571.795;2.03001
1466;2053.91;561.785;2.03001
1467;2038.96;579.608;2.03001
1468;2011.8;573.748;2.03001
1469;2002.03;591.571;2.04
1470;2046.59;548.112;2.04
1471;2073.75;571.795;2.04
1472;2088.4;597.43;2.04
1473;2088.4;555.925;2.04
1474;2063.68;561.785;2.04
1475;2024.31;563.738;2.04
1476;2019.43;581.561;2.04
1477;2051.47;561.785;2.04
1478;2061.24;567.888;2.04
1479;2063.68;546.159;2.04
1480;2049.03;585.467;2.04
1481;2009.36;575.701;2.04
1482;1979.75;536.149;2.04
1483;2004.47;589.618;2.04
1484;2038.96;583.514;2.04
1485;2053.91;577.654;2.05
1486;2056.36;559.832;2.05
1487;2043.84;583.514;2.05
1488;2014.24;573.748;2.05
1489;2004.47;599.384;2.05
1490;2049.03;557.878;2.05
1491;2076.19;567.888;2.05
1492;2090.84;605.243;2.05
1493;2093.28;552.019;2.05
1494;2066.12;565.935;2.05
1495;2029.19;559.832;2.05
1496;2024.31;579.608;2.05
1497;2056.36;559.832;2.05
1498;2063.68;569.842;2.05
1499;2066.12;546.159;2.05
1500;2056.36;593.524;2.06001
1501;2014.24;575.701;2.06001
1502;1982.2;538.102;2.06001
1503;2006.92;593.524;2.06001
1504;2043.84;577.654;2.06001
1505;2053.91;577.654;2.06001
1506;2063.68;561.785;2.06001
1507;2046.59;583.514;2.06001
1508;2016.68;571.795;2.06001
1509;2006.92;593.524;2.06001
1510;2053.91;552.019;2.06001
1511;2081.08;565.935;2.06001
1512;2095.73;601.337;2.06001
1513;2093.28;544.206;2.06001
1514;2068.56;565.935;2.06001
1515;2034.08;563.738;2.06001
1516;2026.75;579.608;2.07
1517;2056.36;557.878;2.07
1518;2068.56;569.842;2.07
1519;2068.56;552.019;2.07
1520;2056.36;599.384;2.07
1521;2019.43;573.748;2.07
1522;1984.64;542.009;2.07
1523;2009.36;599.384;2.07
1524;2046.59;573.748;2.07
1525;2058.8;573.748;2.07
1526;2066.12;561.785;2.07
1527;2051.47;581.561;2.07
1528;2019.43;571.795;2.07
1529;2011.8;591.571;2.07
1530;2058.8;546.159;2.07
1531;2085.96;567.888;2.08
1532;2100.91;599.384;2.08
1533;2095.73;540.056;2.08
1534;2071.01;569.842;2.08
1535;2034.08;565.935;2.08
1536;2031.64;579.608;2.08
1537;2061.24;557.878;2.08
1538;2071.01;567.888;2.08
1539;2073.75;553.972;2.08
1540;2056.36;597.43;2.08
1541;2024.31;571.795;2.08
1542;1984.64;544.206;2.08
1543;2014.24;605.243;2.08
1544;2049.03;573.748;2.08
1545;2063.68;569.842;2.08
1546;2066.12;559.832;2.08
1547;2056.36;579.608;2.09
1548;2024.31;575.701;2.09
1549;2014.24;595.477;2.09
1550;2058.8;550.066;2.09
1551;2088.4;565.935;2.09
1552;2103.35;601.337;2.09
1553;2103.35;546.159;2.09
1554;2076.19;565.935;2.09
1555;2038.96;563.738;2.09
1556;2036.52;579.608;2.09
1557;2063.68;559.832;2.09
1558;2073.75;567.888;2.09
1559;2078.63;546.159;2.09
1560;2063.68;597.43;2.09
1561;2024.31;573.748;2.09
1562;1989.52;540.056;2.10001
1563;2019.43;597.43;2.10001
1564;2051.47;571.795;2.10001
1565;2066.12;573.748;2.10001
1566;2073.75;559.832;2.10001
1567;2058.8;581.561;2.10001
1568;2029.19;569.842;2.10001
1569;2019.43;593.524;2.10001
1570;2063.68;546.159;2.10001
1571;2090.84;569.842;2.10001
1572;2105.8;599.384;2.10001
1573;2105.8;540.056;2.10001
1574;2081.08;567.888;2.10001
1575;2043.84;567.888;2.10001
1576;2038.96;579.608;2.10001
1577;2066.12;559.832;2.10001
1578;2078.63;567.888;2.11
1579;2078.63;553.972;2.11
1580;2066.12;595.477;2.11
1581;2026.75;571.795;2.11
1582;1994.71;546.159;2.11
1583;2021.87;605.243;2.11
1584;2058.8;571.795;2.11
1585;2071.01;569.842;2.11
1586;2078.63;559.832;2.11
1587;2063.68;579.608;2.11
1588;2034.08;571.795;2.11
1589;2024.31;597.43;2.11
1590;2068.56;563.738;2.11
1591;2095.73;565.935;2.11
1592;2113.12;605.243;2.11
1593;2115.56;557.878;2.12
1594;2085.96;559.832;2.12
1595;2049.03;561.785;2.12
1596;2043.84;581.561;2.12
1597;2071.01;561.785;2.12
1598;2081.08;565.935;2.12
1599;2085.96;546.159;2.12
1600;2071.01;583.514;2.12
1601;2034.08;575.701;2.12
1602;1999.59;538.102;2.12
1603;2026.75;587.42;2.12
1604;2061.24;579.608;2.12
1605;2073.75;579.608;2.12
1606;2081.08;557.878;2.12
1607;2066.12;583.514;2.12
1608;2038.96;569.842;2.13
1609;2026.75;593.524;2.13
1610;2071.01;557.878;2.13
1611;2103.35;563.738;2.13
1612;2115.56;603.29;2.13
1613;2115.56;550.066;2.13
1614;2088.4;565.935;2.13
1615;2051.47;559.832;2.13
1616;2049.03;579.608;2.13
1617;2076.19;557.878;2.13
1618;2088.4;569.842;2.13
1619;2090.84;546.159;2.13
1620;2073.75;591.571;2.13
1621;2038.96;575.701;2.13
1622;2004.47;538.102;2.13
1623;2029.19;593.524;2.14001
1624;2063.68;577.654;2.14001
1625;2078.63;573.748;2.14001
1626;2083.52;559.832;2.14001
1627;2071.01;581.561;2.14001
1628;2041.4;571.795;2.14001
1629;2031.64;593.524;2.14001
1630;2073.75;550.066;2.14001
1631;2105.8;565.935;2.14001
1632;2120.45;599.384;2.14001
1633;2120.45;544.206;2.14001
1634;2095.73;565.935;2.14001
1635;2056.36;565.935;2.14001
1636;2051.47;579.608;2.14001
1637;2081.08;557.878;2.15
1638;2090.84;569.842;2.15
1639;2093.28;550.066;2.15
1640;2078.63;599.384;2.15
1641;2041.4;571.795;2.15
1642;2006.92;538.102;2.15
1643;2034.08;599.384;2.15
1644;2068.56;573.748;2.15
1645;2085.96;571.795;2.15
1646;2090.84;559.832;2.15
1647;2076.19;579.608;2.15
1648;2046.59;569.842;2.15
1649;2034.08;591.571;2.15
1650;2081.08;546.159;2.15
1651;2113.12;569.842;2.16
1652;2125.33;597.43;2.16
1653;2125.33;538.102;2.16
1654;2098.17;567.888;2.16
1655;2061.24;565.935;2.16
1656;2056.36;579.608;2.16
1657;2083.52;559.832;2.16
1658;2093.28;563.738;2.16
1659;2098.17;553.972;2.16
1660;2083.52;597.43;2.16
