<WeldAnalyseData xmlns:i="http:www.w3.org/2001/XMLSchema-instance">
<WeldParameter>
<TimeStamp>DT#2024-01-24-15:02:13</TimeStamp>
<Generator>SG-22-10000</Generator>
<GenFreq>20</GenFreq>
<MaxForce>8000</MaxForce>
<MaxPower>10000</MaxPower>
<RunupPressure>1.5</RunupPressure>
<RunupDist>10</RunupDist>
<RunPress>0.8</RunPress>
<ShakeDelay>0.03</ShakeDelay>
<ShakeTime>0.3</ShakeTime>
<RunBackPress1>6</RunBackPress1>
<RunBackPress2>2</RunBackPress2>
<RunBackDist>1</RunBackDist>
<TrigValue>500</TrigValue>
<TrigModeUnit>W</TrigModeUnit>
<WeldModeUnit>Ws</WeldModeUnit>
<PressNr>0</PressNr>
<MaxLoss>1500</MaxLoss>
</WeldParameter>
<WeldSets>
<WeldSet>
<PressRiseTime>0</PressRiseTime>
<RunPressure>1</RunPressure>
<Amplitude>86</Amplitude>
<WeldMode>3270</WeldMode>
</WeldSet>
</WeldSets>
<WeldValue>
<WeldNr>2974</WeldNr>
<RecipeName>RickStyle</RecipeName>
<WeldTime>1658</WeldTime>
<DistDiff>2.36</DistDiff>
<DistAbs>78.08</DistAbs>
<Energy>3270.66</Energy>
<MaxPower>2157.32</MaxPower>
<CycleTime>6060</CycleTime>
<TrigForce>502.701</TrigForce>
<TrigDist>75.72</TrigDist>
<RunSpeed>67.6071</RunSpeed>
<MaxForce>617.206</MaxForce>
<LossPower>324.145</LossPower>
</WeldValue>
</WeldAnalyseData>
#CSV-START#
ms;Power[W];Force[N];Distance[mm]
1;0;0;0
2;0;504.654;0
3;0;506.607;0
4;0;506.607;0
5;0;504.654;0
6;0;504.654;0
7;0;506.607;0
8;0;480.972;0
9;0;427.503;0.0100021
10;0;409.925;0.0400009
11;0;378.185;0.0699997
12;21.3248;366.466;0.0999985
13;78.0892;338.633;0.139999
14;159.574;326.914;0.18
15;233.734;299.326;0.220001
16;300.264;309.091;0.260002
17;354.587;295.419;0.309998
18;406.468;269.539;0.360001
19;463.233;299.326;0.409996
20;534.951;297.372;0.449997
21;604.228;305.185;0.489998
22;668.317;299.326;0.519997
23;732.406;319.102;0.549995
24;794.359;326.914;0.580002
25;851.123;348.643;0.610001
26;922.536;340.831;0.619995
27;994.255;348.643;0.639999
28;1051.02;390.149;0.650002
29;1102.9;372.326;0.659996
30;1139.83;380.139;0.669998
31;1157.22;396.008;0.669998
32;1171.87;407.971;0.68
33;1209.11;401.868;0.68
34;1246.03;409.925;0.690002
35;1275.64;396.008;0.690002
36;1297.91;421.644;0.699997
37;1307.68;421.644;0.699997
38;1307.68;394.055;0.709999
39;1332.4;429.456;0.709999
40;1381.84;431.654;0.720001
41;1418.77;427.503;0.729996
42;1448.68;415.784;0.729996
43;1473.09;433.607;0.739998
44;1480.72;425.55;0.75
45;1488.04;447.279;0.75
46;1530.16;419.691;0.760002
47;1581.74;423.597;0.769997
48;1614.09;461.196;0.769997
49;1648.57;417.737;0.779999
50;1658.34;421.644;0.790001
51;1651.01;427.503;0.799995
52;1651.01;443.373;0.799995
53;1687.94;425.55;0.809998
54;1719.99;433.607;0.82
55;1747.15;415.784;0.830002
56;1764.54;457.289;0.830002
57;1754.78;449.232;0.839996
58;1737.38;417.737;0.849998
59;1752.33;469.008;0.860001
60;1801.47;461.196;0.860001
61;1838.7;463.149;0.869995
62;1860.98;449.232;0.869995
63;1873.19;453.383;0.879997
64;1863.42;465.102;0.879997
65;1850.91;482.925;0.889999
66;1885.7;470.962;0.900002
67;1934.84;451.186;0.900002
68;1964.44;490.738;0.909996
69;1984.28;475.112;0.909996
70;1979.39;451.186;0.909996
71;1954.67;472.915;0.919998
72;1934.84;486.831;0.919998
73;1962;482.925;0.93
74;1989.16;475.112;0.93
75;2001.67;457.289;0.940002
76;2006.55;482.925;0.940002
77;1984.28;494.644;0.940002
78;1947.35;459.243;0.949997
79;1952.23;486.831;0.949997
80;1996.79;510.514;0.959999
81;2023.95;490.738;0.959999
82;2038.6;479.019;0.970001
83;2041.04;488.784;0.970001
84;2013.88;496.597;0.970001
85;1994.35;520.524;0.979996
86;2026.39;496.597;0.979996
87;2070.64;486.831;0.989998
88;2092.92;526.383;0.989998
89;2107.88;494.644;0.989998
90;2092.92;484.878;1
91;2060.88;496.597;1
92;2038.6;514.42;1.01
93;2063.32;506.607;1.01
94;2085.6;502.701;1.01
95;2097.8;480.972;1.02
96;2092.92;516.373;1.02
97;2068.2;516.373;1.02
98;2023.95;477.065;1.03
99;2023.95;518.326;1.03
100;2068.2;526.383;1.03
101;2090.48;518.326;1.04
102;2100.25;500.748;1.04
103;2100.25;518.326;1.04
104;2070.64;514.42;1.04
105;2045.92;540.056;1.05
106;2070.64;508.56;1.05
107;2115.2;506.607;1.05
108;2137.48;546.159;1.06
109;2144.8;504.654;1.06
110;2130.15;502.701;1.06
111;2095.36;506.607;1.07
112;2070.64;526.383;1.07
113;2097.8;510.514;1.07
114;2120.08;514.42;1.08
115;2130.15;492.691;1.08
116;2122.52;528.336;1.08
117;2088.04;526.383;1.08
118;2045.92;488.784;1.09
119;2038.6;534.196;1.09
120;2080.71;532.243;1.09
121;2102.99;532.243;1.09
122;2110.32;510.514;1.1
123;2102.99;534.196;1.1
124;2073.08;524.43;1.1
125;2043.48;550.066;1.1
126;2065.76;516.373;1.11
127;2107.88;522.477;1.11
128;2127.41;559.832;1.11
129;2132.6;508.56;1.11
130;2112.76;518.326;1.12
131;2073.08;520.524;1.12
132;2045.92;536.149;1.12
133;2068.2;514.42;1.12
134;2085.6;526.383;1.13
135;2090.48;506.607;1.13
136;2088.04;546.159;1.13
137;2060.88;532.243;1.13
138;2016.32;498.795;1.14
139;2016.32;524.43;1.14
140;2065.76;557.878;1.14
141;2095.36;530.29;1.14
142;2115.2;522.477;1.14
143;2117.64;522.477;1.15
144;2088.04;534.196;1.15
145;2058.44;552.019;1.15
146;2080.71;536.149;1.15
147;2120.08;518.326;1.15
148;2137.48;555.925;1.16
149;2142.36;534.196;1.16
150;2120.08;512.467;1.16
151;2078.27;528.336;1.16
152;2048.67;542.009;1.16
153;2065.76;538.102;1.17
154;2083.16;530.29;1.17
155;2088.04;512.467;1.17
156;2078.27;536.149;1.17
157;2045.92;544.206;1.17
158;1999.23;510.514;1.18
159;1994.35;534.196;1.18
160;2033.72;557.878;1.18
161;2053.55;540.056;1.18
162;2060.88;528.336;1.18
163;2053.55;536.149;1.18
164;2028.83;538.102;1.19
165;2001.67;561.785;1.19
166;2023.95;540.056;1.19
167;2065.76;528.336;1.19
168;2078.27;569.842;1.19
169;2090.48;538.102;1.19
170;2073.08;524.43;1.2
171;2033.72;538.102;1.2
172;2009;553.972;1.2
173;2028.83;542.009;1.2
174;2048.67;540.056;1.2
175;2055.99;520.524;1.21
176;2048.67;550.066;1.21
177;2018.76;553.972;1.21
178;1979.39;514.42;1.21
179;1974.51;553.972;1.21
180;2013.88;559.832;1.21
181;2036.16;552.019;1.22
182;2048.67;536.149;1.22
183;2045.92;550.066;1.22
184;2021.51;548.112;1.22
185;1996.79;569.842;1.22
186;2018.76;540.056;1.22
187;2063.32;536.149;1.22
188;2083.16;575.701;1.23
189;2090.48;536.149;1.23
190;2075.83;538.102;1.23
191;2041.04;540.056;1.23
192;2016.32;555.925;1.23
193;2036.16;538.102;1.23
194;2055.99;540.056;1.24
195;2063.32;522.477;1.24
196;2058.44;559.832;1.24
197;2026.39;553.972;1.24
198;1984.28;518.326;1.24
199;1979.39;561.785;1.24
200;2016.32;559.832;1.24
201;2038.6;557.878;1.25
202;2045.92;536.149;1.25
203;2043.48;561.785;1.25
204;2011.44;552.019;1.25
205;1986.72;573.748;1.25
206;2009;544.206;1.25
207;2048.67;546.159;1.26
208;2065.76;583.514;1.26
209;2070.64;534.196;1.26
210;2055.99;544.206;1.26
211;2023.95;542.009;1.26
212;1994.35;559.832;1.26
213;2013.88;542.009;1.26
214;2028.83;548.112;1.27
215;2036.16;526.383;1.27
216;2031.27;559.832;1.27
217;2001.67;559.832;1.27
218;1959.56;524.43;1.27
219;1954.67;561.785;1.27
220;1994.35;567.888;1.27
221;2013.88;559.832;1.28
222;2023.95;544.206;1.28
223;2023.95;559.832;1.28
224;1999.23;557.878;1.28
225;1972.07;579.608;1.28
226;1994.35;548.112;1.28
227;2036.16;548.112;1.28
228;2053.55;587.42;1.29
229;2063.32;546.159;1.29
230;2045.92;546.159;1.29
231;2011.44;550.066;1.29
232;1986.72;567.888;1.29
233;2004.11;550.066;1.29
234;2023.95;553.972;1.29
235;2031.27;532.243;1.29
236;2026.39;569.842;1.3
237;1996.79;561.785;1.3
238;1959.56;524.43;1.3
239;1952.23;569.842;1.3
240;1994.35;567.888;1.3
241;2013.88;563.738;1.3
242;2023.95;548.112;1.3
243;2018.76;569.842;1.3
244;1994.35;559.832;1.31
245;1969.63;581.561;1.31
246;1991.6;550.066;1.31
247;2033.72;555.925;1.31
248;2051.11;591.571;1.31
249;2055.99;540.056;1.31
250;2043.48;552.019;1.31
251;2004.11;550.066;1.32
252;1979.39;571.795;1.32
253;1999.23;550.066;1.32
254;2016.32;553.972;1.32
255;2026.39;540.056;1.32
256;2018.76;557.878;1.32
257;1989.16;575.701;1.32
258;1947.35;542.009;1.32
259;1942.46;555.925;1.33
260;1981.83;587.42;1.33
261;1999.23;561.785;1.33
262;2011.44;552.019;1.33
263;2009;555.925;1.33
264;1981.83;567.888;1.33
265;1957.11;583.514;1.33
266;1979.39;567.888;1.33
267;2018.76;552.019;1.34
268;2036.16;585.467;1.34
269;2045.92;563.738;1.34
270;2028.83;542.009;1.34
271;1994.35;559.832;1.34
272;1969.63;573.748;1.34
273;1986.72;571.795;1.34
274;2006.55;559.832;1.34
275;2013.88;542.009;1.35
276;2009;567.888;1.35
277;1979.39;575.701;1.35
278;1942.46;540.056;1.35
279;1934.84;567.888;1.35
280;1974.51;585.467;1.35
281;1996.79;567.888;1.35
282;2004.11;555.925;1.35
283;2001.67;563.738;1.35
284;1976.95;567.888;1.36
285;1952.23;591.571;1.36
286;1972.07;565.935;1.36
287;2016.32;559.832;1.36
288;2031.27;595.477;1.36
289;2038.6;563.738;1.36
290;2023.95;552.019;1.36
291;1989.16;561.785;1.36
292;1959.56;577.654;1.37
293;1981.83;569.842;1.37
294;2001.67;565.935;1.37
295;2006.55;544.206;1.37
296;2001.67;575.701;1.37
297;1976.95;577.654;1.37
298;1934.84;544.206;1.37
299;1929.95;579.608;1.37
300;1969.63;587.42;1.37
301;1989.16;575.701;1.38
302;1999.23;559.832;1.38
303;1996.79;577.654;1.38
304;1972.07;573.748;1.38
305;1944.91;595.477;1.38
306;1967.18;567.888;1.38
307;2006.55;565.935;1.38
308;2026.39;603.29;1.38
309;2033.72;563.738;1.38
310;2021.51;561.785;1.39
311;1981.83;567.888;1.39
312;1957.11;585.467;1.39
313;1979.39;567.888;1.39
314;1996.79;571.795;1.39
315;2001.67;552.019;1.39
316;1996.79;587.42;1.39
317;1974.51;583.514;1.39
318;1929.95;546.159;1.39
319;1925.07;591.571;1.4
320;1976.95;585.467;1.4
321;1986.72;585.467;1.4
322;1996.79;567.888;1.4
323;1994.35;589.618;1.4
324;1967.18;579.608;1.4
325;1942.46;605.243;1.4
326;1981.83;567.888;1.4
327;2004.11;573.748;1.4
328;2021.51;613.3;1.41
329;2031.27;561.785;1.41
330;2004.11;552.019;1.41
331;1981.83;575.701;1.41
332;1957.11;587.42;1.41
333;1984.28;587.42;1.41
334;1996.79;577.654;1.41
335;2001.67;559.832;1.41
336;1986.72;577.654;1.41
337;1967.18;593.524;1.41
338;1920.19;561.785;1.42
339;1920.19;573.748;1.42
340;1972.07;605.243;1.42
341;1986.72;579.608;1.42
342;1996.79;571.795;1.42
343;1981.83;573.748;1.42
344;1967.18;583.514;1.42
345;1940.02;603.29;1.42
346;1962;585.467;1.42
347;1999.23;569.842;1.43
348;2016.32;603.29;1.43
349;2026.39;581.561;1.43
350;2001.67;561.785;1.43
351;1976.95;579.608;1.43
352;1952.23;591.571;1.43
353;1979.39;587.42;1.43
354;1989.16;577.654;1.43
355;1996.79;559.832;1.43
356;1986.72;583.514;1.43
357;1962;593.524;1.44
358;1912.86;555.925;1.44
359;1920.19;585.467;1.44
360;1969.63;601.337;1.44
361;1981.83;583.514;1.44
362;1991.6;573.748;1.44
363;1979.39;581.561;1.44
364;1962;585.467;1.44
365;1937.28;605.243;1.44
366;1974.51;583.514;1.44
367;2004.11;577.654;1.44
368;2018.76;613.3;1.45
369;2021.51;579.608;1.45
370;1996.79;567.888;1.45
371;1974.51;577.654;1.45
372;1949.79;591.571;1.45
373;1976.95;583.514;1.45
374;1986.72;579.608;1.45
375;1991.6;559.832;1.45
376;1979.39;591.571;1.45
377;1947.35;591.571;1.45
378;1910.12;553.972;1.46
379;1927.51;591.571;1.46
380;1969.63;599.384;1.46
381;1981.83;589.618;1.46
382;1986.72;573.748;1.46
383;1976.95;591.571;1.46
384;1959.56;583.514;1.46
385;1934.84;609.149;1.46
386;1974.51;579.608;1.46
387;2001.67;577.654;1.46
388;2016.32;615.253;1.46
389;2021.51;575.701;1.47
390;1996.79;573.748;1.47
391;1959.56;575.701;1.47
392;1949.79;591.571;1.47
393;1974.51;577.654;1.47
394;1986.72;579.608;1.47
395;1989.16;557.878;1.47
396;1981.83;595.477;1.47
397;1944.91;587.42;1.47
398;1910.12;552.019;1.47
399;1929.95;597.43;1.47
400;1964.44;593.524;1.48
401;1976.95;593.524;1.48
402;1986.72;573.748;1.48
403;1976.95;593.524;1.48
404;1947.35;587.42;1.48
405;1932.39;609.149;1.48
406;1972.07;571.795;1.48
407;2004.11;575.701;1.48
408;2013.88;611.347;1.48
409;2018.76;579.608;1.48
410;1994.35;569.842;1.48
411;1959.56;579.608;1.48
412;1949.79;593.524;1.49
413;1976.95;583.514;1.49
414;1986.72;579.608;1.49
415;1994.35;557.878;1.49
416;1981.83;591.571;1.49
417;1944.91;589.618;1.49
418;1910.12;555.925;1.49
419;1912.86;591.571;1.49
420;1967.18;599.384;1.49
421;1981.83;587.42;1.49
422;1986.72;573.748;1.49
423;1976.95;591.571;1.5
424;1947.35;583.514;1.5
425;1932.39;607.196;1.5
426;1972.07;577.654;1.5
427;2001.67;575.701;1.5
428;2016.32;613.3;1.5
429;2021.51;573.748;1.5
430;1994.35;573.748;1.5
431;1957.11;573.748;1.5
432;1947.35;591.571;1.5
433;1974.51;575.701;1.5
434;1984.28;579.608;1.5
435;1994.35;555.925;1.51
436;1979.39;595.477;1.51
437;1944.91;587.42;1.51
438;1910.12;550.066;1.51
439;1927.51;597.43;1.51
440;1964.44;591.571;1.51
441;1979.39;589.618;1.51
442;1989.16;573.748;1.51
443;1976.95;595.477;1.51
444;1947.35;583.514;1.51
445;1932.39;599.384;1.51
446;1972.07;593.524;1.52
447;2001.67;565.935;1.52
448;2013.88;595.477;1.52
449;2018.76;589.618;1.52
450;1994.35;555.925;1.52
451;1957.11;579.608;1.52
452;1947.35;589.618;1.52
453;1976.95;589.618;1.52
454;1986.72;577.654;1.52
455;1994.35;563.738;1.52
456;1981.83;579.608;1.52
457;1947.35;593.524;1.52
458;1912.86;563.738;1.52
459;1927.51;577.654;1.53
460;1954.67;607.196;1.53
461;1979.39;583.514;1.53
462;1984.28;571.795;1.53
463;1976.95;575.701;1.53
464;1947.35;583.514;1.53
465;1932.39;603.29;1.53
466;1969.63;587.42;1.53
467;2001.67;573.748;1.53
468;2013.88;603.29;1.53
469;2018.76;585.467;1.53
470;1996.79;561.785;1.53
471;1959.56;581.561;1.54
472;1949.79;589.618;1.54
473;1976.95;587.42;1.54
474;1989.16;577.654;1.54
475;1991.6;559.832;1.54
476;1981.83;583.514;1.54
477;1947.35;593.524;1.54
478;1912.86;555.925;1.54
479;1929.95;583.514;1.54
480;1967.18;601.337;1.54
481;1981.83;585.467;1.54
482;1986.72;571.795;1.54
483;1976.95;581.561;1.54
484;1947.35;583.514;1.55
485;1934.84;605.243;1.55
486;1972.07;581.561;1.55
487;2004.11;573.748;1.55
488;2018.76;611.347;1.55
489;2018.76;577.654;1.55
490;1999.23;569.842;1.55
491;1962;577.654;1.55
492;1952.23;593.524;1.55
493;1976.95;581.561;1.55
494;1991.6;579.608;1.55
495;1994.35;557.878;1.55
496;1984.28;589.618;1.56
497;1947.35;589.618;1.56
498;1912.86;553.972;1.56
499;1929.95;589.618;1.56
500;1969.63;595.477;1.56
501;1984.28;587.42;1.56
502;1989.16;571.795;1.56
503;1981.83;589.618;1.56
504;1952.23;583.514;1.56
505;1937.28;609.149;1.56
506;1974.51;577.654;1.56
507;2004.11;573.748;1.56
508;2018.76;615.253;1.56
509;2023.95;571.795;1.57
510;1999.23;573.748;1.57
511;1964.44;575.701;1.57
512;1954.67;591.571;1.57
513;1979.39;573.748;1.57
514;1991.6;579.608;1.57
515;1991.6;557.878;1.57
516;1981.83;595.477;1.57
517;1947.35;587.42;1.57
518;1912.86;552.019;1.57
519;1932.39;597.43;1.57
520;1969.63;593.524;1.57
521;1984.28;589.618;1.57
522;1991.6;573.748;1.58
523;1979.39;575.701;1.58
524;1952.23;585.467;1.58
525;1934.84;597.43;1.58
526;1976.95;589.618;1.58
527;2006.55;567.888;1.58
528;2018.76;599.384;1.58
529;2023.95;591.571;1.58
530;1999.23;557.878;1.58
531;1962;581.561;1.58
532;1952.23;591.571;1.58
533;1976.95;587.42;1.58
534;1991.6;579.608;1.58
535;1996.79;561.785;1.59
536;1986.72;579.608;1.59
537;1949.79;595.477;1.59
538;1915.3;563.738;1.59
539;1932.39;579.608;1.59
540;1969.63;607.196;1.59
541;1984.28;581.561;1.59
542;1991.6;571.795;1.59
543;1984.28;577.654;1.59
544;1952.23;583.514;1.59
545;1940.02;603.29;1.59
546;1974.51;585.467;1.59
547;2009;569.842;1.59
548;2018.76;605.243;1.6
549;2026.39;583.514;1.6
550;2001.67;561.785;1.6
551;1967.18;577.654;1.6
552;1954.67;591.571;1.6
553;1979.39;587.42;1.6
554;1991.6;577.654;1.6
555;1999.23;559.832;1.6
556;1986.72;583.514;1.6
557;1952.23;591.571;1.6
558;1915.3;557.878;1.6
559;1934.84;585.467;1.6
560;1969.63;603.29;1.6
561;1984.28;583.514;1.6
562;1991.6;571.795;1.61
563;1981.83;583.514;1.61
564;1952.23;583.514;1.61
565;1940.02;605.243;1.61
566;1976.95;579.608;1.61
567;2006.55;575.701;1.61
568;2021.51;609.149;1.61
569;2026.39;577.654;1.61
570;2004.11;569.842;1.61
571;1967.18;575.701;1.61
572;1952.23;591.571;1.61
573;1979.39;583.514;1.61
574;1991.6;577.654;1.61
575;1996.79;559.832;1.62
576;1984.28;589.618;1.62
577;1952.23;589.618;1.62
578;1917.74;552.019;1.62
579;1932.39;591.571;1.62
580;1969.63;597.43;1.62
581;1984.28;587.42;1.62
582;1991.6;571.795;1.62
583;1984.28;589.618;1.62
584;1957.11;585.467;1.62
585;1940.02;607.196;1.62
586;1976.95;577.654;1.62
587;2006.55;575.701;1.62
588;2021.51;613.3;1.63
589;2028.83;571.795;1.63
590;2004.11;573.748;1.63
591;1969.63;573.748;1.63
592;1954.67;591.571;1.63
593;1981.83;573.748;1.63
594;1991.6;577.654;1.63
595;1999.23;557.878;1.63
596;1986.72;593.524;1.63
597;1949.79;587.42;1.63
598;1917.74;555.925;1.63
599;1932.39;585.467;1.63
600;1969.63;601.337;1.63
601;1984.28;585.467;1.63
602;1991.6;573.748;1.64
603;1981.83;581.561;1.64
604;1954.67;585.467;1.64
605;1937.28;605.243;1.64
606;1979.39;581.561;1.64
607;2006.55;573.748;1.64
608;2021.51;609.149;1.64
609;2026.39;577.654;1.64
610;2004.11;565.935;1.64
611;1969.63;573.748;1.64
612;1954.67;591.571;1.64
613;1979.39;581.561;1.64
614;1994.35;579.608;1.64
615;1996.79;555.925;1.64
616;1989.16;587.42;1.65
617;1952.23;589.618;1.65
618;1917.74;552.019;1.65
619;1932.39;589.618;1.65
620;1969.63;597.43;1.65
621;1984.28;587.42;1.65
622;1991.6;571.795;1.65
623;1984.28;589.618;1.65
624;1957.11;583.514;1.65
625;1940.02;607.196;1.65
626;1976.95;575.701;1.65
627;2009;577.654;1.65
628;2021.51;613.3;1.65
629;2026.39;571.795;1.65
630;2004.11;571.795;1.66
631;1969.63;573.748;1.66
632;1954.67;591.571;1.66
633;1979.39;573.748;1.66
634;1996.79;579.608;1.66
635;1996.79;557.878;1.66
636;1989.16;593.524;1.66
637;1954.67;595.477;1.66
638;1917.74;567.888;1.66
639;1932.39;569.842;1.66
640;1972.07;613.3;1.66
641;1984.28;577.654;1.66
642;1994.35;571.795;1.66
643;1984.28;573.748;1.66
644;1957.11;585.467;1.66
645;1940.02;597.43;1.67
646;1979.39;589.618;1.67
647;2009;563.738;1.67
648;2023.95;595.477;1.67
649;2028.83;589.618;1.67
650;2006.55;553.972;1.67
651;1969.63;579.608;1.67
652;1959.56;587.42;1.67
653;1981.83;587.42;1.67
654;1996.79;573.748;1.67
655;1999.23;561.785;1.67
656;1991.6;579.608;1.67
657;1954.67;593.524;1.67
658;1920.19;557.878;1.67
659;1934.84;575.701;1.67
660;1976.95;605.243;1.68
661;1989.16;579.608;1.68
662;1996.79;569.842;1.68
663;1986.72;573.748;1.68
664;1957.11;585.467;1.68
665;1942.46;601.337;1.68
666;1979.39;585.467;1.68
667;2011.44;565.935;1.68
668;2026.39;599.384;1.68
669;2028.83;583.514;1.68
670;2006.55;557.878;1.68
671;1972.07;577.654;1.68
672;1957.11;587.42;1.68
673;1984.28;585.467;1.68
674;1994.35;577.654;1.68
675;2001.67;555.925;1.69
676;1989.16;579.608;1.69
677;1957.11;587.42;1.69
678;1920.19;552.019;1.69
679;1934.84;581.561;1.69
680;1972.07;601.337;1.69
681;1989.16;579.608;1.69
682;1996.79;567.888;1.69
683;1989.16;579.608;1.69
684;1962;581.561;1.69
685;1942.46;601.337;1.69
686;1979.39;579.608;1.69
687;2011.44;569.842;1.69
688;2026.39;609.149;1.69
689;2031.27;575.701;1.7
690;2009;563.738;1.7
691;1972.07;573.748;1.7
692;1957.11;589.618;1.7
693;1981.83;579.608;1.7
694;1996.79;575.701;1.7
695;1999.23;552.019;1.7
696;1991.6;587.42;1.7
697;1957.11;587.42;1.7
698;1922.63;550.066;1.7
699;1934.84;585.467;1.7
700;1974.51;593.524;1.7
701;1989.16;585.467;1.7
702;1996.79;567.888;1.7
703;1989.16;585.467;1.7
704;1962;577.654;1.71
705;1944.91;605.243;1.71
706;1979.39;575.701;1.71
707;2013.88;571.795;1.71
708;2026.39;611.347;1.71
709;2031.27;567.888;1.71
710;2009;567.888;1.71
711;1969.63;569.842;1.71
712;1962;587.42;1.71
713;1984.28;571.795;1.71
714;1996.79;571.795;1.71
715;1999.23;563.738;1.71
716;1996.79;569.842;1.71
717;1959.56;595.477;1.71
718;1922.63;567.888;1.71
719;1940.02;569.842;1.72
720;1974.51;609.149;1.72
721;1991.6;579.608;1.72
722;1999.23;569.842;1.72
723;1989.16;571.795;1.72
724;1962;583.514;1.72
725;1944.91;595.477;1.72
726;1981.83;587.42;1.72
727;2013.88;561.785;1.72
728;2028.83;595.477;1.72
729;2036.16;585.467;1.72
730;2011.44;552.019;1.72
731;1974.51;577.654;1.72
732;1962;589.618;1.72
733;1989.16;587.42;1.73
734;1999.23;573.748;1.73
735;2004.11;561.785;1.73
736;1994.35;577.654;1.73
737;1959.56;593.524;1.73
738;1925.07;559.832;1.73
739;1937.28;573.748;1.73
740;1976.95;603.29;1.73
741;1989.16;579.608;1.73
742;1999.23;567.888;1.73
743;1991.6;573.748;1.73
744;1962;579.608;1.73
745;1944.91;599.384;1.73
746;1981.83;579.608;1.73
747;2016.32;565.935;1.73
748;2028.83;601.337;1.74
749;2031.27;579.608;1.74
750;2011.44;557.878;1.74
751;1974.51;575.701;1.74
752;1959.56;587.42;1.74
753;1986.72;585.467;1.74
754;1999.23;573.748;1.74
755;2004.11;553.972;1.74
756;1994.35;579.608;1.74
757;1962;589.618;1.74
758;1925.07;553.972;1.74
759;1940.02;579.608;1.74
760;1974.51;597.43;1.74
761;1991.6;581.561;1.74
762;1999.23;567.888;1.74
763;1989.16;577.654;1.75
764;1962;579.608;1.75
765;1947.35;601.337;1.75
766;1981.83;579.608;1.75
767;2016.32;567.888;1.75
768;2031.27;609.149;1.75
769;2036.16;575.701;1.75
770;2013.88;563.738;1.75
771;1976.95;571.795;1.75
772;1964.44;587.42;1.75
773;1989.16;579.608;1.75
774;2001.67;575.701;1.75
775;2006.55;553.972;1.75
776;1999.23;585.467;1.75
777;1964.44;585.467;1.75
778;1927.51;550.066;1.76
779;1940.02;585.467;1.76
780;1976.95;593.524;1.76
781;1994.35;585.467;1.76
782;2004.11;567.888;1.76
783;1994.35;585.467;1.76
784;1967.18;579.608;1.76
785;1949.79;603.29;1.76
786;1984.28;575.701;1.76
787;2016.32;571.795;1.76
788;2031.27;609.149;1.76
789;2033.72;567.888;1.76
790;2013.88;567.888;1.76
791;1976.95;575.701;1.76
792;1964.44;587.42;1.77
793;1991.6;583.514;1.77
794;2001.67;571.795;1.77
795;2009;553.972;1.77
796;1999.23;581.561;1.77
797;1964.44;587.42;1.77
798;1927.51;552.019;1.77
799;1942.46;579.608;1.77
800;1979.39;599.384;1.77
801;1994.35;581.561;1.77
802;2001.67;565.935;1.77
803;1994.35;575.701;1.77
804;1967.18;581.561;1.77
805;1947.35;601.337;1.77
806;1984.28;577.654;1.77
807;2016.32;569.842;1.78
808;2031.27;605.243;1.78
809;2036.16;571.795;1.78
810;2016.32;561.785;1.78
811;1976.95;571.795;1.78
812;1967.18;589.618;1.78
813;1989.16;579.608;1.78
814;2001.67;573.748;1.78
815;2009;555.925;1.78
816;1999.23;587.42;1.78
817;1964.44;583.514;1.78
818;1929.95;546.159;1.78
819;1942.46;589.618;1.78
820;1979.39;593.524;1.78
821;1996.79;583.514;1.78
822;2001.67;565.935;1.79
823;1996.79;585.467;1.79
824;1967.18;581.561;1.79
825;1949.79;601.337;1.79
826;1984.28;571.795;1.79
827;2016.32;571.795;1.79
828;2033.72;609.149;1.79
829;2036.16;593.524;1.79
830;2016.32;548.112;1.79
831;1981.83;577.654;1.79
832;1964.44;585.467;1.79
833;1991.6;585.467;1.79
834;2004.11;571.795;1.79
835;2009;563.738;1.79
836;1999.23;569.842;1.8
837;1964.44;595.477;1.8
838;1927.51;565.935;1.8
839;1942.46;567.888;1.8
840;1979.39;611.347;1.8
841;1991.6;577.654;1.8
842;2001.67;569.842;1.8
843;1994.35;571.795;1.8
844;1967.18;581.561;1.8
845;1947.35;595.477;1.8
846;1984.28;585.467;1.8
847;2018.76;561.785;1.8
848;2033.72;593.524;1.8
849;2036.16;585.467;1.8
850;2016.32;552.019;1.8
851;1979.39;577.654;1.81
852;1967.18;585.467;1.81
853;1989.16;585.467;1.81
854;2006.55;571.795;1.81
855;2006.55;559.832;1.81
856;1999.23;577.654;1.81
857;1967.18;591.571;1.81
858;1929.95;559.832;1.81
859;1942.46;573.748;1.81
860;1981.83;601.337;1.81
861;1996.79;579.608;1.81
862;2004.11;567.888;1.81
863;1994.35;571.795;1.81
864;1967.18;581.561;1.81
865;1949.79;597.43;1.81
866;1984.28;585.467;1.82
867;2018.76;565.935;1.82
868;2031.27;601.337;1.82
869;2038.6;579.608;1.82
870;2016.32;555.925;1.82
871;1979.39;573.748;1.82
872;1964.44;587.42;1.82
873;1991.6;585.467;1.82
874;2004.11;573.748;1.82
875;2009;553.972;1.82
876;1996.79;579.608;1.82
877;1967.18;587.42;1.82
878;1929.95;550.066;1.82
879;1942.46;579.608;1.82
880;1981.83;599.384;1.82
881;1994.35;579.608;1.83
882;2001.67;565.935;1.83
883;1996.79;575.701;1.83
884;1969.63;579.608;1.83
885;1949.79;599.384;1.83
886;1984.28;577.654;1.83
887;2016.32;567.888;1.83
888;2031.27;605.243;1.83
889;2038.6;573.748;1.83
890;2018.76;563.738;1.83
891;1979.39;573.748;1.83
892;1964.44;587.42;1.83
893;1991.6;577.654;1.83
894;2009;573.748;1.83
895;2009;553.972;1.84
896;2001.67;583.514;1.84
897;1967.18;585.467;1.84
898;1929.95;548.112;1.84
899;1940.02;585.467;1.84
900;1979.39;591.571;1.84
901;1996.79;583.514;1.84
902;2004.11;567.888;1.84
903;1999.23;585.467;1.84
904;1969.63;579.608;1.84
905;1947.35;601.337;1.84
906;1984.28;589.618;1.84
907;2018.76;557.878;1.84
908;2031.27;585.467;1.84
909;2036.16;587.42;1.84
910;2016.32;546.159;1.85
911;1979.39;573.748;1.85
912;1964.44;583.514;1.85
913;1991.6;583.514;1.85
914;2004.11;571.795;1.85
915;2009;561.785;1.85
916;2001.67;571.795;1.85
917;1967.18;593.524;1.85
918;1929.95;563.738;1.85
919;1942.46;567.888;1.85
920;1979.39;609.149;1.85
921;1994.35;577.654;1.85
922;2004.11;567.888;1.85
923;1996.79;569.842;1.85
924;1969.63;581.561;1.85
925;1952.23;595.477;1.86
926;1984.28;585.467;1.86
927;2018.76;559.832;1.86
928;2031.27;593.524;1.86
929;2038.6;585.467;1.86
930;2018.76;552.019;1.86
931;1981.83;573.748;1.86
932;1964.44;583.514;1.86
933;1991.6;585.467;1.86
934;2004.11;571.795;1.86
935;2011.44;555.925;1.86
936;1996.79;575.701;1.86
937;1969.63;591.571;1.86
938;1932.39;557.878;1.86
939;1942.46;573.748;1.86
940;1979.39;603.29;1.87
941;1996.79;577.654;1.87
942;2001.67;565.935;1.87
943;1996.79;569.842;1.87
944;1969.63;579.608;1.87
945;1949.79;597.43;1.87
946;1984.28;579.608;1.87
947;2018.76;565.935;1.87
948;2031.27;601.337;1.87
949;2038.6;579.608;1.87
950;2018.76;557.878;1.87
951;1981.83;575.701;1.87
952;1967.18;585.467;1.87
953;1991.6;583.514;1.87
954;2006.55;571.795;1.87
955;2011.44;552.019;1.88
956;2001.67;579.608;1.88
957;1967.18;587.42;1.88
958;1932.39;550.066;1.88
959;1944.91;577.654;1.88
960;1979.39;597.43;1.88
961;1996.79;577.654;1.88
962;2006.55;563.738;1.88
963;1999.23;575.701;1.88
964;1974.51;577.654;1.88
965;1952.23;601.337;1.88
966;1984.28;577.654;1.88
967;2018.76;569.842;1.88
968;2036.16;605.243;1.88
969;2038.6;571.795;1.88
970;2021.51;561.785;1.89
971;1984.28;569.842;1.89
972;1969.63;587.42;1.89
973;1991.6;577.654;1.89
974;2006.55;573.748;1.89
975;2011.44;552.019;1.89
976;2004.11;585.467;1.89
977;1969.63;585.467;1.89
978;1932.39;546.159;1.89
979;1942.46;587.42;1.89
980;1984.28;591.571;1.89
981;1996.79;583.514;1.89
982;2006.55;563.738;1.89
983;1999.23;571.795;1.89
984;1972.07;579.608;1.89
985;1952.23;595.477;1.9
986;1989.16;581.561;1.9
987;2018.76;563.738;1.9
988;2036.16;597.43;1.9
989;2041.04;579.608;1.9
990;2018.76;557.878;1.9
991;1981.83;573.748;1.9
992;1967.18;587.42;1.9
993;1991.6;583.514;1.9
994;2006.55;575.701;1.9
995;2011.44;552.019;1.9
996;2004.11;579.608;1.9
997;1969.63;587.42;1.9
998;1934.84;552.019;1.9
999;1944.91;579.608;1.9
1000;1981.83;597.43;1.9
1001;1999.23;579.608;1.91
1002;2004.11;565.935;1.91
1003;1999.23;573.748;1.91
1004;1972.07;577.654;1.91
1005;1952.23;601.337;1.91
1006;1989.16;575.701;1.91
1007;2021.51;567.888;1.91
1008;2036.16;603.29;1.91
1009;2043.48;571.795;1.91
1010;2021.51;561.785;1.91
1011;1984.28;571.795;1.91
1012;1969.63;587.42;1.91
1013;1991.6;577.654;1.91
1014;2009;571.795;1.91
1015;2013.88;550.066;1.91
1016;2004.11;583.514;1.91
1017;1969.63;585.467;1.92
1018;1932.39;546.159;1.92
1019;1944.91;583.514;1.92
1020;1981.83;593.524;1.92
1021;1996.79;575.701;1.92
1022;2006.55;569.842;1.92
1023;1999.23;571.795;1.92
1024;1974.51;583.514;1.92
1025;1952.23;585.467;1.92
1026;1986.72;587.42;1.92
1027;2021.51;555.925;1.92
1028;2036.16;585.467;1.92
1029;2041.04;591.571;1.92
1030;2021.51;548.112;1.92
1031;1984.28;575.701;1.92
1032;1967.18;581.561;1.92
1033;1994.35;585.467;1.92
1034;2006.55;569.842;1.93
1035;2011.44;561.785;1.93
1036;2004.11;569.842;1.93
1037;1969.63;595.477;1.93
1038;1932.39;561.785;1.93
1039;1944.91;565.935;1.93
1040;1981.83;609.149;1.93
1041;1999.23;579.608;1.93
1042;2006.55;567.888;1.93
1043;1999.23;567.888;1.93
1044;1969.63;579.608;1.93
1045;1952.23;593.524;1.93
1046;1986.72;583.514;1.93
1047;2023.95;561.785;1.93
1048;2036.16;591.571;1.93
1049;2041.04;587.42;1.93
1050;2021.51;552.019;1.94
1051;1986.72;575.701;1.94
1052;1969.63;587.42;1.94
1053;1994.35;583.514;1.94
1054;2006.55;571.795;1.94
1055;2009;557.878;1.94
1056;2004.11;575.701;1.94
1057;1972.07;591.571;1.94
1058;1932.39;555.925;1.94
1059;1944.91;573.748;1.94
1060;1981.83;603.29;1.94
1061;1999.23;577.654;1.94
1062;2006.55;567.888;1.94
1063;1999.23;571.795;1.94
1064;1974.51;577.654;1.94
1065;1952.23;597.43;1.94
1066;1984.28;579.608;1.95
1067;2018.76;563.738;1.95
1068;2036.16;599.384;1.95
1069;2041.04;577.654;1.95
1070;2021.51;557.878;1.95
1071;1986.72;575.701;1.95
1072;1967.18;585.467;1.95
1073;1991.6;583.514;1.95
1074;2006.55;571.795;1.95
1075;2011.44;553.972;1.95
1076;2004.11;581.561;1.95
1077;1972.07;585.467;1.95
1078;1934.84;552.019;1.95
1079;1942.46;581.561;1.95
1080;1981.83;597.43;1.95
1081;1996.79;581.561;1.95
1082;2006.55;565.935;1.96
1083;2001.67;577.654;1.96
1084;1974.51;579.608;1.96
1085;1952.23;601.337;1.96
1086;1986.72;575.701;1.96
1087;2021.51;569.842;1.96
1088;2036.16;603.29;1.96
1089;2041.04;573.748;1.96
1090;2021.51;563.738;1.96
1091;1984.28;571.795;1.96
1092;1967.18;587.42;1.96
1093;1991.6;579.608;1.96
1094;2004.11;573.748;1.96
1095;2011.44;553.972;1.96
1096;2004.11;585.467;1.96
1097;1969.63;585.467;1.96
1098;1932.39;573.748;1.97
1099;1942.46;557.878;1.97
1100;1981.83;617.206;1.97
1101;1996.79;577.654;1.97
1102;2006.55;571.795;1.97
1103;1999.23;567.888;1.97
1104;1974.51;583.514;1.97
1105;1952.23;587.42;1.97
1106;1984.28;591.571;1.97
1107;2018.76;557.878;1.97
1108;2033.72;585.467;1.97
1109;2038.6;589.618;1.97
1110;2021.51;546.159;1.97
1111;1984.28;575.701;1.97
1112;1967.18;583.514;1.97
1113;1991.6;583.514;1.98
1114;2006.55;569.842;1.98
1115;2011.44;561.785;1.98
1116;2001.67;567.888;1.98
1117;1972.07;593.524;1.98
1118;1932.39;563.738;1.98
1119;1942.46;565.935;1.98
1120;1981.83;607.196;1.98
1121;1996.79;575.701;1.98
1122;2006.55;567.888;1.98
1123;2001.67;571.795;1.98
1124;1972.07;581.561;1.98
1125;1952.23;595.477;1.98
1126;1986.72;585.467;1.98
1127;2021.51;561.785;1.98
1128;2036.16;593.524;1.98
1129;2043.48;585.467;1.99
1130;2023.95;552.019;1.99
1131;1986.72;575.701;1.99
1132;1969.63;585.467;1.99
1133;1996.79;585.467;1.99
1134;2009;573.748;1.99
1135;2011.44;557.878;1.99
1136;2006.55;571.795;1.99
1137;1972.07;589.618;1.99
1138;1937.28;557.878;1.99
1139;1944.91;571.795;1.99
1140;1986.72;603.29;1.99
1141;2001.67;577.654;1.99
1142;2011.44;567.888;1.99
1143;2004.11;569.842;1.99
1144;1976.95;579.608;2
1145;1957.11;599.384;2
1146;1989.16;579.608;2
1147;2023.95;565.935;2
1148;2041.04;599.384;2
1149;2045.92;581.561;2
1150;2026.39;557.878;2
1151;1989.16;573.748;2
1152;1972.07;587.42;2
1153;1999.23;583.514;2
1154;2011.44;573.748;2
1155;2016.32;553.972;2
1156;2009;577.654;2
1157;1976.95;587.42;2
1158;1940.02;553.972;2
1159;1947.35;579.608;2
1160;1989.16;595.477;2.01
1161;2004.11;579.608;2.01
1162;2011.44;565.935;2.01
1163;2006.55;575.701;2.01
1164;1981.83;579.608;2.01
1165;1957.11;601.337;2.01
1166;1991.6;575.701;2.01
1167;2026.39;567.888;2.01
1168;2041.04;605.243;2.01
1169;2048.67;571.795;2.01
1170;2028.83;561.785;2.01
1171;1991.6;569.842;2.01
1172;1972.07;587.42;2.01
1173;1999.23;577.654;2.01
1174;2013.88;571.795;2.01
1175;2018.76;555.925;2.02
1176;2011.44;573.748;2.02
1177;1979.39;589.618;2.02
1178;1940.02;555.925;2.02
1179;1952.23;571.795;2.02
1180;1991.6;601.337;2.02
1181;2006.55;577.654;2.02
1182;2016.32;565.935;2.02
1183;2011.44;571.795;2.02
1184;1984.28;581.561;2.02
1185;1964.44;597.43;2.02
1186;1994.35;581.561;2.02
1187;2033.72;563.738;2.02
1188;2045.92;597.43;2.02
1189;2053.55;579.608;2.03
1190;2033.72;555.925;2.03
1191;1996.79;575.701;2.03
1192;1979.39;587.42;2.03
1193;2006.55;585.467;2.03
1194;2021.51;571.795;2.03
1195;2026.39;553.972;2.03
1196;2016.32;579.608;2.03
1197;1984.28;585.467;2.03
1198;1949.79;552.019;2.03
1199;1954.67;579.608;2.03
1200;1994.35;597.43;2.03
1201;2011.44;579.608;2.03
1202;2023.95;563.738;2.03
1203;2013.88;575.701;2.03
1204;1989.16;579.608;2.04
1205;1967.18;601.337;2.04
1206;1999.23;575.701;2.04
1207;2033.72;569.842;2.04
1208;2048.67;603.29;2.04
1209;2053.55;571.795;2.04
1210;2036.16;559.832;2.04
1211;1999.23;573.748;2.04
1212;1979.39;587.42;2.04
1213;2009;585.467;2.04
1214;2021.51;571.795;2.04
1215;2026.39;567.888;2.04
1216;2018.76;563.738;2.04
1217;1986.72;597.43;2.04
1218;1952.23;567.888;2.04
1219;1957.11;559.832;2.05
1220;1996.79;613.3;2.05
1221;2013.88;577.654;2.05
1222;2018.76;569.842;2.05
1223;2016.32;571.795;2.05
1224;1989.16;581.561;2.05
1225;1967.18;587.42;2.05
1226;1999.23;587.42;2.05
1227;2038.6;557.878;2.05
1228;2051.11;585.467;2.05
1229;2058.44;591.571;2.05
1230;2041.04;546.159;2.05
1231;2004.11;575.701;2.05
1232;1984.28;583.514;2.05
1233;2011.44;585.467;2.05
1234;2026.39;571.795;2.06
1235;2031.27;561.785;2.06
1236;2023.95;565.935;2.06
1237;1991.6;593.524;2.06
1238;1954.67;563.738;2.06
1239;1962;569.842;2.06
1240;2001.67;607.196;2.06
1241;2016.32;575.701;2.06
1242;2026.39;565.935;2.06
1243;2018.76;571.795;2.06
1244;1994.35;581.561;2.06
1245;1969.63;593.524;2.06
1246;2004.11;585.467;2.06
1247;2041.04;561.785;2.06
1248;2055.99;593.524;2.06
1249;2065.76;583.514;2.07
1250;2043.48;552.019;2.07
1251;2009;575.701;2.07
1252;1989.16;583.514;2.07
1253;2013.88;583.514;2.07
1254;2028.83;571.795;2.07
1255;2033.72;555.925;2.07
1256;2026.39;573.748;2.07
1257;1996.79;589.618;2.07
1258;1957.11;559.832;2.07
1259;1962;571.795;2.07
1260;2006.55;601.337;2.07
1261;2021.51;575.701;2.07
1262;2028.83;563.738;2.07
1263;2021.51;571.795;2.07
1264;1996.79;577.654;2.08
1265;1974.51;599.384;2.08
1266;2006.55;581.561;2.08
1267;2043.48;565.935;2.08
1268;2058.44;599.384;2.08
1269;2065.76;579.608;2.08
1270;2045.92;555.925;2.08
1271;2011.44;573.748;2.08
1272;1994.35;587.42;2.08
1273;2018.76;581.561;2.08
1274;2031.27;571.795;2.08
1275;2036.16;553.972;2.08
1276;2028.83;579.608;2.08
1277;1999.23;587.42;2.08
1278;1959.56;550.066;2.08
1279;1967.18;579.608;2.09
1280;2009;599.384;2.09
1281;2026.39;579.608;2.09
1282;2031.27;565.935;2.09
1283;2028.83;573.748;2.09
1284;2001.67;579.608;2.09
1285;1976.95;601.337;2.09
1286;2009;577.654;2.09
1287;2048.67;567.888;2.09
1288;2063.32;605.243;2.09
1289;2068.2;571.795;2.09
1290;2051.11;540.056;2.09
1291;2013.88;573.748;2.09
1292;1994.35;579.608;2.09
1293;2018.76;583.514;2.09
1294;2036.16;569.842;2.1
1295;2041.04;567.888;2.1
1296;2036.16;563.738;2.1
1297;2004.11;597.43;2.1
1298;1964.44;569.842;2.1
1299;1972.07;563.738;2.1
1300;2011.44;609.149;2.1
1301;2026.39;577.654;2.1
1302;2036.16;567.888;2.1
1303;2028.83;571.795;2.1
1304;2004.11;581.561;2.1
1305;1981.83;587.42;2.1
1306;2013.88;585.467;2.1
1307;2051.11;557.878;2.1
1308;2065.76;585.467;2.1
1309;2073.08;589.618;2.11
1310;2053.55;542.009;2.11
1311;2016.32;575.701;2.11
1312;1999.23;581.561;2.11
1313;2023.95;583.514;2.11
1314;2038.6;567.888;2.11
1315;2045.92;561.785;2.11
1316;2036.16;569.842;2.11
1317;2006.55;591.571;2.11
1318;1967.18;561.785;2.11
1319;1974.51;567.888;2.11
1320;2013.88;609.149;2.11
1321;2033.72;575.701;2.11
1322;2043.48;567.888;2.11
1323;2036.16;569.842;2.11
1324;2011.44;579.608;2.12
1325;1986.72;593.524;2.12
1326;2018.76;583.514;2.12
1327;2058.44;561.785;2.12
1328;2070.64;591.571;2.12
1329;2078.27;581.561;2.12
1330;2058.44;550.066;2.12
1331;2023.95;573.748;2.12
1332;2004.11;583.514;2.12
1333;2028.83;583.514;2.12
1334;2045.92;571.795;2.12
1335;2051.11;555.925;2.12
1336;2043.48;575.701;2.12
1337;2013.88;589.618;2.12
1338;1974.51;555.925;2.13
1339;1981.83;573.748;2.13
1340;2021.51;601.337;2.13
1341;2038.6;573.748;2.13
1342;2048.67;563.738;2.13
1343;2043.48;569.842;2.13
1344;2013.88;579.608;2.13
1345;1991.6;595.477;2.13
1346;2021.51;577.654;2.13
1347;2058.44;565.935;2.13
1348;2078.27;597.43;2.13
1349;2083.16;575.701;2.13
1350;2065.76;555.925;2.13
1351;2028.83;573.748;2.13
1352;2011.44;585.467;2.13
1353;2033.72;581.561;2.14
1354;2051.11;571.795;2.14
1355;2055.99;552.019;2.14
1356;2048.67;577.654;2.14
1357;2016.32;585.467;2.14
1358;1976.95;550.066;2.14
1359;1984.28;577.654;2.14
1360;2023.95;595.477;2.14
1361;2043.48;577.654;2.14
1362;2055.99;563.738;2.14
1363;2045.92;571.795;2.14
1364;2023.95;577.654;2.14
1365;1996.79;601.337;2.14
1366;2028.83;583.514;2.14
1367;2063.32;559.832;2.14
1368;2080.71;591.571;2.14
1369;2088.04;583.514;2.15
1370;2070.64;548.112;2.15
1371;2033.72;575.701;2.15
1372;2013.88;583.514;2.15
1373;2041.04;581.561;2.15
1374;2055.99;569.842;2.15
1375;2060.88;555.925;2.15
1376;2053.55;571.795;2.15
1377;2021.51;589.618;2.15
1378;1981.83;555.925;2.15
1379;1989.16;571.795;2.15
1380;2028.83;603.29;2.15
1381;2048.67;573.748;2.15
1382;2055.99;563.738;2.15
1383;2051.11;567.888;2.15
1384;2023.95;577.654;2.16
1385;2001.67;595.477;2.16
1386;2031.27;581.561;2.16
1387;2068.2;563.738;2.16
1388;2085.6;601.337;2.16
1389;2095.36;575.701;2.16
1390;2073.08;555.925;2.16
1391;2038.6;571.795;2.16
1392;2018.76;585.467;2.16
1393;2041.04;581.561;2.16
1394;2058.44;571.795;2.16
1395;2065.76;552.019;2.16
1396;2058.44;579.608;2.16
1397;2028.83;585.467;2.16
1398;1984.28;548.112;2.16
1399;1989.16;577.654;2.17
1400;2033.72;595.477;2.17
1401;2051.11;577.654;2.17
1402;2060.88;565.935;2.17
1403;2055.99;573.748;2.17
1404;2028.83;577.654;2.17
1405;2001.67;579.608;2.17
1406;2036.16;589.618;2.17
1407;2073.08;550.066;2.17
1408;2088.04;577.654;2.17
1409;2095.36;593.524;2.17
1410;2078.27;538.102;2.17
1411;2041.04;573.748;2.17
1412;2023.95;579.608;2.17
1413;2048.67;581.561;2.17
1414;2063.32;567.888;2.18
1415;2068.2;565.935;2.18
1416;2063.32;563.738;2.18
1417;2031.27;597.43;2.18
1418;1991.6;567.888;2.18
1419;1996.79;559.832;2.18
1420;2036.16;613.3;2.18
1421;2055.99;573.748;2.18
1422;2065.76;567.888;2.18
1423;2060.88;569.842;2.18
1424;2028.83;577.654;2.18
1425;2006.55;585.467;2.18
1426;2041.04;585.467;2.18
1427;2078.27;555.925;2.18
1428;2095.36;585.467;2.18
1429;2100.25;587.42;2.18
1430;2085.6;546.159;2.19
1431;2048.67;575.701;2.19
1432;2026.39;581.561;2.19
1433;2051.11;581.561;2.19
1434;2068.2;569.842;2.19
1435;2070.64;557.878;2.19
1436;2065.76;567.888;2.19
1437;2033.72;591.571;2.19
1438;1994.35;563.738;2.19
1439;1999.23;565.935;2.19
1440;2041.04;607.196;2.19
1441;2058.44;575.701;2.19
1442;2070.64;567.888;2.19
1443;2063.32;569.842;2.19
1444;2038.6;579.608;2.2
1445;2013.88;591.571;2.2
1446;2045.92;579.608;2.2
1447;2083.16;559.832;2.2
1448;2100.25;589.618;2.2
1449;2110.32;581.561;2.2
1450;2090.48;548.112;2.2
1451;2051.11;575.701;2.2
1452;2031.27;583.514;2.2
1453;2055.99;581.561;2.2
1454;2073.08;569.842;2.2
1455;2080.71;553.972;2.2
1456;2070.64;573.748;2.2
1457;2041.04;589.618;2.2
1458;2001.67;553.972;2.21
1459;2004.11;573.748;2.21
1460;2048.67;601.337;2.21
1461;2065.76;575.701;2.21
1462;2075.83;563.738;2.21
1463;2073.08;569.842;2.21
1464;2045.92;577.654;2.21
1465;2018.76;595.477;2.21
1466;2055.99;579.608;2.21
1467;2088.04;561.785;2.21
1468;2107.88;597.43;2.21
1469;2110.32;573.748;2.21
1470;2095.36;555.925;2.21
1471;2058.44;571.795;2.21
1472;2038.6;585.467;2.22
1473;2063.32;581.561;2.22
1474;2078.27;569.842;2.22
1475;2083.16;548.112;2.22
1476;2078.27;579.608;2.22
1477;2043.48;585.467;2.22
1478;2004.11;548.112;2.22
1479;2011.44;575.701;2.22
1480;2053.55;595.477;2.22
1481;2070.64;575.701;2.22
1482;2078.27;569.842;2.22
1483;2073.08;563.738;2.22
1484;2045.92;583.514;2.22
1485;2026.39;579.608;2.23
1486;2053.55;591.571;2.23
1487;2095.36;552.019;2.23
1488;2107.88;579.608;2.23
1489;2115.2;593.524;2.23
1490;2095.36;538.102;2.23
1491;2060.88;573.748;2.23
1492;2038.6;577.654;2.23
1493;2060.88;581.561;2.23
1494;2078.27;565.935;2.23
1495;2083.16;559.832;2.23
1496;2078.27;563.738;2.23
1497;2045.92;595.477;2.23
1498;2006.55;563.738;2.23
1499;2011.44;561.785;2.24
1500;2053.55;611.347;2.24
1501;2068.2;573.748;2.24
1502;2083.16;567.888;2.24
1503;2075.83;567.888;2.24
1504;2048.67;579.608;2.24
1505;2026.39;585.467;2.24
1506;2055.99;583.514;2.24
1507;2092.92;555.925;2.24
1508;2110.32;583.514;2.24
1509;2117.64;587.42;2.24
1510;2100.25;544.206;2.24
1511;2065.76;573.748;2.24
1512;2045.92;581.561;2.24
1513;2065.76;581.561;2.25
1514;2085.6;567.888;2.25
1515;2090.48;559.832;2.25
1516;2083.16;565.935;2.25
1517;2053.55;591.571;2.25
1518;2011.44;557.878;2.25
1519;2016.32;565.935;2.25
1520;2060.88;605.243;2.25
1521;2078.27;575.701;2.25
1522;2085.6;563.738;2.25
1523;2083.16;569.842;2.25
1524;2055.99;577.654;2.25
1525;2031.27;591.571;2.25
1526;2063.32;579.608;2.26
1527;2100.25;557.878;2.26
1528;2117.64;591.571;2.26
1529;2122.52;579.608;2.26
1530;2105.43;548.112;2.26
1531;2068.2;571.795;2.26
1532;2048.67;583.514;2.26
1533;2073.08;579.608;2.26
1534;2090.48;567.888;2.26
1535;2095.36;553.972;2.26
1536;2088.04;571.795;2.26
1537;2055.99;587.42;2.26
1538;2016.32;552.019;2.26
1539;2018.76;569.842;2.27
1540;2060.88;601.337;2.27
1541;2080.71;573.748;2.27
1542;2088.04;561.785;2.27
1543;2083.16;567.888;2.27
1544;2055.99;577.654;2.27
1545;2028.83;595.477;2.27
1546;2060.88;577.654;2.27
1547;2102.99;559.832;2.27
1548;2120.08;597.43;2.27
1549;2124.97;575.701;2.27
1550;2107.88;553.972;2.27
1551;2070.64;571.795;2.27
1552;2048.67;585.467;2.28
1553;2073.08;581.561;2.28
1554;2090.48;569.842;2.28
1555;2095.36;550.066;2.28
1556;2090.48;577.654;2.28
1557;2058.44;591.571;2.28
1558;2021.51;559.832;2.28
1559;2018.76;563.738;2.28
1560;2065.76;607.196;2.28
1561;2085.6;573.748;2.28
1562;2092.92;563.738;2.28
1563;2088.04;567.888;2.28
1564;2063.32;579.608;2.28
1565;2038.6;591.571;2.29
1566;2068.2;581.561;2.29
1567;2105.43;557.878;2.29
1568;2124.97;591.571;2.29
1569;2130.15;581.561;2.29
1570;2115.2;548.112;2.29
1571;2075.83;573.748;2.29
1572;2055.99;581.561;2.29
1573;2080.71;581.561;2.29
1574;2095.36;567.888;2.29
1575;2102.99;552.019;2.29
1576;2097.8;573.748;2.29
1577;2065.76;587.42;2.29
1578;2026.39;552.019;2.3
1579;2028.83;569.842;2.3
1580;2070.64;601.337;2.3
1581;2090.48;573.748;2.3
1582;2102.99;561.785;2.3
1583;2097.8;567.888;2.3
1584;2068.2;573.748;2.3
1585;2043.48;595.477;2.3
1586;2075.83;579.608;2.3
1587;2115.2;561.785;2.3
1588;2132.6;597.43;2.3
1589;2139.92;571.795;2.3
1590;2122.52;555.925;2.31
1591;2085.6;569.842;2.31
1592;2063.32;583.514;2.31
1593;2083.16;579.608;2.31
1594;2105.43;569.842;2.31
1595;2112.76;565.935;2.31
1596;2102.99;557.878;2.31
1597;2070.64;599.384;2.31
1598;2031.27;571.795;2.31
1599;2036.16;550.066;2.31
1600;2078.27;611.347;2.31
1601;2097.8;573.748;2.31
1602;2105.43;567.888;2.31
1603;2100.25;565.935;2.32
1604;2073.08;579.608;2.32
1605;2048.67;581.561;2.32
1606;2078.27;587.42;2.32
1607;2115.2;548.112;2.32
1608;2135.04;577.654;2.32
1609;2142.36;591.571;2.32
1610;2124.97;538.102;2.32
1611;2085.6;571.795;2.32
1612;2065.76;577.654;2.32
1613;2088.04;579.608;2.32
1614;2105.43;563.738;2.32
1615;2112.76;561.785;2.33
1616;2105.43;561.785;2.33
1617;2075.83;595.477;2.33
1618;2033.72;563.738;2.33
1619;2036.16;555.925;2.33
1620;2080.71;609.149;2.33
1621;2100.25;573.748;2.33
1622;2110.32;563.738;2.33
1623;2102.99;565.935;2.33
1624;2075.83;577.654;2.33
1625;2051.11;585.467;2.33
1626;2080.71;583.514;2.33
1627;2122.52;553.972;2.34
1628;2139.92;583.514;2.34
1629;2147.24;583.514;2.34
1630;2132.6;544.206;2.34
1631;2090.48;571.795;2.34
1632;2070.64;579.608;2.34
1633;2095.36;579.608;2.34
1634;2115.2;567.888;2.34
1635;2120.08;553.972;2.34
1636;2110.32;565.935;2.34
1637;2078.27;589.618;2.34
1638;2038.6;553.972;2.34
1639;2045.92;563.738;2.35
1640;2088.04;603.29;2.35
1641;2107.88;569.842;2.35
1642;2117.64;561.785;2.35
1643;2107.88;563.738;2.35
1644;2083.16;575.701;2.35
1645;2058.44;591.571;2.35
1646;2088.04;579.608;2.35
1647;2130.15;555.925;2.35
1648;2149.69;591.571;2.35
1649;2157.32;577.654;2.35
1650;2135.04;546.159;2.35
1651;2097.8;569.842;2.35
1652;2078.27;581.561;2.36
1653;2100.25;579.608;2.36
1654;2122.52;567.888;2.36
1655;2127.41;550.066;2.36
1656;2120.08;571.795;2.36
1657;2085.6;585.467;2.36
1658;2045.92;553.972;2.36
