<WeldAnalyseData xmlns:i="http:www.w3.org/2001/XMLSchema-instance">
<WeldParameter>
<TimeStamp>DT#2024-01-25-09:40:58</TimeStamp>
<Generator>SG-22-10000</Generator>
<GenFreq>20</GenFreq>
<MaxForce>8000</MaxForce>
<MaxPower>10000</MaxPower>
<RunupPressure>1.5</RunupPressure>
<RunupDist>10</RunupDist>
<RunPress>0.8</RunPress>
<ShakeDelay>0.03</ShakeDelay>
<ShakeTime>0.3</ShakeTime>
<RunBackPress1>6</RunBackPress1>
<RunBackPress2>2</RunBackPress2>
<RunBackDist>1</RunBackDist>
<TrigValue>500</TrigValue>
<TrigModeUnit>W</TrigModeUnit>
<WeldModeUnit>Ws</WeldModeUnit>
<PressNr>0</PressNr>
<MaxLoss>1500</MaxLoss>
</WeldParameter>
<WeldSets>
<WeldSet>
<PressRiseTime>0</PressRiseTime>
<RunPressure>1</RunPressure>
<Amplitude>86</Amplitude>
<WeldMode>3270</WeldMode>
</WeldSet>
</WeldSets>
<WeldValue>
<WeldNr>2984</WeldNr>
<RecipeName>RickStyle</RecipeName>
<WeldTime>1662</WeldTime>
<DistDiff>2.3</DistDiff>
<DistAbs>78.01</DistAbs>
<Energy>3270.49</Energy>
<MaxPower>2201.34</MaxPower>
<CycleTime>6000</CycleTime>
<TrigForce>500.748</TrigForce>
<TrigDist>75.71</TrigDist>
<RunSpeed>68.2687</RunSpeed>
<MaxForce>619.16</MaxForce>
<LossPower>324.374</LossPower>
</WeldValue>
</WeldAnalyseData>
#CSV-START#
ms;Power[W];Force[N];Distance[mm]
1;0;0;0
2;0;504.654;0
3;0;504.654;0
4;0;504.654;0
5;0;502.701;0
6;0;504.654;0
7;0;504.654;0
8;0;475.112;0
9;0;429.456;0.0100021
10;0;409.925;0.0299988
11;1.25891;384.045;0.0599976
12;48.2574;366.466;0.0999985
13;115.093;340.831;0.129997
14;199.019;340.831;0.169998
15;267.991;321.055;0.209999
16;327.197;307.138;0.25
17;383.961;303.232;0.300003
18;445.914;299.326;0.340004
19;502.678;311.045;0.389999
20;581.721;303.232;0.43
21;658.322;299.326;0.470001
22;732.177;321.055;0.5
23;803.896;312.998;0.529999
24;865.543;309.091;0.559998
25;912.542;323.008;0.590004
26;959.54;332.774;0.610001
27;1016.3;336.68;0.639999
28;1073.07;346.69;0.650002
29;1117.32;342.784;0.669998
30;1159.44;372.326;0.68
31;1176.83;382.092;0.690002
32;1189.04;362.56;0.700005
33;1223.53;394.055;0.709999
34;1275.41;405.774;0.720001
35;1315.08;397.961;0.730003
36;1352.01;392.102;0.730003
37;1376.73;409.925;0.739998
38;1394.12;409.925;0.75
39;1403.89;415.784;0.75
40;1450.89;425.55;0.760002
41;1502.77;397.961;0.760002
42;1537.26;421.644;0.770004
43;1566.86;441.42;0.770004
44;1574.18;392.102;0.779999
45;1566.86;421.644;0.790001
46;1571.74;429.456;0.790001
47;1606.23;437.513;0.800003
48;1638.58;425.55;0.800003
49;1662.99;423.597;0.809998
50;1680.39;423.597;0.82
51;1673.06;455.336;0.82
52;1653.23;431.654;0.830002
53;1680.39;423.597;0.840004
54;1734.71;472.915;0.840004
55;1771.64;445.326;0.849998
56;1801.24;441.42;0.849998
57;1813.75;439.467;0.860001
58;1808.87;459.243;0.870003
59;1803.99;467.055;0.870003
60;1853.12;469.008;0.879997
61;1907.45;439.467;0.879997
62;1939.79;470.962;0.889999
63;1964.21;477.065;0.889999
64;1956.89;433.607;0.900002
65;1932.17;463.149;0.900002
66;1922.4;472.915;0.910004
67;1954.44;479.019;0.910004
68;1986.49;465.102;0.919998
69;2001.44;459.243;0.919998
70;2003.88;469.008;0.93
71;1979.16;490.738;0.93
72;1939.79;463.149;0.93
73;1952;469.008;0.940002
74;2006.32;510.514;0.940002
75;2035.93;482.925;0.950005
76;2053.32;477.065;0.950005
77;2053.32;479.019;0.950005
78;2031.04;490.738;0.959999
79;2013.65;506.607;0.959999
80;2055.76;494.644;0.970001
81;2107.65;475.112;0.970001
82;2137.25;512.467;0.970001
83;2149.46;500.748;0.980003
84;2129.93;469.008;0.980003
85;2095.13;494.644;0.989998
86;2072.86;502.701;0.989998
87;2100.02;506.607;0.989998
88;2124.74;496.597;1
89;2132.37;482.925;1
90;2129.93;498.795;1
91;2097.58;516.373;1.01
92;2055.76;484.878;1.01
93;2058.21;502.701;1.02
94;2107.65;532.243;1.02
95;2132.37;508.56;1.02
96;2147.02;500.748;1.03
97;2139.69;504.654;1.03
98;2110.09;514.42;1.03
99;2082.93;532.243;1.03
100;2119.85;514.42;1.04
101;2166.85;500.748;1.04
102;2191.57;534.196;1.04
103;2201.34;514.42;1.05
104;2181.5;494.644;1.05
105;2137.25;512.467;1.05
106;2110.09;522.477;1.06
107;2137.25;522.477;1.06
108;2157.09;512.467;1.06
109;2159.53;492.691;1.07
110;2149.46;518.326;1.07
111;2110.09;524.43;1.07
112;2063.09;492.691;1.08
113;2060.65;516.373;1.08
114;2102.76;538.102;1.08
115;2127.18;522.477;1.08
116;2137.25;508.56;1.09
117;2127.18;518.326;1.09
118;2100.02;524.43;1.09
119;2070.41;546.159;1.09
120;2102.76;522.477;1.1
121;2149.46;510.514;1.1
122;2174.18;552.019;1.1
123;2181.5;518.326;1.1
124;2159.53;510.514;1.11
125;2117.41;520.524;1.11
126;2090.25;532.243;1.11
127;2112.53;530.29;1.11
128;2132.37;522.477;1.12
129;2134.81;500.748;1.12
130;2127.18;534.196;1.12
131;2087.81;536.149;1.12
132;2043.25;498.795;1.13
133;2040.81;536.149;1.13
134;2087.81;546.159;1.13
135;2110.09;534.196;1.13
136;2122.3;518.326;1.14
137;2112.53;534.196;1.14
138;2085.37;530.29;1.14
139;2053.32;555.925;1.14
140;2082.93;528.336;1.14
141;2127.18;522.477;1.15
142;2147.02;561.785;1.15
143;2151.9;522.477;1.15
144;2134.81;518.326;1.15
145;2095.13;528.336;1.15
146;2065.53;542.009;1.16
147;2090.25;526.383;1.16
148;2107.65;532.243;1.16
149;2112.53;512.467;1.16
150;2105.21;534.196;1.16
151;2067.97;548.112;1.17
152;2023.72;514.42;1.17
153;2016.09;532.243;1.17
154;2060.65;561.785;1.17
155;2085.37;540.056;1.17
156;2092.69;528.336;1.18
157;2090.25;532.243;1.18
158;2060.65;538.102;1.18
159;2031.04;557.878;1.18
160;2058.21;538.102;1.18
161;2102.76;526.383;1.18
162;2124.74;559.832;1.19
163;2132.37;538.102;1.19
164;2112.53;518.326;1.19
165;2072.86;536.149;1.19
166;2043.25;548.112;1.19
167;2063.09;546.159;1.2
168;2082.93;538.102;1.2
169;2085.37;520.524;1.2
170;2075.6;544.206;1.2
171;2045.69;550.066;1.2
172;1999;518.326;1.2
173;1991.37;546.159;1.21
174;2033.49;561.785;1.21
175;2058.21;546.159;1.21
176;2067.97;534.196;1.21
177;2063.09;546.159;1.21
178;2035.93;544.206;1.21
179;2006.32;569.842;1.22
180;2033.49;542.009;1.22
181;2080.49;536.149;1.22
182;2102.76;573.748;1.22
183;2110.09;538.102;1.22
184;2092.69;528.336;1.22
185;2053.32;540.056;1.23
186;2021.28;555.925;1.23
187;2040.81;546.159;1.23
188;2058.21;542.009;1.23
189;2063.09;522.477;1.23
190;2055.76;553.972;1.23
191;2023.72;555.925;1.24
192;1976.72;520.524;1.24
193;1966.96;555.925;1.24
194;2013.65;563.738;1.24
195;2035.93;553.972;1.24
196;2043.25;536.149;1.24
197;2040.81;555.925;1.25
198;2013.65;550.066;1.25
199;1986.49;571.795;1.25
200;2008.77;544.206;1.25
201;2055.76;542.009;1.25
202;2078.04;581.561;1.25
203;2087.81;540.056;1.25
204;2065.53;538.102;1.26
205;2033.49;550.066;1.26
206;2003.88;552.019;1.26
207;2018.53;561.785;1.26
208;2043.25;546.159;1.26
209;2045.69;538.102;1.26
210;2038.37;542.009;1.26
211;2003.88;571.795;1.27
212;1961.77;546.159;1.27
213;1949.56;536.149;1.27
214;1994.12;585.467;1.27
215;2018.53;553.972;1.27
216;2028.6;548.112;1.27
217;2026.16;546.159;1.27
218;1999;557.878;1.28
219;1966.96;565.935;1.28
220;1991.37;565.935;1.28
221;2038.37;540.056;1.28
222;2063.09;567.888;1.28
223;2070.41;567.888;1.28
224;2055.76;526.383;1.28
225;2018.53;553.972;1.28
226;1988.93;557.878;1.29
227;2003.88;565.935;1.29
228;2023.72;553.972;1.29
229;2031.04;540.056;1.29
230;2026.16;553.972;1.29
231;1994.12;569.842;1.29
232;1947.12;542.009;1.29
233;1937.05;546.159;1.3
234;1984.05;585.467;1.3
235;2006.32;557.878;1.3
236;2016.09;550.066;1.3
237;2013.65;550.066;1.3
238;1988.93;563.738;1.3
239;1959.33;573.748;1.3
240;1981.6;563.738;1.3
241;2031.04;544.206;1.31
242;2050.88;575.701;1.31
243;2063.09;567.888;1.31
244;2045.69;532.243;1.31
245;2011.21;557.878;1.31
246;1979.16;567.888;1.31
247;1994.12;567.888;1.31
248;2013.65;553.972;1.31
249;2018.53;542.009;1.32
250;2016.09;559.832;1.32
251;1984.05;573.748;1.32
252;1939.79;542.009;1.32
253;1927.28;557.878;1.32
254;1974.28;585.467;1.32
255;1999;561.785;1.32
256;2006.32;552.019;1.32
257;2003.88;555.925;1.32
258;1981.6;561.785;1.33
259;1952;583.514;1.33
260;1974.28;565.935;1.33
261;2016.09;552.019;1.33
262;2043.25;585.467;1.33
263;2050.88;563.738;1.33
264;2035.93;542.009;1.33
265;1999;561.785;1.33
266;1969.4;571.795;1.34
267;1986.49;571.795;1.34
268;2006.32;557.878;1.34
269;2008.77;540.056;1.34
270;2006.32;563.738;1.34
271;1976.72;573.748;1.34
272;1932.17;538.102;1.34
273;1917.52;565.935;1.34
274;1964.21;583.514;1.34
275;1988.93;563.738;1.35
276;1999;553.972;1.35
277;1996.56;563.738;1.35
278;1974.28;569.842;1.35
279;1944.68;587.42;1.35
280;1961.77;563.738;1.35
281;2008.77;555.925;1.35
282;2031.04;591.571;1.35
283;2040.81;561.785;1.35
284;2031.04;552.019;1.35
285;1991.37;563.738;1.36
286;1961.77;575.701;1.36
287;1976.72;565.935;1.36
288;1996.56;563.738;1.36
289;2003.88;542.009;1.36
290;1996.56;575.701;1.36
291;1969.4;577.654;1.36
292;1924.84;540.056;1.36
293;1909.89;577.654;1.36
294;1952;583.514;1.37
295;1979.16;573.748;1.37
296;1988.93;559.832;1.37
297;1986.49;573.748;1.37
298;1961.77;571.795;1.37
299;1932.17;593.524;1.37
300;1952;565.935;1.37
301;1999;563.738;1.37
302;2023.72;599.384;1.37
303;2033.49;561.785;1.38
304;2023.72;557.878;1.38
305;1986.49;565.935;1.38
306;1954.44;581.561;1.38
307;1964.21;565.935;1.38
308;1991.37;567.888;1.38
309;1996.56;548.112;1.38
310;1979.16;583.514;1.38
311;1942.24;579.608;1.38
312;1905;544.206;1.39
313;1915.07;585.467;1.39
314;1954.44;585.467;1.39
315;1971.84;577.654;1.39
316;1981.6;569.842;1.39
317;1969.4;565.935;1.39
318;1942.24;579.608;1.39
319;1922.4;587.42;1.39
320;1959.33;585.467;1.39
321;2001.44;557.878;1.39
322;2018.53;587.42;1.4
323;2021.28;587.42;1.4
324;1999;546.159;1.4
325;1959.33;575.701;1.4
326;1944.68;581.561;1.4
327;1969.4;583.514;1.4
328;1979.16;569.842;1.4
329;1984.05;563.738;1.4
330;1971.84;569.842;1.4
331;1937.05;591.571;1.4
332;1897.68;565.935;1.41
333;1907.45;565.935;1.41
334;1949.56;609.149;1.41
335;1969.4;579.608;1.41
336;1974.28;573.748;1.41
337;1969.4;569.842;1.41
338;1937.05;585.467;1.41
339;1919.96;593.524;1.41
340;1959.33;585.467;1.41
341;1999;567.888;1.41
342;2013.65;595.477;1.42
343;2018.53;589.618;1.42
344;1999;553.972;1.42
345;1961.77;577.654;1.42
346;1942.24;585.467;1.42
347;1964.21;587.42;1.42
348;1979.16;575.701;1.42
349;1984.05;561.785;1.42
350;1969.4;581.561;1.42
351;1934.61;595.477;1.42
352;1897.68;561.785;1.43
353;1907.45;579.608;1.43
354;1952;609.149;1.43
355;1969.4;581.561;1.43
356;1974.28;571.795;1.43
357;1971.84;573.748;1.43
358;1942.24;583.514;1.43
359;1919.96;603.29;1.43
360;1956.89;585.467;1.43
361;1996.56;571.795;1.43
362;2016.09;605.243;1.43
363;2018.53;587.42;1.44
364;1999;563.738;1.44
365;1959.33;583.514;1.44
366;1942.24;591.571;1.44
367;1964.21;595.477;1.44
368;1979.16;581.561;1.44
369;1981.6;559.832;1.44
370;1971.84;587.42;1.44
371;1934.61;593.524;1.44
372;1895.24;561.785;1.44
373;1905;585.467;1.44
374;1947.12;607.196;1.45
375;1964.21;583.514;1.45
376;1971.84;573.748;1.45
377;1969.4;583.514;1.45
378;1944.68;585.467;1.45
379;1919.96;605.243;1.45
380;1959.33;585.467;1.45
381;1996.56;573.748;1.45
382;2013.65;611.347;1.45
383;2021.28;583.514;1.45
384;1999;569.842;1.46
385;1961.77;579.608;1.46
386;1939.79;591.571;1.46
387;1966.96;585.467;1.46
388;1981.6;581.561;1.46
389;1984.05;559.832;1.46
390;1974.28;591.571;1.46
391;1939.79;591.571;1.46
392;1900.12;557.878;1.46
393;1905;589.618;1.46
394;1947.12;601.337;1.46
395;1964.21;585.467;1.47
396;1971.84;575.701;1.47
397;1966.96;589.618;1.47
398;1937.05;585.467;1.47
399;1915.07;607.196;1.47
400;1952;581.561;1.47
401;1996.56;579.608;1.47
402;2013.65;615.253;1.47
403;2018.53;575.701;1.47
404;1999;571.795;1.47
405;1961.77;579.608;1.47
406;1942.24;593.524;1.48
407;1966.96;579.608;1.48
408;1981.6;581.561;1.48
409;1981.6;559.832;1.48
410;1974.28;593.524;1.48
411;1937.05;591.571;1.48
412;1897.68;553.972;1.48
413;1905;597.43;1.48
414;1944.68;597.43;1.48
415;1966.96;589.618;1.48
416;1976.72;573.748;1.48
417;1966.96;595.477;1.49
418;1942.24;585.467;1.49
419;1919.96;611.347;1.49
420;1954.44;577.654;1.49
421;1996.56;577.654;1.49
422;2011.21;619.16;1.49
423;2018.53;569.842;1.49
424;1996.56;575.701;1.49
425;1961.77;577.654;1.49
426;1939.79;595.477;1.49
427;1961.77;589.618;1.49
428;1979.16;581.561;1.49
429;1981.6;559.832;1.5
430;1974.28;591.571;1.5
431;1937.05;593.524;1.5
432;1900.12;561.785;1.5
433;1902.56;585.467;1.5
434;1942.24;607.196;1.5
435;1961.77;583.514;1.5
436;1971.84;573.748;1.5
437;1961.77;587.42;1.5
438;1939.79;585.467;1.5
439;1917.52;605.243;1.5
440;1952;579.608;1.5
441;1991.37;575.701;1.51
442;2011.21;611.347;1.51
443;2016.09;577.654;1.51
444;1996.56;567.888;1.51
445;1959.33;577.654;1.51
446;1937.05;595.477;1.51
447;1959.33;581.561;1.51
448;1979.16;581.561;1.51
449;1979.16;559.832;1.51
450;1971.84;593.524;1.51
451;1937.05;593.524;1.51
452;1897.68;553.972;1.51
453;1900.12;593.524;1.51
454;1939.79;597.43;1.52
455;1964.21;587.42;1.52
456;1971.84;573.748;1.52
457;1966.96;591.571;1.52
458;1939.79;585.467;1.52
459;1915.07;609.149;1.52
460;1947.12;577.654;1.52
461;1988.93;577.654;1.52
462;2008.77;613.3;1.52
463;2013.65;575.701;1.52
464;1994.12;573.748;1.52
465;1959.33;575.701;1.52
466;1937.05;595.477;1.53
467;1959.33;575.701;1.53
468;1976.72;581.561;1.53
469;1979.16;555.925;1.53
470;1971.84;597.43;1.53
471;1937.05;589.618;1.53
472;1897.68;552.019;1.53
473;1900.12;597.43;1.53
474;1942.24;595.477;1.53
475;1961.77;589.618;1.53
476;1969.4;571.795;1.53
477;1966.96;595.477;1.53
478;1942.24;585.467;1.53
479;1915.07;609.149;1.54
480;1949.56;573.748;1.54
481;1988.93;579.608;1.54
482;2011.21;595.477;1.54
483;2016.09;595.477;1.54
484;1996.56;553.972;1.54
485;1961.77;581.561;1.54
486;1939.79;589.618;1.54
487;1956.89;591.571;1.54
488;1971.84;577.654;1.54
489;1976.72;565.935;1.54
490;1971.84;577.654;1.54
491;1937.05;599.384;1.54
492;1897.68;567.888;1.55
493;1897.68;575.701;1.55
494;1939.79;611.347;1.55
495;1959.33;583.514;1.55
496;1971.84;577.654;1.55
497;1966.96;573.748;1.55
498;1939.79;587.42;1.55
499;1917.52;599.384;1.55
500;1947.12;589.618;1.55
501;1991.37;569.842;1.55
502;2011.21;599.384;1.55
503;2018.53;591.571;1.55
504;2003.88;557.878;1.55
505;1966.96;583.514;1.56
506;1939.79;587.42;1.56
507;1959.33;589.618;1.56
508;1976.72;579.608;1.56
509;1981.6;565.935;1.56
510;1971.84;583.514;1.56
511;1939.79;597.43;1.56
512;1897.68;563.738;1.56
513;1900.12;579.608;1.56
514;1944.68;609.149;1.56
515;1964.21;585.467;1.56
516;1971.84;575.701;1.56
517;1971.84;577.654;1.56
518;1944.68;587.42;1.56
519;1919.96;601.337;1.57
520;1949.56;587.42;1.57
521;1988.93;571.795;1.57
522;2011.21;603.29;1.57
523;2018.53;583.514;1.57
524;1999;565.935;1.57
525;1969.4;579.608;1.57
526;1944.68;589.618;1.57
527;1959.33;591.571;1.57
528;1981.6;579.608;1.57
529;1981.6;559.832;1.57
530;1976.72;587.42;1.57
531;1944.68;595.477;1.57
532;1905;557.878;1.57
533;1900.12;585.467;1.58
534;1944.68;605.243;1.58
535;1966.96;585.467;1.58
536;1974.28;573.748;1.58
537;1971.84;583.514;1.58
538;1949.56;587.42;1.58
539;1922.4;605.243;1.58
540;1949.56;583.514;1.58
541;1991.37;575.701;1.58
542;2011.21;609.149;1.58
543;2018.53;579.608;1.58
544;2003.88;567.888;1.58
545;1969.4;581.561;1.58
546;1942.24;593.524;1.59
547;1961.77;583.514;1.59
548;1979.16;579.608;1.59
549;1986.49;561.785;1.59
550;1976.72;591.571;1.59
551;1947.12;593.524;1.59
552;1905;555.925;1.59
553;1900.12;587.42;1.59
554;1939.79;601.337;1.59
555;1964.21;587.42;1.59
556;1974.28;575.701;1.59
557;1971.84;593.524;1.59
558;1947.12;587.42;1.59
559;1919.96;609.149;1.59
560;1947.12;579.608;1.6
561;1991.37;579.608;1.6
562;2011.21;613.3;1.6
563;2018.53;573.748;1.6
564;2006.32;571.795;1.6
565;1971.84;577.654;1.6
566;1942.24;595.477;1.6
567;1964.21;577.654;1.6
568;1984.05;581.561;1.6
569;1986.49;557.878;1.6
570;1984.05;595.477;1.6
571;1949.56;589.618;1.6
572;1907.45;553.972;1.6
573;1902.56;597.43;1.6
574;1942.24;597.43;1.61
575;1966.96;591.571;1.61
576;1976.72;571.795;1.61
577;1971.84;595.477;1.61
578;1947.12;585.467;1.61
579;1922.4;609.149;1.61
580;1947.12;577.654;1.61
581;1988.93;577.654;1.61
582;2011.21;617.206;1.61
583;2023.72;569.842;1.61
584;2003.88;573.748;1.61
585;1969.4;577.654;1.61
586;1942.24;593.524;1.61
587;1961.77;575.701;1.61
588;1981.6;581.561;1.62
589;1984.05;555.925;1.62
590;1979.16;599.384;1.62
591;1947.12;591.571;1.62
592;1907.45;567.888;1.62
593;1900.12;571.795;1.62
594;1942.24;615.253;1.62
595;1964.21;583.514;1.62
596;1974.28;575.701;1.62
597;1971.84;575.701;1.62
598;1952;587.42;1.62
599;1919.96;599.384;1.62
600;1947.12;591.571;1.62
601;1994.12;571.795;1.62
602;2008.77;601.337;1.62
603;2023.72;593.524;1.63
604;2006.32;557.878;1.63
605;1971.84;583.514;1.63
606;1942.24;591.571;1.63
607;1956.89;591.571;1.63
608;1979.16;579.608;1.63
609;1986.49;563.738;1.63
610;1979.16;581.561;1.63
611;1947.12;597.43;1.63
612;1905;563.738;1.63
613;1900.12;579.608;1.63
614;1939.79;611.347;1.63
615;1964.21;585.467;1.63
616;1974.28;575.701;1.63
617;1971.84;577.654;1.63
618;1947.12;587.42;1.64
619;1919.96;603.29;1.64
620;1942.24;587.42;1.64
621;1991.37;571.795;1.64
622;2011.21;605.243;1.64
623;2021.28;585.467;1.64
624;2008.77;561.785;1.64
625;1974.28;579.608;1.64
626;1944.68;591.571;1.64
627;1959.33;591.571;1.64
628;1979.16;577.654;1.64
629;1984.05;561.785;1.64
630;1981.6;587.42;1.64
631;1949.56;593.524;1.64
632;1895.24;559.832;1.64
633;1915.07;583.514;1.65
634;1952;601.337;1.65
635;1969.4;583.514;1.65
636;1976.72;573.748;1.65
637;1966.96;579.608;1.65
638;1934.61;583.514;1.65
639;1919.96;603.29;1.65
640;1964.21;583.514;1.65
641;1999;571.795;1.65
642;2013.65;607.196;1.65
643;2018.53;579.608;1.65
644;1994.12;565.935;1.65
645;1959.33;577.654;1.65
646;1944.68;591.571;1.65
647;1969.4;585.467;1.65
648;1979.16;577.654;1.66
649;1984.05;557.878;1.66
650;1969.4;587.42;1.66
651;1932.17;591.571;1.66
652;1895.24;553.972;1.66
653;1909.89;589.618;1.66
654;1952;599.384;1.66
655;1969.4;585.467;1.66
656;1976.72;573.748;1.66
657;1966.96;587.42;1.66
658;1939.79;585.467;1.66
659;1919.96;605.243;1.66
660;1964.21;577.654;1.66
661;1999;573.748;1.66
662;2018.53;609.149;1.66
663;2016.09;575.701;1.66
664;1996.56;567.888;1.67
665;1959.33;579.608;1.67
666;1942.24;591.571;1.67
667;1966.96;579.608;1.67
668;1981.6;575.701;1.67
669;1986.49;559.832;1.67
670;1971.84;591.571;1.67
671;1934.61;591.571;1.67
672;1897.68;552.019;1.67
673;1912.63;591.571;1.67
674;1952;595.477;1.67
675;1969.4;587.42;1.67
676;1974.28;571.795;1.67
677;1966.96;593.524;1.67
678;1939.79;583.514;1.67
679;1919.96;609.149;1.67
680;1961.77;573.748;1.68
681;1999;575.701;1.68
682;2016.09;613.3;1.68
683;2021.28;569.842;1.68
684;1996.56;571.795;1.68
685;1959.33;573.748;1.68
686;1944.68;589.618;1.68
687;1969.4;571.795;1.68
688;1981.6;577.654;1.68
689;1981.6;553.972;1.68
690;1971.84;593.524;1.68
691;1932.17;587.42;1.68
692;1895.24;546.159;1.68
693;1909.89;597.43;1.68
694;1949.56;589.618;1.68
695;1969.4;589.618;1.68
696;1976.72;569.842;1.69
697;1966.96;591.571;1.69
698;1939.79;581.561;1.69
699;1919.96;607.196;1.69
700;1959.33;569.842;1.69
701;1996.56;575.701;1.69
702;2016.09;607.196;1.69
703;2018.53;579.608;1.69
704;1996.56;565.935;1.69
705;1961.77;577.654;1.69
706;1942.24;589.618;1.69
707;1969.4;579.608;1.69
708;1981.6;575.701;1.69
709;1986.49;555.925;1.69
710;1971.84;587.42;1.69
711;1937.05;589.618;1.69
712;1897.68;552.019;1.7
713;1907.45;585.467;1.7
714;1949.56;595.477;1.7
715;1964.21;585.467;1.7
716;1971.84;571.795;1.7
717;1964.21;585.467;1.7
718;1934.61;583.514;1.7
719;1917.52;605.243;1.7
720;1956.89;575.701;1.7
721;1996.56;575.701;1.7
722;2016.09;611.347;1.7
723;2018.53;567.888;1.7
724;1996.56;565.935;1.7
725;1959.33;573.748;1.7
726;1937.05;591.571;1.7
727;1961.77;573.748;1.7
728;1979.16;577.654;1.71
729;1979.16;553.972;1.71
730;1969.4;591.571;1.71
731;1934.61;585.467;1.71
732;1895.24;548.112;1.71
733;1907.45;591.571;1.71
734;1947.12;593.524;1.71
735;1966.96;585.467;1.71
736;1974.28;569.842;1.71
737;1966.96;593.524;1.71
738;1937.05;581.561;1.71
739;1917.52;605.243;1.71
740;1956.89;571.795;1.71
741;1994.12;573.748;1.71
742;2011.21;611.347;1.71
743;2016.09;563.738;1.71
744;1994.12;571.795;1.72
745;1959.33;571.795;1.72
746;1939.79;591.571;1.72
747;1964.21;571.795;1.72
748;1979.16;577.654;1.72
749;1981.6;553.972;1.72
750;1971.84;595.477;1.72
751;1934.61;585.467;1.72
752;1897.68;546.159;1.72
753;1907.45;597.43;1.72
754;1949.56;589.618;1.72
755;1969.4;585.467;1.72
756;1974.28;567.888;1.72
757;1966.96;593.524;1.72
758;1939.79;581.561;1.72
759;1922.4;597.43;1.72
760;1956.89;587.42;1.73
761;1996.56;563.738;1.73
762;2013.65;593.524;1.73
763;2018.53;589.618;1.73
764;1999;553.972;1.73
765;1961.77;577.654;1.73
766;1942.24;587.42;1.73
767;1966.96;587.42;1.73
768;1981.6;577.654;1.73
769;1986.49;557.878;1.73
770;1976.72;577.654;1.73
771;1939.79;593.524;1.73
772;1900.12;559.832;1.73
773;1907.45;573.748;1.73
774;1949.56;601.337;1.73
775;1966.96;579.608;1.73
776;1974.28;571.795;1.74
777;1971.84;573.748;1.74
778;1944.68;583.514;1.74
779;1919.96;599.384;1.74
780;1956.89;583.514;1.74
781;1996.56;567.888;1.74
782;2013.65;597.43;1.74
783;2021.28;581.561;1.74
784;2001.44;557.878;1.74
785;1964.21;577.654;1.74
786;1942.24;587.42;1.74
787;1964.21;585.467;1.74
788;1979.16;575.701;1.74
789;1981.6;555.925;1.74
790;1974.28;583.514;1.74
791;1937.05;589.618;1.74
792;1895.24;555.925;1.75
793;1907.45;581.561;1.75
794;1944.68;599.384;1.75
795;1966.96;581.561;1.75
796;1974.28;567.888;1.75
797;1961.77;577.654;1.75
798;1934.61;583.514;1.75
799;1919.96;603.29;1.75
800;1964.21;577.654;1.75
801;2001.44;569.842;1.75
802;2016.09;607.196;1.75
803;2018.53;575.701;1.75
804;1994.12;565.935;1.75
805;1956.89;577.654;1.75
806;1947.12;589.618;1.75
807;1971.84;581.561;1.75
808;1981.6;575.701;1.75
809;1984.05;553.972;1.76
810;1971.84;585.467;1.76
811;1934.61;589.618;1.76
812;1900.12;553.972;1.76
813;1917.52;587.42;1.76
814;1952;595.477;1.76
815;1969.4;581.561;1.76
816;1971.84;569.842;1.76
817;1966.96;585.467;1.76
818;1932.17;583.514;1.76
819;1919.96;603.29;1.76
820;1966.96;575.701;1.76
821;2001.44;571.795;1.76
822;2018.53;609.149;1.76
823;2021.28;569.842;1.76
824;1996.56;567.888;1.76
825;1961.77;573.748;1.77
826;1947.12;589.618;1.77
827;1971.84;573.748;1.77
828;1986.49;575.701;1.77
829;1986.49;553.972;1.77
830;1971.84;591.571;1.77
831;1934.61;587.42;1.77
832;1897.68;548.112;1.77
833;1915.07;589.618;1.77
834;1952;591.571;1.77
835;1969.4;585.467;1.77
836;1979.16;565.935;1.77
837;1966.96;589.618;1.77
838;1939.79;579.608;1.77
839;1924.84;605.243;1.77
840;1969.4;573.748;1.77
841;2001.44;573.748;1.78
842;2016.09;609.149;1.78
843;2021.28;563.738;1.78
844;1996.56;569.842;1.78
845;1959.33;571.795;1.78
846;1944.68;589.618;1.78
847;1969.4;569.842;1.78
848;1979.16;577.654;1.78
849;1984.05;552.019;1.78
850;1969.4;593.524;1.78
851;1929.72;585.467;1.78
852;1892.8;546.159;1.78
853;1909.89;597.43;1.78
854;1949.56;585.467;1.78
855;1966.96;587.42;1.78
856;1974.28;569.842;1.78
857;1964.21;593.524;1.78
858;1937.05;579.608;1.79
859;1919.96;607.196;1.79
860;1964.21;567.888;1.79
861;1999;575.701;1.79
862;2016.09;615.253;1.79
863;2018.53;559.832;1.79
864;1996.56;573.748;1.79
865;1959.33;571.795;1.79
866;1944.68;589.618;1.79
867;1966.96;567.888;1.79
868;1984.05;575.701;1.79
869;1984.05;559.832;1.79
870;1971.84;577.654;1.79
871;1932.17;591.571;1.79
872;1892.8;559.832;1.79
873;1907.45;573.748;1.79
874;1952;605.243;1.8
875;1966.96;579.608;1.8
876;1976.72;571.795;1.8
877;1964.21;571.795;1.8
878;1937.05;581.561;1.8
879;1919.96;597.43;1.8
880;1959.33;583.514;1.8
881;1994.12;565.935;1.8
882;2011.21;597.43;1.8
883;2018.53;583.514;1.8
884;1996.56;555.925;1.8
885;1956.89;577.654;1.8
886;1942.24;585.467;1.8
887;1964.21;585.467;1.8
888;1981.6;573.748;1.8
889;1984.05;555.925;1.8
890;1969.4;579.608;1.8
891;1932.17;589.618;1.81
892;1895.24;553.972;1.81
893;1909.89;579.608;1.81
894;1949.56;599.384;1.81
895;1966.96;579.608;1.81
896;1974.28;569.842;1.81
897;1966.96;577.654;1.81
898;1937.05;579.608;1.81
899;1917.52;601.337;1.81
900;1959.33;579.608;1.81
901;1996.56;567.888;1.81
902;2013.65;603.29;1.81
903;2016.09;575.701;1.81
904;1996.56;561.785;1.81
905;1956.89;575.701;1.81
906;1942.24;587.42;1.81
907;1969.4;579.608;1.82
908;1984.05;575.701;1.82
909;1984.05;553.972;1.82
910;1974.28;585.467;1.82
911;1937.05;587.42;1.82
912;1897.68;552.019;1.82
913;1909.89;581.561;1.82
914;1949.56;593.524;1.82
915;1969.4;581.561;1.82
916;1976.72;567.888;1.82
917;1966.96;581.561;1.82
918;1939.79;581.561;1.82
919;1922.4;603.29;1.82
920;1959.33;575.701;1.82
921;1999;571.795;1.82
922;2013.65;609.149;1.82
923;2018.53;569.842;1.82
924;1996.56;565.935;1.83
925;1959.33;571.795;1.83
926;1944.68;587.42;1.83
927;1969.4;571.795;1.83
928;1984.05;573.748;1.83
929;1986.49;552.019;1.83
930;1976.72;585.467;1.83
931;1939.79;583.514;1.83
932;1900.12;548.112;1.83
933;1912.63;589.618;1.83
934;1954.44;591.571;1.83
935;1971.84;581.561;1.83
936;1979.16;565.935;1.83
937;1971.84;587.42;1.83
938;1944.68;579.608;1.83
939;1927.28;603.29;1.83
940;1961.77;571.795;1.84
941;2003.88;571.795;1.84
942;2018.53;609.149;1.84
943;2026.16;565.935;1.84
944;2006.32;569.842;1.84
945;1966.96;571.795;1.84
946;1949.56;587.42;1.84
947;1971.84;569.842;1.84
948;1988.93;573.748;1.84
949;1991.37;550.066;1.84
950;1979.16;589.618;1.84
951;1947.12;581.561;1.84
952;1905;546.159;1.84
953;1912.63;595.477;1.84
954;1956.89;587.42;1.84
955;1974.28;583.514;1.84
956;1981.6;565.935;1.84
957;1974.28;591.571;1.85
958;1949.56;581.561;1.85
959;1927.28;603.29;1.85
960;1966.96;569.842;1.85
961;2003.88;575.701;1.85
962;2021.28;611.347;1.85
963;2026.16;559.832;1.85
964;2006.32;569.842;1.85
965;1966.96;573.748;1.85
966;1949.56;589.618;1.85
967;1971.84;565.935;1.85
968;1986.49;575.701;1.85
969;1991.37;550.066;1.85
970;1979.16;595.477;1.85
971;1947.12;581.561;1.85
972;1907.45;544.206;1.85
973;1915.07;599.384;1.86
974;1956.89;583.514;1.86
975;1976.72;585.467;1.86
976;1986.49;567.888;1.86
977;1976.72;593.524;1.86
978;1949.56;579.608;1.86
979;1927.28;601.337;1.86
980;1961.77;571.795;1.86
981;2003.88;571.795;1.86
982;2021.28;605.243;1.86
983;2026.16;569.842;1.86
984;2006.32;567.888;1.86
985;1969.4;571.795;1.86
986;1947.12;587.42;1.86
987;1971.84;569.842;1.86
988;1988.93;573.748;1.86
989;1991.37;550.066;1.86
990;1984.05;589.618;1.87
991;1947.12;585.467;1.87
992;1909.89;548.112;1.87
993;1912.63;591.571;1.87
994;1959.33;591.571;1.87
995;1974.28;583.514;1.87
996;1984.05;567.888;1.87
997;1979.16;587.42;1.87
998;1952;579.608;1.87
999;1929.72;605.243;1.87
1000;1966.96;571.795;1.87
1001;2006.32;573.748;1.87
1002;2023.72;609.149;1.87
1003;2031.04;561.785;1.87
1004;2011.21;569.842;1.87
1005;1974.28;571.795;1.87
1006;1952;589.618;1.87
1007;1974.28;565.935;1.88
1008;1994.12;575.701;1.88
1009;1996.56;552.019;1.88
1010;1986.49;591.571;1.88
1011;1954.44;581.561;1.88
1012;1912.63;544.206;1.88
1013;1917.52;595.477;1.88
1014;1961.77;585.467;1.88
1015;1979.16;585.467;1.88
1016;1988.93;567.888;1.88
1017;1981.6;591.571;1.88
1018;1956.89;579.608;1.88
1019;1929.72;601.337;1.88
1020;1969.4;567.888;1.88
1021;2008.77;573.748;1.88
1022;2023.72;609.149;1.88
1023;2033.49;555.925;1.88
1024;2011.21;569.842;1.89
1025;1976.72;571.795;1.89
1026;1954.44;587.42;1.89
1027;1976.72;567.888;1.89
1028;1996.56;579.608;1.89
1029;1999;552.019;1.89
1030;1988.93;599.384;1.89
1031;1956.89;581.561;1.89
1032;1915.07;546.159;1.89
1033;1915.07;599.384;1.89
1034;1959.33;605.243;1.89
1035;1974.28;577.654;1.89
1036;1986.49;567.888;1.89
1037;1981.6;571.795;1.89
1038;1952;581.561;1.89
1039;1929.72;597.43;1.89
1040;1964.21;579.608;1.89
1041;2008.77;565.935;1.9
1042;2026.16;601.337;1.9
1043;2033.49;579.608;1.9
1044;2013.65;555.925;1.9
1045;1979.16;575.701;1.9
1046;1956.89;583.514;1.9
1047;1979.16;587.42;1.9
1048;1996.56;575.701;1.9
1049;1999;555.925;1.9
1050;1991.37;579.608;1.9
1051;1956.89;589.618;1.9
1052;1915.07;553.972;1.9
1053;1919.96;583.514;1.9
1054;1964.21;599.384;1.9
1055;1984.05;579.608;1.9
1056;1996.56;569.842;1.9
1057;1988.93;575.701;1.9
1058;1961.77;581.561;1.9
1059;1939.79;599.384;1.91
1060;1969.4;579.608;1.91
1061;2011.21;567.888;1.91
1062;2031.04;603.29;1.91
1063;2040.81;573.748;1.91
1064;2023.72;561.785;1.91
1065;1988.93;573.748;1.91
1066;1964.21;585.467;1.91
1067;1984.05;579.608;1.91
1068;2001.44;575.701;1.91
1069;2006.32;553.972;1.91
1070;1996.56;585.467;1.91
1071;1961.77;587.42;1.91
1072;1919.96;550.066;1.91
1073;1919.96;583.514;1.91
1074;1966.96;595.477;1.91
1075;1986.49;579.608;1.91
1076;1996.56;567.888;1.91
1077;1994.12;581.561;1.92
1078;1964.21;579.608;1.92
1079;1942.24;601.337;1.92
1080;1969.4;573.748;1.92
1081;2013.65;569.842;1.92
1082;2031.04;607.196;1.92
1083;2040.81;569.842;1.92
1084;2026.16;565.935;1.92
1085;1986.49;571.795;1.92
1086;1964.21;587.42;1.92
1087;1984.05;573.748;1.92
1088;2006.32;575.701;1.92
1089;2006.32;550.066;1.92
1090;1999;589.618;1.92
1091;1964.21;587.42;1.92
1092;1924.84;546.159;1.92
1093;1922.4;591.571;1.92
1094;1966.96;589.618;1.92
1095;1988.93;583.514;1.93
1096;1999;567.888;1.93
1097;1996.56;587.42;1.93
1098;1971.84;579.608;1.93
1099;1944.68;603.29;1.93
1100;1974.28;571.795;1.93
1101;2018.53;571.795;1.93
1102;2035.93;611.347;1.93
1103;2045.69;563.738;1.93
1104;2031.04;569.842;1.93
1105;1991.37;571.795;1.93
1106;1966.96;589.618;1.93
1107;1988.93;567.888;1.93
1108;2006.32;575.701;1.93
1109;2008.77;550.066;1.93
1110;2003.88;591.571;1.93
1111;1969.4;583.514;1.93
1112;1927.28;546.159;1.94
1113;1927.28;597.43;1.94
1114;1981.6;585.467;1.94
1115;1996.56;583.514;1.94
1116;2003.88;567.888;1.94
1117;1988.93;591.571;1.94
1118;1961.77;579.608;1.94
1119;1949.56;605.243;1.94
1120;2001.44;563.738;1.94
1121;2031.04;573.748;1.94
1122;2048.44;611.347;1.94
1123;2048.44;557.878;1.94
1124;2021.28;571.795;1.94
1125;1981.6;571.795;1.94
1126;1974.28;587.42;1.94
1127;2001.44;565.935;1.94
1128;2011.21;577.654;1.94
1129;2011.21;550.066;1.94
1130;1991.37;597.43;1.95
1131;1954.44;579.608;1.95
1132;1917.52;544.206;1.95
1133;1942.24;599.384;1.95
1134;1979.16;585.467;1.95
1135;1996.56;585.467;1.95
1136;2001.44;565.935;1.95
1137;1988.93;589.618;1.95
1138;1959.33;579.608;1.95
1139;1947.12;603.29;1.95
1140;1999;559.832;1.95
1141;2031.04;573.748;1.95
1142;2045.69;613.3;1.95
1143;2045.69;553.972;1.95
1144;2018.53;573.748;1.95
1145;1981.6;575.701;1.95
1146;1971.84;587.42;1.95
1147;2001.44;585.467;1.96
1148;2011.21;573.748;1.96
1149;2013.65;553.972;1.96
1150;1999;579.608;1.96
1151;1956.89;589.618;1.96
1152;1922.4;555.925;1.96
1153;1942.24;575.701;1.96
1154;1979.16;601.337;1.96
1155;1996.56;575.701;1.96
1156;2003.88;567.888;1.96
1157;1991.37;573.748;1.96
1158;1964.21;581.561;1.96
1159;1947.12;601.337;1.96
1160;1996.56;577.654;1.96
1161;2031.04;569.842;1.96
1162;2045.69;605.243;1.96
1163;2048.44;575.701;1.96
1164;2023.72;559.832;1.96
1165;1984.05;575.701;1.97
1166;1974.28;587.42;1.97
1167;2001.44;581.561;1.97
1168;2016.09;573.748;1.97
1169;2016.09;553.972;1.97
1170;2001.44;581.561;1.97
1171;1964.21;585.467;1.97
1172;1929.72;548.112;1.97
1173;1949.56;581.561;1.97
1174;1986.49;595.477;1.97
1175;2003.88;579.608;1.97
1176;2011.21;569.842;1.97
1177;1999;581.561;1.97
1178;1969.4;581.561;1.97
1179;1956.89;601.337;1.97
1180;2003.88;573.748;1.97
1181;2040.81;567.888;1.97
1182;2053.32;607.196;1.98
1183;2055.76;567.888;1.98
1184;2031.04;563.738;1.98
1185;1994.12;573.748;1.98
1186;1981.6;587.42;1.98
1187;2008.77;571.795;1.98
1188;2021.28;573.748;1.98
1189;2026.16;552.019;1.98
1190;2008.77;589.618;1.98
1191;1969.4;585.467;1.98
1192;1929.72;546.159;1.98
1193;1954.44;589.618;1.98
1194;1991.37;591.571;1.98
1195;2008.77;581.561;1.98
1196;2016.09;567.888;1.98
1197;2006.32;585.467;1.98
1198;1974.28;579.608;1.99
1199;1961.77;601.337;1.99
1200;2006.32;571.795;1.99
1201;2035.93;571.795;1.99
1202;2055.76;607.196;1.99
1203;2055.76;563.738;1.99
1204;2031.04;567.888;1.99
1205;1994.12;569.842;1.99
1206;1981.6;587.42;1.99
1207;2008.77;565.935;1.99
1208;2021.28;573.748;1.99
1209;2021.28;550.066;1.99
1210;2011.21;591.571;1.99
1211;1971.84;585.467;1.99
1212;1934.61;544.206;1.99
1213;1956.89;591.571;1.99
1214;1994.12;587.42;1.99
1215;2011.21;581.561;2
1216;2016.09;565.935;2
1217;2006.32;591.571;2
1218;1976.72;579.608;2
1219;1961.77;603.29;2
1220;2008.77;563.738;2
1221;2043.25;573.748;2
1222;2063.09;611.347;2
1223;2063.09;557.878;2
1224;2038.37;569.842;2
1225;2003.88;569.842;2
1226;1986.49;589.618;2
1227;2016.09;565.935;2
1228;2026.16;573.748;2
1229;2028.6;550.066;2
1230;2016.09;595.477;2
1231;1976.72;581.561;2.01
1232;1937.05;544.206;2.01
1233;1959.33;599.384;2.01
1234;1996.56;585.467;2.01
1235;2013.65;585.467;2.01
1236;2021.28;565.935;2.01
1237;2013.65;591.571;2.01
1238;1981.6;575.701;2.01
1239;1964.21;603.29;2.01
1240;2008.77;559.832;2.01
1241;2048.44;573.748;2.01
1242;2065.53;609.149;2.01
1243;2065.53;553.972;2.01
1244;2043.25;571.795;2.01
1245;2006.32;569.842;2.01
1246;1991.37;589.618;2.01
1247;2018.53;563.738;2.01
1248;2031.04;575.701;2.02
1249;2031.04;552.019;2.02
1250;2018.53;601.337;2.02
1251;1979.16;581.561;2.02
1252;1942.24;542.009;2.02
1253;1956.89;603.29;2.02
1254;1999;581.561;2.02
1255;2016.09;585.467;2.02
1256;2021.28;565.935;2.02
1257;2011.21;585.467;2.02
1258;1981.6;577.654;2.02
1259;1964.21;603.29;2.02
1260;2008.77;567.888;2.02
1261;2045.69;571.795;2.02
1262;2063.09;609.149;2.02
1263;2067.97;557.878;2.03
1264;2045.69;569.842;2.03
1265;2003.88;569.842;2.03
1266;1988.93;587.42;2.03
1267;2018.53;565.935;2.03
1268;2031.04;573.748;2.03
1269;2035.93;550.066;2.03
1270;2021.28;593.524;2.03
1271;1984.05;583.514;2.03
1272;1942.24;544.206;2.03
1273;1956.89;595.477;2.03
1274;1999;587.42;2.03
1275;2016.09;583.514;2.03
1276;2023.72;565.935;2.03
1277;2013.65;589.618;2.03
1278;1984.05;577.654;2.03
1279;1964.21;601.337;2.04
1280;2011.21;563.738;2.04
1281;2050.88;571.795;2.04
1282;2065.53;611.347;2.04
1283;2070.41;557.878;2.04
1284;2050.88;569.842;2.04
1285;2011.21;567.888;2.04
1286;1994.12;589.618;2.04
1287;2018.53;563.738;2.04
1288;2033.49;573.748;2.04
1289;2038.37;550.066;2.04
1290;2023.72;597.43;2.04
1291;1986.49;581.561;2.04
1292;1944.68;542.009;2.04
1293;1961.77;601.337;2.04
1294;2003.88;583.514;2.04
1295;2023.72;583.514;2.05
1296;2028.6;563.738;2.05
1297;2021.28;589.618;2.05
1298;1991.37;577.654;2.05
1299;1971.84;603.29;2.05
1300;2013.65;559.832;2.05
1301;2055.76;569.842;2.05
1302;2070.41;611.347;2.05
1303;2075.6;552.019;2.05
1304;2053.32;573.748;2.05
1305;2013.65;569.842;2.05
1306;1996.56;587.42;2.05
1307;2026.16;563.738;2.05
1308;2040.81;575.701;2.05
1309;2045.69;553.972;2.05
1310;2031.04;605.243;2.05
1311;1994.12;585.467;2.06
1312;1952;552.019;2.06
1313;1966.96;577.654;2.06
1314;2008.77;599.384;2.06
1315;2026.16;577.654;2.06
1316;2035.93;567.888;2.06
1317;2028.6;577.654;2.06
1318;1999;581.561;2.06
1319;1976.72;599.384;2.06
1320;2021.28;575.701;2.06
1321;2060.65;565.935;2.06
1322;2078.04;603.29;2.06
1323;2082.93;573.748;2.06
1324;2063.09;557.878;2.06
1325;2021.28;571.795;2.06
1326;2003.88;585.467;2.06
1327;2031.04;579.608;2.07
1328;2050.88;569.842;2.07
1329;2048.44;552.019;2.07
1330;2040.81;583.514;2.07
1331;2006.32;585.467;2.07
1332;1964.21;548.112;2.07
1333;1974.28;583.514;2.07
1334;2018.53;595.477;2.07
1335;2033.49;579.608;2.07
1336;2043.25;563.738;2.07
1337;2035.93;579.608;2.07
1338;2003.88;577.654;2.07
1339;1981.6;601.337;2.07
1340;2026.16;571.795;2.07
1341;2067.97;569.842;2.07
1342;2082.93;607.196;2.08
1343;2090.25;567.888;2.08
1344;2065.53;563.738;2.08
1345;2028.6;571.795;2.08
1346;2008.77;587.42;2.08
1347;2035.93;571.795;2.08
1348;2050.88;571.795;2.08
1349;2058.21;550.066;2.08
1350;2043.25;589.618;2.08
1351;2006.32;583.514;2.08
1352;1966.96;544.206;2.08
1353;1971.84;589.618;2.08
1354;2018.53;587.42;2.08
1355;2038.37;579.608;2.08
1356;2043.25;561.785;2.08
1357;2035.93;589.618;2.08
1358;2006.32;579.608;2.09
1359;1986.49;603.29;2.09
1360;2026.16;569.842;2.09
1361;2067.97;571.795;2.09
1362;2085.37;609.149;2.09
1363;2090.25;561.785;2.09
1364;2065.53;565.935;2.09
1365;2031.04;569.842;2.09
1366;2008.77;589.618;2.09
1367;2035.93;565.935;2.09
1368;2053.32;571.795;2.09
1369;2055.76;550.066;2.09
1370;2045.69;589.618;2.09
1371;2008.77;581.561;2.09
1372;1969.4;542.009;2.09
1373;1974.28;591.571;2.1
1374;2016.09;587.42;2.1
1375;2035.93;581.561;2.1
1376;2045.69;563.738;2.1
1377;2035.93;587.42;2.1
1378;2006.32;575.701;2.1
1379;1984.05;603.29;2.1
1380;2026.16;563.738;2.1
1381;2067.97;571.795;2.1
1382;2085.37;613.3;2.1
1383;2092.69;553.972;2.1
1384;2072.86;567.888;2.1
1385;2033.49;567.888;2.1
1386;2013.65;589.618;2.1
1387;2035.93;563.738;2.1
1388;2055.76;571.795;2.1
1389;2058.21;550.066;2.11
1390;2048.44;595.477;2.11
1391;2013.65;579.608;2.11
1392;1969.4;542.009;2.11
1393;1976.72;597.43;2.11
1394;2023.72;583.514;2.11
1395;2043.25;583.514;2.11
1396;2053.32;563.738;2.11
1397;2045.69;589.618;2.11
1398;2016.09;575.701;2.11
1399;1994.12;601.337;2.11
1400;2028.6;559.832;2.11
1401;2072.86;571.795;2.11
1402;2090.25;609.149;2.11
1403;2097.58;552.019;2.11
1404;2078.04;569.842;2.11
1405;2038.37;569.842;2.12
1406;2018.53;587.42;2.12
1407;2040.81;563.738;2.12
1408;2060.65;573.748;2.12
1409;2065.53;550.066;2.12
1410;2053.32;603.29;2.12
1411;2021.28;581.561;2.12
1412;1976.72;544.206;2.12
1413;1981.6;603.29;2.12
1414;2026.16;579.608;2.12
1415;2048.44;581.561;2.12
1416;2058.21;563.738;2.12
1417;2048.44;589.618;2.12
1418;2023.72;577.654;2.12
1419;1999;601.337;2.12
1420;2033.49;552.019;2.13
1421;2080.49;573.748;2.13
1422;2097.58;603.29;2.13
1423;2102.76;571.795;2.13
1424;2085.37;559.832;2.13
1425;2048.44;569.842;2.13
1426;2023.72;585.467;2.13
1427;2048.44;579.608;2.13
1428;2065.53;573.748;2.13
1429;2070.41;552.019;2.13
1430;2060.65;581.561;2.13
1431;2028.6;585.467;2.13
1432;1984.05;550.066;2.13
1433;1988.93;583.514;2.13
1434;2033.49;595.477;2.13
1435;2058.21;579.608;2.13
1436;2063.09;567.888;2.14
1437;2048.44;577.654;2.14
1438;2016.09;577.654;2.14
1439;2013.65;601.337;2.14
1440;2065.53;571.795;2.14
1441;2097.58;567.888;2.14
1442;2112.53;605.243;2.14
1443;2110.09;567.888;2.14
1444;2080.49;561.785;2.14
1445;2043.25;571.795;2.14
1446;2040.81;585.467;2.14
1447;2065.53;571.795;2.14
1448;2078.04;571.795;2.14
1449;2078.04;550.066;2.14
1450;2058.21;585.467;2.14
1451;2016.09;583.514;2.14
1452;1984.05;544.206;2.15
1453;2011.21;587.42;2.15
1454;2048.44;589.618;2.15
1455;2065.53;581.561;2.15
1456;2070.41;561.785;2.15
1457;2058.21;585.467;2.15
1458;2026.16;577.654;2.15
1459;2016.09;601.337;2.15
1460;2067.97;569.842;2.15
1461;2100.02;569.842;2.15
1462;2117.41;607.196;2.15
1463;2114.97;561.785;2.15
1464;2082.93;563.738;2.15
1465;2048.44;569.842;2.15
1466;2038.37;585.467;2.15
1467;2070.41;565.935;2.15
1468;2082.93;571.795;2.16
1469;2082.93;548.112;2.16
1470;2065.53;589.618;2.16
1471;2023.72;581.561;2.16
1472;1988.93;540.056;2.16
1473;2016.09;591.571;2.16
1474;2055.76;585.467;2.16
1475;2070.41;581.561;2.16
1476;2075.6;561.785;2.16
1477;2063.09;585.467;2.16
1478;2031.04;575.701;2.16
1479;2021.28;601.337;2.16
1480;2070.41;565.935;2.16
1481;2102.76;571.795;2.16
1482;2117.41;609.149;2.16
1483;2117.41;555.925;2.16
1484;2090.25;567.888;2.17
1485;2048.44;565.935;2.17
1486;2045.69;587.42;2.17
1487;2075.6;563.738;2.17
1488;2085.37;573.748;2.17
1489;2085.37;548.112;2.17
1490;2070.41;593.524;2.17
1491;2028.6;583.514;2.17
1492;1991.37;542.009;2.17
1493;2021.28;597.43;2.17
1494;2065.53;583.514;2.17
1495;2075.6;579.608;2.17
1496;2080.49;563.738;2.17
1497;2070.41;587.42;2.17
1498;2038.37;575.701;2.17
1499;2028.6;601.337;2.17
1500;2075.6;557.878;2.18
1501;2107.65;569.842;2.18
1502;2124.74;609.149;2.18
1503;2124.74;552.019;2.18
1504;2092.69;571.795;2.18
1505;2058.21;565.935;2.18
1506;2050.88;587.42;2.18
1507;2080.49;561.785;2.18
1508;2092.69;575.701;2.18
1509;2092.69;546.159;2.18
1510;2078.04;601.337;2.18
1511;2033.49;579.608;2.18
1512;1996.56;540.056;2.18
1513;2026.16;601.337;2.18
1514;2063.09;581.561;2.18
1515;2080.49;579.608;2.18
1516;2082.93;561.785;2.19
1517;2070.41;587.42;2.19
1518;2043.25;573.748;2.19
1519;2028.6;601.337;2.19
1520;2080.49;553.972;2.19
1521;2114.97;571.795;2.19
1522;2127.18;611.347;2.19
1523;2129.93;546.159;2.19
1524;2100.02;567.888;2.19
1525;2060.65;567.888;2.19
1526;2055.76;589.618;2.19
1527;2082.93;559.832;2.19
1528;2097.58;573.748;2.19
1529;2100.02;552.019;2.19
1530;2082.93;601.337;2.19
1531;2040.81;577.654;2.2
1532;2006.32;542.009;2.2
1533;2028.6;593.524;2.2
1534;2067.97;585.467;2.2
1535;2085.37;581.561;2.2
1536;2092.69;563.738;2.2
1537;2078.04;587.42;2.2
1538;2045.69;575.701;2.2
1539;2033.49;599.384;2.2
1540;2085.37;561.785;2.2
1541;2119.85;569.842;2.2
1542;2137.25;609.149;2.2
1543;2137.25;555.925;2.2
1544;2110.09;569.842;2.2
1545;2070.41;565.935;2.2
1546;2058.21;585.467;2.21
1547;2087.81;561.785;2.21
1548;2100.02;573.748;2.21
1549;2102.76;548.112;2.21
1550;2085.37;595.477;2.21
1551;2045.69;579.608;2.21
1552;2008.77;540.056;2.21
1553;2031.04;599.384;2.21
1554;2072.86;581.561;2.21
1555;2090.25;579.608;2.21
1556;2095.13;561.785;2.21
1557;2082.93;587.42;2.21
1558;2053.32;573.748;2.21
1559;2035.93;601.337;2.21
1560;2087.81;555.925;2.22
1561;2124.74;569.842;2.22
1562;2142.13;609.149;2.22
1563;2142.13;548.112;2.22
1564;2114.97;567.888;2.22
1565;2075.6;565.935;2.22
1566;2063.09;585.467;2.22
1567;2090.25;561.785;2.22
1568;2105.21;573.748;2.22
1569;2107.65;548.112;2.22
1570;2087.81;599.384;2.22
1571;2050.88;577.654;2.22
1572;2008.77;540.056;2.22
1573;2031.04;603.29;2.22
1574;2072.86;575.701;2.22
1575;2090.25;579.608;2.23
1576;2097.58;561.785;2.23
1577;2085.37;585.467;2.23
1578;2055.76;571.795;2.23
1579;2040.81;597.43;2.23
1580;2087.81;550.066;2.23
1581;2124.74;571.795;2.23
1582;2142.13;605.243;2.23
1583;2144.57;542.009;2.23
1584;2114.97;571.795;2.23
1585;2078.04;565.935;2.23
1586;2065.53;585.467;2.23
1587;2095.13;561.785;2.23
1588;2107.65;571.795;2.23
1589;2107.65;548.112;2.24
1590;2095.13;579.608;2.24
1591;2053.32;583.514;2.24
1592;2016.09;546.159;2.24
1593;2050.88;577.654;2.24
1594;2085.37;593.524;2.24
1595;2102.76;579.608;2.24
1596;2105.21;561.785;2.24
1597;2087.81;577.654;2.24
1598;2055.76;577.654;2.24
1599;2048.44;599.384;2.24
1600;2102.76;567.888;2.24
1601;2134.81;563.738;2.24
1602;2147.02;605.243;2.24
1603;2144.57;565.935;2.25
1604;2110.09;561.785;2.25
1605;2070.41;565.935;2.25
1606;2070.41;585.467;2.25
1607;2105.21;573.748;2.25
1608;2114.97;569.842;2.25
1609;2114.97;546.159;2.25
1610;2092.69;583.514;2.25
1611;2050.88;579.608;2.25
1612;2018.53;542.009;2.25
1613;2053.32;583.514;2.25
1614;2087.81;587.42;2.25
1615;2102.76;581.561;2.25
1616;2107.65;561.785;2.25
1617;2090.25;583.514;2.26
1618;2058.21;573.748;2.26
1619;2050.88;601.337;2.26
1620;2105.21;565.935;2.26
1621;2134.81;565.935;2.26
1622;2151.9;603.29;2.26
1623;2151.9;557.878;2.26
1624;2119.85;561.785;2.26
1625;2078.04;567.888;2.26
1626;2075.6;583.514;2.26
1627;2105.21;563.738;2.26
1628;2117.41;569.842;2.26
1629;2117.41;544.206;2.26
1630;2097.58;585.467;2.26
1631;2055.76;579.608;2.27
1632;2018.53;538.102;2.27
1633;2050.88;591.571;2.27
1634;2087.81;585.467;2.27
1635;2102.76;579.608;2.27
1636;2107.65;561.785;2.27
1637;2092.69;585.467;2.27
1638;2063.09;571.795;2.27
1639;2053.32;599.384;2.27
1640;2107.65;561.785;2.27
1641;2139.69;565.935;2.27
1642;2154.34;611.347;2.27
1643;2151.9;553.972;2.27
1644;2122.3;563.738;2.28
1645;2080.49;563.738;2.28
1646;2078.04;585.467;2.28
1647;2110.09;561.785;2.28
1648;2119.85;569.842;2.28
1649;2122.3;546.159;2.28
1650;2105.21;593.524;2.28
1651;2060.65;577.654;2.28
1652;2026.16;542.009;2.28
1653;2055.76;593.524;2.28
1654;2095.13;579.608;2.28
1655;2110.09;579.608;2.28
1656;2112.53;561.785;2.28
1657;2097.58;585.467;2.28
1658;2065.53;573.748;2.29
1659;2058.21;599.384;2.29
1660;2112.53;555.925;2.29
1661;2144.57;571.795;2.29
1662;2161.97;607.196;2.29
