<WeldAnalyseData xmlns:i="http:www.w3.org/2001/XMLSchema-instance">
<WeldParameter>
<TimeStamp>DT#2024-01-25-09:47:26</TimeStamp>
<Generator>SG-22-10000</Generator>
<GenFreq>20</GenFreq>
<MaxForce>8000</MaxForce>
<MaxPower>10000</MaxPower>
<RunupPressure>1.5</RunupPressure>
<RunupDist>10</RunupDist>
<RunPress>0.8</RunPress>
<ShakeDelay>0.03</ShakeDelay>
<ShakeTime>0.3</ShakeTime>
<RunBackPress1>6</RunBackPress1>
<RunBackPress2>2</RunBackPress2>
<RunBackDist>1</RunBackDist>
<TrigValue>500</TrigValue>
<TrigModeUnit>W</TrigModeUnit>
<WeldModeUnit>Ws</WeldModeUnit>
<PressNr>0</PressNr>
<MaxLoss>1500</MaxLoss>
</WeldParameter>
<WeldSets>
<WeldSet>
<PressRiseTime>0</PressRiseTime>
<RunPressure>1</RunPressure>
<Amplitude>86</Amplitude>
<WeldMode>3270</WeldMode>
</WeldSet>
</WeldSets>
<WeldValue>
<WeldNr>2988</WeldNr>
<RecipeName>RickStyle</RecipeName>
<WeldTime>1666</WeldTime>
<DistDiff>2.18999</DistDiff>
<DistAbs>78.02</DistAbs>
<Energy>3272.06</Energy>
<MaxPower>2194.78</MaxPower>
<CycleTime>6060</CycleTime>
<TrigForce>502.701</TrigForce>
<TrigDist>75.83</TrigDist>
<RunSpeed>68.2538</RunSpeed>
<MaxForce>617.206</MaxForce>
<LossPower>323.611</LossPower>
</WeldValue>
</WeldAnalyseData>
#CSV-START#
ms;Power[W];Force[N];Distance[mm]
1;0;0;0
2;0;504.654;0
3;0;506.607;0
4;0;508.56;0
5;0;508.56;0
6;0;508.56;0
7;0;510.514;0
8;0;484.878;0.00999451
9;0;435.56;0.0199966
10;0;419.691;0.0400009
11;0;378.185;0.0699997
12;34.3715;366.466;0.0999985
13;96.0189;350.597;0.139999
14;175.062;326.914;0.18
15;246.475;317.148;0.220001
16;303.545;307.138;0.269997
17;352.68;303.232;0.309998
18;421.957;293.222;0.360001
19;488.487;299.326;0.400002
20;550.439;289.315;0.439995
21;614.528;324.961;0.470001
22;671.293;324.961;0.5
23;732.94;311.045;0.529999
24;809.542;354.503;0.549995
25;893.467;356.456;0.559998
26;960.303;366.466;0.580002
27;1024.39;370.373;0.589996
28;1078.71;397.961;0.599998
29;1118.08;403.821;0.599998
30;1152.87;433.607;0.610001
31;1214.52;403.821;0.610001
32;1266.4;419.691;0.610001
33;1305.77;457.289;0.610001
34;1340.56;409.925;0.610001
35;1357.65;423.597;0.619995
36;1360.1;425.55;0.619995
37;1375.05;443.373;0.629997
38;1422.05;421.644;0.629997
39;1456.53;433.607;0.639999
40;1488.58;411.878;0.639999
41;1510.86;455.336;0.650002
42;1508.42;447.279;0.650002
43;1503.53;423.597;0.659996
44;1538.02;435.56;0.659996
45;1592.34;461.196;0.669998
46;1626.83;441.42;0.669998
47;1656.43;431.654;0.68
48;1671.38;439.467;0.689995
49;1673.83;445.326;0.689995
50;1678.71;465.102;0.699997
51;1735.47;447.279;0.699997
52;1789.8;435.56;0.709999
53;1826.72;469.008;0.720001
54;1851.44;451.186;0.720001
55;1849;433.607;0.729996
56;1834.35;451.186;0.739998
57;1834.35;465.102;0.739998
58;1876.16;465.102;0.75
59;1905.77;459.243;0.759995
60;1925.6;441.42;0.759995
61;1928.04;467.055;0.769997
62;1905.77;477.065;0.769997
63;1878.6;445.326;0.779999
64;1900.88;475.112;0.779999
65;1950.32;492.691;0.779999
66;1982.37;477.065;0.790001
67;2002.21;465.102;0.790001
68;2002.21;477.065;0.799995
69;1982.37;482.925;0.799995
70;1967.72;504.654;0.799995
71;2022.04;482.925;0.809998
72;2076.36;475.112;0.809998
73;2100.78;512.467;0.82
74;2110.85;480.972;0.82
75;2088.57;470.962;0.82
76;2054.09;486.831;0.830002
77;2049.2;500.748;0.830002
78;2086.13;492.691;0.839996
79;2103.53;488.784;0.839996
80;2110.85;467.055;0.839996
81;2100.78;502.701;0.849998
82;2058.97;504.654;0.849998
83;2022.04;465.102;0.849998
84;2054.09;506.607;0.860001
85;2095.9;514.42;0.860001
86;2120.62;506.607;0.869995
87;2130.69;490.738;0.869995
88;2118.18;508.56;0.869995
89;2088.57;506.607;0.879997
90;2076.36;530.29;0.879997
91;2130.69;500.748;0.889999
92;2170.06;502.701;0.889999
93;2189.89;538.102;0.889999
94;2192.34;500.748;0.900002
95;2162.73;498.795;0.900002
96;2123.06;504.654;0.900002
97;2110.85;524.43;0.909996
98;2145.34;504.654;0.909996
99;2157.85;508.56;0.909996
100;2165.17;486.831;0.909996
101;2150.22;526.383;0.919998
102;2105.97;520.524;0.919998
103;2063.85;484.878;0.919998
104;2091.01;528.336;0.93
105;2130.69;528.336;0.93
106;2147.78;522.477;0.93
107;2155.1;504.654;0.939995
108;2138.01;526.383;0.939995
109;2103.53;518.326;0.939995
110;2091.01;546.159;0.949997
111;2140.45;506.607;0.949997
112;2174.94;512.467;0.949997
113;2192.34;552.019;0.959999
114;2194.78;506.607;0.959999
115;2165.17;508.56;0.959999
116;2125.5;514.42;0.959999
117;2113.29;532.243;0.970001
118;2142.9;510.514;0.970001
119;2157.85;520.524;0.970001
120;2162.73;498.795;0.970001
121;2147.78;540.056;0.979996
122;2103.53;530.29;0.979996
123;2061.41;490.738;0.979996
124;2083.69;546.159;0.979996
125;2127.94;536.149;0.989998
126;2145.34;534.196;0.989998
127;2152.66;516.373;0.989998
128;2135.57;538.102;0.989998
129;2098.34;530.29;1
130;2086.13;557.878;1
131;2130.69;516.373;1
132;2167.62;524.43;1.00999
133;2179.82;559.832;1.00999
134;2185.01;508.56;1.00999
135;2152.66;522.477;1.00999
136;2108.41;520.524;1.02
137;2095.9;540.056;1.02
138;2125.5;514.42;1.02
139;2140.45;528.336;1.02
140;2142.9;506.607;1.03
141;2125.5;552.019;1.03
142;2083.69;538.102;1.03
143;2039.13;498.795;1.03
144;2056.53;555.925;1.03
145;2100.78;536.149;1.04
146;2118.18;536.149;1.04
147;2125.5;522.477;1.04
148;2108.41;540.056;1.04
149;2076.36;534.196;1.04
150;2061.41;559.832;1.05
151;2108.41;526.383;1.05
152;2147.78;526.383;1.05
153;2162.73;567.888;1.05
154;2165.17;522.477;1.05
155;2135.57;522.477;1.06
156;2091.01;528.336;1.06
157;2073.62;546.159;1.06
158;2100.78;526.383;1.06
159;2118.18;530.29;1.06
160;2118.18;510.514;1.07
161;2105.97;548.112;1.07
162;2063.85;542.009;1.07
163;2019.3;506.607;1.07
164;2036.69;552.019;1.07
165;2076.36;552.019;1.08
166;2093.46;546.159;1.08
167;2098.34;526.383;1.08
168;2086.13;552.019;1.08
169;2054.09;542.009;1.08
170;2034.25;569.842;1.09
171;2076.36;532.243;1.09
172;2115.73;536.149;1.09
173;2133.13;575.701;1.09
174;2138.01;526.383;1.09
175;2108.41;532.243;1.1
176;2068.74;534.196;1.1
177;2056.53;552.019;1.1
178;2076.36;530.29;1.1
179;2091.01;540.056;1.1
180;2095.9;516.373;1.1
181;2083.69;559.832;1.11
182;2041.57;548.112;1.11
183;1999.76;512.467;1.11
184;2011.97;561.785;1.11
185;2054.09;552.019;1.11
186;2071.18;552.019;1.11
187;2076.36;532.243;1.12
188;2066.29;557.878;1.12
189;2031.81;548.112;1.12
190;2009.53;571.795;1.12
191;2056.53;530.29;1.12
192;2093.46;540.056;1.13
193;2105.97;577.654;1.13
194;2110.85;528.336;1.13
195;2086.13;540.056;1.13
196;2044.02;538.102;1.13
197;2024.48;553.972;1.13
198;2051.65;553.972;1.14
199;2063.85;540.056;1.14
200;2066.29;528.336;1.14
201;2054.09;546.159;1.14
202;2009.53;561.785;1.14
203;1967.72;528.336;1.14
204;1979.93;544.206;1.15
205;2024.48;575.701;1.15
206;2041.57;550.066;1.15
207;2049.2;538.102;1.15
208;2036.69;546.159;1.15
209;2007.09;553.972;1.15
210;1987.25;569.842;1.15
211;2026.93;552.019;1.16
212;2066.29;540.056;1.16
213;2083.69;573.748;1.16
214;2086.13;553.972;1.16
215;2061.41;530.29;1.16
216;2022.04;548.112;1.16
217;2004.65;557.878;1.16
218;2026.93;561.785;1.17
219;2041.57;548.112;1.17
220;2049.2;530.29;1.17
221;2034.25;557.878;1.17
222;1997.32;561.785;1.17
223;1952.76;530.29;1.17
224;1967.72;553.972;1.18
225;2009.53;575.701;1.18
226;2029.37;553.972;1.18
227;2036.69;542.009;1.18
228;2029.37;552.019;1.18
229;1997.32;555.925;1.18
230;1975.04;577.654;1.18
231;2016.85;552.019;1.18
232;2056.53;544.206;1.18999
233;2073.62;577.654;1.18999
234;2081.25;553.972;1.18999
235;2056.53;536.149;1.18999
236;2016.85;550.066;1.18999
237;1997.32;563.738;1.18999
238;2022.04;555.925;1.18999
239;2034.25;550.066;1.2
240;2039.13;530.29;1.2
241;2026.93;561.785;1.2
242;1989.69;565.935;1.2
243;1945.44;530.29;1.2
244;1952.76;561.785;1.2
245;1997.32;573.748;1.2
246;2014.41;557.878;1.21
247;2024.48;546.159;1.21
248;2014.41;561.785;1.21
249;1982.37;557.878;1.21
250;1957.65;583.514;1.21
251;1997.32;553.972;1.21
252;2039.13;550.066;1.21
253;2056.53;589.618;1.22
254;2058.97;550.066;1.22
255;2039.13;546.159;1.22
256;1999.76;553.972;1.22
257;1979.93;571.795;1.22
258;2002.21;553.972;1.22
259;2016.85;555.925;1.22
260;2019.3;534.196;1.22
261;2009.53;571.795;1.22
262;1967.72;567.888;1.23
263;1928.04;532.243;1.23
264;1932.93;571.795;1.23
265;1977.49;573.748;1.23
266;1994.88;565.935;1.23
267;2002.21;550.066;1.23
268;1994.88;571.795;1.23
269;1967.72;565.935;1.23
270;1940.56;589.618;1.24
271;1977.49;553.972;1.24
272;2022.04;559.832;1.24
273;2041.57;597.43;1.24
274;2044.02;552.019;1.24
275;2022.04;555.925;1.24
276;1984.81;559.832;1.24
277;1964.97;575.701;1.24
278;1987.25;555.925;1.25
279;2004.65;563.738;1.25
280;2009.53;538.102;1.25
281;1994.88;581.561;1.25
282;1962.53;573.748;1.25
283;1918.28;536.149;1.25
284;1925.6;583.514;1.25
285;1967.72;577.654;1.25
286;1987.25;575.701;1.25999
287;1997.32;557.878;1.25999
288;1989.69;579.608;1.25999
289;1960.09;569.842;1.25999
290;1937.81;597.43;1.25999
291;1972.6;559.832;1.25999
292;2011.97;565.935;1.25999
293;2031.81;603.29;1.25999
294;2039.13;553.972;1.25999
295;2019.3;559.832;1.27
296;1979.93;563.738;1.27
297;1960.09;583.514;1.27
298;1982.37;561.785;1.27
299;1999.76;569.842;1.27
300;2002.21;553.972;1.27
301;1992.13;569.842;1.27
302;1957.65;587.42;1.27
303;1913.4;553.972;1.27
304;1918.28;563.738;1.28
305;1962.53;597.43;1.28
306;1979.93;573.748;1.28
307;1989.69;565.935;1.28
308;1984.81;569.842;1.28
309;1960.09;579.608;1.28
310;1932.93;593.524;1.28
311;1967.72;579.608;1.28
312;2007.09;561.785;1.28
313;2026.93;593.524;1.29
314;2031.81;581.561;1.29
315;2009.53;552.019;1.29
316;1975.04;573.748;1.29
317;1952.76;585.467;1.29
318;1975.04;585.467;1.29
319;1992.13;573.748;1.29
320;1997.32;555.925;1.29
321;1987.25;577.654;1.29
322;1955.21;589.618;1.29
323;1910.65;555.925;1.3
324;1913.4;575.701;1.3
325;1957.65;601.337;1.3
326;1975.04;577.654;1.3
327;1984.81;567.888;1.3
328;1979.93;573.748;1.3
329;1950.32;579.608;1.3
330;1925.6;599.384;1.3
331;1960.09;579.608;1.3
332;2004.65;567.888;1.31
333;2019.3;601.337;1.31
334;2029.37;581.561;1.31
335;2011.97;559.832;1.31
336;1977.49;577.654;1.31
337;1952.76;585.467;1.31
338;1972.6;583.514;1.31
339;1989.69;575.701;1.31
340;1992.13;555.925;1.31
341;1984.81;585.467;1.31
342;1952.76;589.618;1.32
343;1908.21;553.972;1.32
344;1908.21;579.608;1.32
345;1955.21;599.384;1.32
346;1975.04;583.514;1.32
347;1984.81;571.795;1.32
348;1982.37;581.561;1.32
349;1952.76;581.561;1.32
350;1928.04;605.243;1.32
351;1960.09;577.654;1.32
352;2002.21;571.795;1.33
353;2022.04;607.196;1.33
354;2029.37;573.748;1.33
355;2011.97;565.935;1.33
356;1975.04;577.654;1.33
357;1950.32;591.571;1.33
358;1972.6;581.561;1.33
359;1989.69;577.654;1.33
360;1992.13;555.925;1.33
361;1984.81;589.618;1.33
362;1950.32;589.618;1.33
363;1908.21;552.019;1.34
364;1905.77;587.42;1.34
365;1952.76;599.384;1.34
366;1970.16;587.42;1.34
367;1982.37;569.842;1.34
368;1975.04;585.467;1.34
369;1950.32;583.514;1.34
370;1925.6;607.196;1.34
371;1952.76;575.701;1.34
372;1997.32;575.701;1.34
373;2016.85;609.149;1.34
374;2022.04;573.748;1.34
375;2007.09;571.795;1.35
376;1972.6;577.654;1.35
377;1945.44;593.524;1.35
378;1964.97;575.701;1.35
379;1982.37;577.654;1.35
380;1989.69;555.925;1.35
381;1984.81;593.524;1.35
382;1950.32;587.42;1.35
383;1905.77;552.019;1.35
384;1908.21;595.477;1.35
385;1947.88;593.524;1.35
386;1970.16;589.618;1.36
387;1982.37;571.795;1.36
388;1977.49;593.524;1.36
389;1950.32;585.467;1.36
390;1925.6;611.347;1.36
391;1952.76;573.748;1.36
392;1994.88;577.654;1.36
393;2016.85;613.3;1.36
394;2026.93;567.888;1.36
395;2011.97;575.701;1.36
396;1977.49;575.701;1.36
397;1947.88;597.43;1.36
398;1964.97;573.748;1.37
399;1987.25;581.561;1.37
400;1989.69;557.878;1.37
401;1984.81;599.384;1.37
402;1950.32;589.618;1.37
403;1908.21;555.925;1.37
404;1908.21;583.514;1.37
405;1947.88;601.337;1.37
406;1970.16;585.467;1.37
407;1982.37;573.748;1.37
408;1975.04;585.467;1.37
409;1950.32;585.467;1.37
410;1923.16;609.149;1.38
411;1950.32;583.514;1.38
412;1997.32;575.701;1.38
413;2016.85;611.347;1.38
414;2024.48;575.701;1.38
415;2007.09;567.888;1.38
416;1972.6;577.654;1.38
417;1947.88;593.524;1.38
418;1964.97;579.608;1.38
419;1984.81;579.608;1.38
420;1989.69;555.925;1.38
421;1984.81;591.571;1.38
422;1952.76;589.618;1.38
423;1910.65;553.972;1.39
424;1903.32;589.618;1.39
425;1945.44;597.43;1.39
426;1967.72;587.42;1.39
427;1977.49;571.795;1.39
428;1972.6;593.524;1.39
429;1950.32;585.467;1.39
430;1923.16;609.149;1.39
431;1945.44;577.654;1.39
432;1992.13;575.701;1.39
433;2011.97;615.253;1.39
434;2024.48;571.795;1.39
435;2007.09;573.748;1.4
436;1972.6;577.654;1.4
437;1945.44;593.524;1.4
438;1960.09;573.748;1.4
439;1977.49;579.608;1.4
440;1984.81;555.925;1.4
441;1982.37;597.43;1.4
442;1950.32;587.42;1.4
443;1908.21;552.019;1.4
444;1903.32;597.43;1.4
445;1943;593.524;1.4
446;1964.97;589.618;1.4
447;1977.49;573.748;1.4
448;1975.04;597.43;1.41
449;1950.32;587.42;1.41
450;1923.16;609.149;1.41
451;1945.44;575.701;1.41
452;1989.69;577.654;1.41
453;2011.97;617.206;1.41
454;2022.04;593.524;1.41
455;2009.53;555.925;1.41
456;1975.04;579.608;1.41
457;1947.88;589.618;1.41
458;1960.09;591.571;1.41
459;1979.93;577.654;1.41
460;1987.25;567.888;1.41
461;1982.37;577.654;1.41
462;1950.32;595.477;1.42
463;1910.65;569.842;1.42
464;1900.88;573.748;1.42
465;1943;613.3;1.42
466;1967.72;585.467;1.42
467;1977.49;577.654;1.42
468;1970.16;575.701;1.42
469;1940.56;587.42;1.42
470;1923.16;601.337;1.42
471;1964.97;591.571;1.42
472;1999.76;569.842;1.42
473;2016.85;601.337;1.42
474;2019.3;589.618;1.42
475;1997.32;557.878;1.43
476;1957.65;583.514;1.43
477;1945.44;591.571;1.43
478;1970.16;593.524;1.43
479;1984.81;579.608;1.43
480;1984.81;561.785;1.43
481;1970.16;583.514;1.43
482;1935.37;597.43;1.43
483;1898.44;563.738;1.43
484;1910.65;579.608;1.43
485;1952.76;607.196;1.43
486;1970.16;581.561;1.43
487;1975.04;575.701;1.43
488;1967.72;575.701;1.43
489;1937.81;587.42;1.43999
490;1920.72;605.243;1.43999
491;1960.09;585.467;1.43999
492;1997.32;571.795;1.43999
493;2016.85;605.243;1.43999
494;2019.3;585.467;1.43999
495;1994.88;563.738;1.43999
496;1962.53;581.561;1.43999
497;1943;593.524;1.43999
498;1970.16;591.571;1.43999
499;1982.37;579.608;1.43999
500;1987.25;561.785;1.43999
501;1972.6;587.42;1.43999
502;1935.37;595.477;1.43999
503;1898.44;561.785;1.45
504;1910.65;581.561;1.45
505;1947.88;603.29;1.45
506;1967.72;585.467;1.45
507;1972.6;575.701;1.45
508;1962.53;585.467;1.45
509;1932.93;587.42;1.45
510;1920.72;607.196;1.45
511;1960.09;583.514;1.45
512;1994.88;573.748;1.45
513;2014.41;609.149;1.45
514;2019.3;583.514;1.45
515;1994.88;567.888;1.45
516;1960.09;579.608;1.45
517;1940.56;593.524;1.46
518;1967.72;585.467;1.46
519;1982.37;581.561;1.46
520;1984.81;559.832;1.46
521;1972.6;591.571;1.46
522;1937.81;591.571;1.46
523;1898.44;555.925;1.46
524;1908.21;589.618;1.46
525;1947.88;601.337;1.46
526;1964.97;587.42;1.46
527;1972.6;573.748;1.46
528;1962.53;589.618;1.46
529;1935.37;585.467;1.46
530;1913.4;607.196;1.46
531;1955.21;579.608;1.47
532;1992.13;575.701;1.47
533;2011.97;611.347;1.47
534;2016.85;573.748;1.47
535;1992.13;571.795;1.47
536;1957.65;579.608;1.47
537;1937.81;593.524;1.47
538;1964.97;577.654;1.47
539;1977.49;581.561;1.47
540;1982.37;557.878;1.47
541;1972.6;595.477;1.47
542;1935.37;587.42;1.47
543;1896;553.972;1.47
544;1905.77;597.43;1.47
545;1947.88;597.43;1.48
546;1962.53;591.571;1.48
547;1972.6;573.748;1.48
548;1964.97;595.477;1.48
549;1940.56;585.467;1.48
550;1918.28;613.3;1.48
551;1957.65;577.654;1.48
552;1994.88;581.561;1.48
553;2011.97;617.206;1.48
554;2019.3;569.842;1.48
555;1999.76;575.701;1.48
556;1962.53;577.654;1.48
557;1945.44;593.524;1.48
558;1967.72;593.524;1.48
559;1982.37;577.654;1.49
560;1984.81;569.842;1.49
561;1975.04;577.654;1.49
562;1937.81;599.384;1.49
563;1898.44;571.795;1.49
564;1908.21;573.748;1.49
565;1947.88;615.253;1.49
566;1967.72;583.514;1.49
567;1977.49;575.701;1.49
568;1967.72;577.654;1.49
569;1937.81;587.42;1.49
570;1918.28;599.384;1.49
571;1957.65;591.571;1.49
572;1997.32;567.888;1.49
573;2014.41;601.337;1.5
574;2019.3;593.524;1.5
575;1997.32;559.832;1.5
576;1962.53;583.514;1.5
577;1943;589.618;1.5
578;1964.97;591.571;1.5
579;1979.93;579.608;1.5
580;1982.37;565.935;1.5
581;1977.49;579.608;1.5
582;1940.56;599.384;1.5
583;1900.88;567.888;1.5
584;1905.77;575.701;1.5
585;1947.88;609.149;1.5
586;1967.72;583.514;1.5
587;1975.04;575.701;1.5
588;1967.72;577.654;1.50999
589;1937.81;585.467;1.50999
590;1918.28;599.384;1.50999
591;1955.21;589.618;1.50999
592;1994.88;571.795;1.50999
593;2011.97;603.29;1.50999
594;2019.3;587.42;1.50999
595;1999.76;561.785;1.50999
596;1960.09;581.561;1.50999
597;1940.56;591.571;1.50999
598;1964.97;589.618;1.50999
599;1982.37;579.608;1.50999
600;1984.81;561.785;1.50999
601;1977.49;583.514;1.50999
602;1940.56;593.524;1.52
603;1900.88;559.832;1.52
604;1903.32;581.561;1.52
605;1947.88;607.196;1.52
606;1964.97;583.514;1.52
607;1977.49;573.748;1.52
608;1970.16;579.608;1.52
609;1943;585.467;1.52
610;1920.72;607.196;1.52
611;1955.21;583.514;1.52
612;1994.88;575.701;1.52
613;2014.41;607.196;1.52
614;2016.85;581.561;1.52
615;2002.21;565.935;1.52
616;1964.97;579.608;1.52
617;1943;591.571;1.52
618;1964.97;585.467;1.53
619;1982.37;579.608;1.53
620;1987.25;557.878;1.53
621;1977.49;587.42;1.53
622;1943;593.524;1.53
623;1903.32;555.925;1.53
624;1905.77;585.467;1.53
625;1950.32;603.29;1.53
626;1970.16;583.514;1.53
627;1977.49;573.748;1.53
628;1975.04;583.514;1.53
629;1947.88;585.467;1.53
630;1923.16;605.243;1.53
631;1957.65;577.654;1.53
632;1999.76;573.748;1.53
633;2014.41;607.196;1.54
634;2022.04;575.701;1.54
635;2004.65;569.842;1.54
636;1967.72;577.654;1.54
637;1945.44;593.524;1.54
638;1964.97;577.654;1.54
639;1982.37;577.654;1.54
640;1987.25;555.925;1.54
641;1977.49;591.571;1.54
642;1943;589.618;1.54
643;1900.88;552.019;1.54
644;1905.77;589.618;1.54
645;1945.44;597.43;1.54
646;1964.97;585.467;1.54
647;1975.04;571.795;1.54
648;1970.16;591.571;1.54
649;1945.44;583.514;1.55
650;1915.84;605.243;1.55
651;1952.76;573.748;1.55
652;1997.32;575.701;1.55
653;2014.41;611.347;1.55
654;2022.04;571.795;1.55
655;2007.09;571.795;1.55
656;1967.72;573.748;1.55
657;1945.44;591.571;1.55
658;1964.97;575.701;1.55
659;1982.37;579.608;1.55
660;1984.81;553.972;1.55
661;1975.04;585.467;1.55
662;1943;593.524;1.55
663;1908.21;559.832;1.55
664;1903.32;579.608;1.55
665;1945.44;601.337;1.56
666;1964.97;581.561;1.56
667;1975.04;571.795;1.56
668;1970.16;577.654;1.56
669;1943;583.514;1.56
670;1918.28;605.243;1.56
671;1947.88;583.514;1.56
672;1989.69;571.795;1.56
673;2011.97;605.243;1.56
674;2019.3;579.608;1.56
675;2004.65;563.738;1.56
676;1967.72;579.608;1.56
677;1940.56;589.618;1.56
678;1960.09;583.514;1.56
679;1977.49;577.654;1.56
680;1979.93;557.878;1.56
681;1975.04;585.467;1.57
682;1943;587.42;1.57
683;1900.88;555.925;1.57
684;1898.44;585.467;1.57
685;1943;599.384;1.57
686;1962.53;583.514;1.57
687;1972.6;571.795;1.57
688;1970.16;585.467;1.57
689;1945.44;581.561;1.57
690;1918.28;603.29;1.57
691;1945.44;577.654;1.57
692;1987.25;571.795;1.57
693;2009.53;609.149;1.57
694;2019.3;571.795;1.57
695;2002.21;567.888;1.57
696;1964.97;575.701;1.57
697;1937.81;589.618;1.58
698;1962.53;575.701;1.58
699;1982.37;577.654;1.58
700;1984.81;553.972;1.58
701;1977.49;587.42;1.58
702;1947.88;587.42;1.58
703;1905.77;552.019;1.58
704;1905.77;589.618;1.58
705;1945.44;593.524;1.58
706;1964.97;585.467;1.58
707;1975.04;569.842;1.58
708;1972.6;589.618;1.58
709;1947.88;581.561;1.58
710;1920.72;605.243;1.58
711;1947.88;573.748;1.58
712;1989.69;573.748;1.58
713;2011.97;609.149;1.59
714;2022.04;593.524;1.59
715;2009.53;548.112;1.59
716;1972.6;577.654;1.59
717;1945.44;581.561;1.59
718;1962.53;589.618;1.59
719;1982.37;575.701;1.59
720;1987.25;567.888;1.59
721;1982.37;569.842;1.59
722;1947.88;597.43;1.59
723;1908.21;569.842;1.59
724;1903.32;563.738;1.59
725;1945.44;613.3;1.59
726;1967.72;579.608;1.59
727;1977.49;573.748;1.59
728;1972.6;571.795;1.6
729;1947.88;581.561;1.6
730;1920.72;591.571;1.6
731;1945.44;589.618;1.6
732;1987.25;561.785;1.6
733;2011.97;593.524;1.6
734;2022.04;589.618;1.6
735;2007.09;550.066;1.6
736;1972.6;577.654;1.6
737;1943;583.514;1.6
738;1962.53;587.42;1.6
739;1982.37;575.701;1.6
740;1987.25;561.785;1.6
741;1982.37;573.748;1.6
742;1950.32;591.571;1.6
743;1908.21;563.738;1.6
744;1903.32;567.888;1.61
745;1945.44;609.149;1.61
746;1967.72;577.654;1.61
747;1977.49;569.842;1.61
748;1975.04;571.795;1.61
749;1950.32;583.514;1.61
750;1923.16;595.477;1.61
751;1947.88;585.467;1.61
752;1992.13;565.935;1.61
753;2011.97;599.384;1.61
754;2019.3;585.467;1.61
755;2007.09;553.972;1.61
756;1975.04;577.654;1.61
757;1947.88;587.42;1.61
758;1960.09;583.514;1.61
759;1979.93;573.748;1.61
760;1987.25;559.832;1.62
761;1979.93;575.701;1.62
762;1952.76;589.618;1.62
763;1910.65;559.832;1.62
764;1900.88;575.701;1.62
765;1943;603.29;1.62
766;1964.97;579.608;1.62
767;1975.04;569.842;1.62
768;1975.04;573.748;1.62
769;1950.32;579.608;1.62
770;1920.72;601.337;1.62
771;1945.44;583.514;1.62
772;1992.13;567.888;1.62
773;2011.97;601.337;1.62
774;2022.04;579.608;1.62
775;2009.53;557.878;1.62
776;1975.04;575.701;1.63
777;1943;587.42;1.63
778;1962.53;583.514;1.63
779;1982.37;573.748;1.63
780;1989.69;555.925;1.63
781;1982.37;583.514;1.63
782;1957.65;587.42;1.63
783;1913.4;553.972;1.63
784;1903.32;579.608;1.63
785;1943;599.384;1.63
786;1967.72;581.561;1.63
787;1977.49;567.888;1.63
788;1972.6;579.608;1.63
789;1952.76;581.561;1.63
790;1923.16;601.337;1.63
791;1943;577.654;1.63
792;1989.69;569.842;1.64
793;2011.97;603.29;1.64
794;2019.3;575.701;1.64
795;2009.53;563.738;1.64
796;1975.04;573.748;1.64
797;1943;585.467;1.64
798;1960.09;577.654;1.64
799;1982.37;575.701;1.64
800;1984.81;552.019;1.64
801;1984.81;585.467;1.64
802;1955.21;587.42;1.64
803;1913.4;553.972;1.64
804;1903.32;585.467;1.64
805;1943;595.477;1.64
806;1964.97;581.561;1.64
807;1977.49;567.888;1.64
808;1975.04;585.467;1.65
809;1952.76;581.561;1.65
810;1925.6;603.29;1.65
811;1945.44;573.748;1.65
812;1989.69;571.795;1.65
813;2011.97;609.149;1.65
814;2019.3;569.842;1.65
815;2009.53;565.935;1.65
816;1975.04;571.795;1.65
817;1943;589.618;1.65
818;1957.65;573.748;1.65
819;1977.49;571.795;1.65
820;1984.81;567.888;1.65
821;1979.93;567.888;1.65
822;1955.21;597.43;1.65
823;1908.21;569.842;1.65
824;1896;561.785;1.66
825;1940.56;611.347;1.66
826;1962.53;575.701;1.66
827;1975.04;571.795;1.66
828;1975.04;571.795;1.66
829;1952.76;583.514;1.66
830;1920.72;587.42;1.66
831;1940.56;589.618;1.66
832;1987.25;561.785;1.66
833;2011.97;587.42;1.66
834;2022.04;591.571;1.66
835;2009.53;548.112;1.66
836;1977.49;577.654;1.66
837;1945.44;579.608;1.66
838;1960.09;587.42;1.66
839;1979.93;571.795;1.67
840;1987.25;561.785;1.67
841;1979.93;571.795;1.67
842;1952.76;595.477;1.67
843;1913.4;563.738;1.67
844;1898.44;563.738;1.67
845;1940.56;613.3;1.67
846;1964.97;577.654;1.67
847;1977.49;569.842;1.67
848;1975.04;571.795;1.67
849;1952.76;581.561;1.67
850;1925.6;593.524;1.67
851;1940.56;585.467;1.67
852;1992.13;563.738;1.67
853;2011.97;591.571;1.67
854;2024.48;585.467;1.67
855;2011.97;550.066;1.67
856;1979.93;575.701;1.68
857;1947.88;583.514;1.68
858;1960.09;585.467;1.68
859;1982.37;573.748;1.68
860;1987.25;557.878;1.68
861;1987.25;573.748;1.68
862;1960.09;591.571;1.68
863;1918.28;561.785;1.68
864;1900.88;567.888;1.68
865;1945.44;603.29;1.68
866;1970.16;575.701;1.68
867;1977.49;567.888;1.68
868;1979.93;571.795;1.68
869;1957.65;579.608;1.68
870;1928.04;595.477;1.68
871;1940.56;581.561;1.68
872;1987.25;563.738;1.68999
873;2016.85;597.43;1.68999
874;2022.04;579.608;1.68999
875;2002.21;555.925;1.68999
876;1964.97;575.701;1.68999
877;1947.88;583.514;1.68999
878;1970.16;583.514;1.68999
879;1987.25;571.795;1.68999
880;1989.69;557.878;1.68999
881;1977.49;577.654;1.68999
882;1943;589.618;1.68999
883;1903.32;555.925;1.68999
884;1913.4;575.701;1.68999
885;1950.32;601.337;1.68999
886;1970.16;577.654;1.68999
887;1982.37;567.888;1.68999
888;1972.6;575.701;1.7
889;1947.88;577.654;1.7
890;1925.6;597.43;1.7
891;1962.53;577.654;1.7
892;2004.65;565.935;1.7
893;2022.04;599.384;1.7
894;2026.93;575.701;1.7
895;2007.09;557.878;1.7
896;1970.16;573.748;1.7
897;1952.76;585.467;1.7
898;1972.6;579.608;1.7
899;1992.13;573.748;1.7
900;1994.88;553.972;1.7
901;1984.81;583.514;1.7
902;1947.88;583.514;1.7
903;1908.21;550.066;1.7
904;1915.84;581.561;1.7
905;1960.09;593.524;1.71
906;1975.04;577.654;1.71
907;1987.25;565.935;1.71
908;1977.49;579.608;1.71
909;1950.32;577.654;1.71
910;1928.04;601.337;1.71
911;1964.97;571.795;1.71
912;2004.65;569.842;1.71
913;2022.04;603.29;1.71
914;2029.37;571.795;1.71
915;2009.53;563.738;1.71
916;1972.6;571.795;1.71
917;1950.32;587.42;1.71
918;1975.04;573.748;1.71
919;1989.69;573.748;1.71
920;1994.88;550.066;1.71
921;1984.81;585.467;1.72
922;1950.32;587.42;1.72
923;1908.21;557.878;1.72
924;1915.84;571.795;1.72
925;1957.65;601.337;1.72
926;1977.49;579.608;1.72
927;1982.37;567.888;1.72
928;1975.04;571.795;1.72
929;1950.32;579.608;1.72
930;1928.04;595.477;1.72
931;1962.53;579.608;1.72
932;2002.21;563.738;1.72
933;2022.04;595.477;1.72
934;2026.93;579.608;1.72
935;2009.53;553.972;1.72
936;1972.6;573.748;1.72
937;1952.76;585.467;1.72
938;1975.04;583.514;1.73
939;1989.69;571.795;1.73
940;1994.88;553.972;1.73
941;1984.81;581.561;1.73
942;1950.32;587.42;1.73
943;1908.21;553.972;1.73
944;1915.84;577.654;1.73
945;1957.65;599.384;1.73
946;1977.49;579.608;1.73
947;1984.81;565.935;1.73
948;1979.93;575.701;1.73
949;1955.21;577.654;1.73
950;1930.49;601.337;1.73
951;1962.53;577.654;1.73
952;2004.65;565.935;1.73
953;2022.04;601.337;1.73
954;2029.37;573.748;1.74
955;2009.53;557.878;1.74
956;1972.6;573.748;1.74
957;1947.88;585.467;1.74
958;1975.04;577.654;1.74
959;1992.13;571.795;1.74
960;1994.88;552.019;1.74
961;1987.25;583.514;1.74
962;1952.76;585.467;1.74
963;1910.65;548.112;1.74
964;1908.21;579.608;1.74
965;1952.76;593.524;1.74
966;1972.6;577.654;1.74
967;1979.93;565.935;1.74
968;1975.04;579.608;1.74
969;1950.32;577.654;1.74
970;1925.6;601.337;1.74
971;1957.65;573.748;1.75
972;2002.21;569.842;1.75
973;2019.3;603.29;1.75
974;2029.37;595.477;1.75
975;2011.97;540.056;1.75
976;1975.04;577.654;1.75
977;1952.76;577.654;1.75
978;1972.6;583.514;1.75
979;1992.13;569.842;1.75
980;1994.88;567.888;1.75
981;1987.25;563.738;1.75
982;1955.21;595.477;1.75
983;1913.4;569.842;1.75
984;1913.4;557.878;1.75
985;1955.21;613.3;1.75
986;1975.04;575.701;1.75
987;1982.37;571.795;1.75
988;1979.93;569.842;1.75999
989;1955.21;583.514;1.75999
990;1928.04;585.467;1.75999
991;1957.65;587.42;1.75999
992;2002.21;553.972;1.75999
993;2024.48;583.514;1.75999
994;2031.81;591.571;1.75999
995;2016.85;544.206;1.75999
996;1979.93;577.654;1.75999
997;1955.21;581.561;1.75999
998;1977.49;585.467;1.75999
999;1997.32;571.795;1.75999
1000;1999.76;559.832;1.75999
1001;1994.88;567.888;1.75999
1002;1962.53;593.524;1.75999
1003;1918.28;563.738;1.75999
1004;1918.28;561.785;1.75999
1005;1960.09;609.149;1.77
1006;1982.37;575.701;1.77
1007;1989.69;569.842;1.77
1008;1987.25;567.888;1.77
1009;1960.09;581.561;1.77
1010;1937.81;587.42;1.77
1011;1962.53;585.467;1.77
1012;2007.09;561.785;1.77
1013;2026.93;587.42;1.77
1014;2034.25;587.42;1.77
1015;2016.85;548.112;1.77
1016;1982.37;575.701;1.77
1017;1960.09;581.561;1.77
1018;1979.93;585.467;1.77
1019;1997.32;571.795;1.77
1020;1999.76;557.878;1.77
1021;1997.32;571.795;1.77
1022;1962.53;593.524;1.78
1023;1918.28;559.832;1.78
1024;1913.4;565.935;1.78
1025;1957.65;605.243;1.78
1026;1975.04;575.701;1.78
1027;1989.69;565.935;1.78
1028;1982.37;569.842;1.78
1029;1957.65;579.608;1.78
1030;1932.93;593.524;1.78
1031;1957.65;581.561;1.78
1032;2004.65;563.738;1.78
1033;2022.04;593.524;1.78
1034;2031.81;581.561;1.78
1035;2014.41;552.019;1.78
1036;1979.93;575.701;1.78
1037;1955.21;583.514;1.78
1038;1975.04;583.514;1.78
1039;1997.32;569.842;1.78
1040;1999.76;557.878;1.79
1041;1994.88;575.701;1.79
1042;1960.09;585.467;1.79
1043;1918.28;555.925;1.79
1044;1913.4;573.748;1.79
1045;1957.65;603.29;1.79
1046;1977.49;575.701;1.79
1047;1989.69;567.888;1.79
1048;1984.81;571.795;1.79
1049;1964.97;579.608;1.79
1050;1935.37;595.477;1.79
1051;1962.53;577.654;1.79
1052;2009.53;565.935;1.79
1053;2026.93;597.43;1.79
1054;2034.25;577.654;1.79
1055;2022.04;557.878;1.79
1056;1984.81;575.701;1.79
1057;1957.65;585.467;1.79
1058;1977.49;583.514;1.8
1059;1997.32;571.795;1.8
1060;2002.21;552.019;1.8
1061;1994.88;579.608;1.8
1062;1962.53;585.467;1.8
1063;1918.28;550.066;1.8
1064;1915.84;577.654;1.8
1065;1955.21;597.43;1.8
1066;1977.49;575.701;1.8
1067;1987.25;565.935;1.8
1068;1984.81;573.748;1.8
1069;1962.53;577.654;1.8
1070;1932.93;599.384;1.8
1071;1960.09;573.748;1.8
1072;2004.65;567.888;1.8
1073;2026.93;601.337;1.8
1074;2034.25;571.795;1.8
1075;2022.04;561.785;1.8
1076;1987.25;571.795;1.8
1077;1957.65;585.467;1.81
1078;1984.81;585.467;1.81
1079;1997.32;567.888;1.81
1080;2002.21;567.888;1.81
1081;1992.13;561.785;1.81
1082;1955.21;595.477;1.81
1083;1915.84;571.795;1.81
1084;1920.72;555.925;1.81
1085;1962.53;615.253;1.81
1086;1979.93;575.701;1.81
1087;1987.25;573.748;1.81
1088;1982.37;567.888;1.81
1089;1952.76;581.561;1.81
1090;1932.93;583.514;1.81
1091;1967.72;587.42;1.81
1092;2011.97;553.972;1.81
1093;2026.93;579.608;1.81
1094;2036.69;595.477;1.82
1095;2014.41;542.009;1.82
1096;1977.49;571.795;1.82
1097;1955.21;577.654;1.82
1098;1979.93;583.514;1.82
1099;1999.76;567.888;1.82
1100;2002.21;563.738;1.82
1101;1992.13;563.738;1.82
1102;1957.65;593.524;1.82
1103;1915.84;567.888;1.82
1104;1920.72;553.972;1.82
1105;1962.53;611.347;1.82
1106;1982.37;573.748;1.82
1107;1989.69;569.842;1.82
1108;1984.81;563.738;1.82
1109;1960.09;579.608;1.82
1110;1935.37;585.467;1.82
1111;1967.72;587.42;1.83
1112;2007.09;557.878;1.83
1113;2029.37;587.42;1.83
1114;2036.69;591.571;1.83
1115;2022.04;544.206;1.83
1116;1979.93;573.748;1.83
1117;1960.09;579.608;1.83
1118;1982.37;583.514;1.83
1119;2002.21;567.888;1.83
1120;2004.65;559.832;1.83
1121;1997.32;567.888;1.83
1122;1962.53;591.571;1.83
1123;1923.16;563.738;1.83
1124;1923.16;561.785;1.83
1125;1967.72;607.196;1.83
1126;1987.25;575.701;1.83
1127;1994.88;567.888;1.83
1128;1989.69;567.888;1.83
1129;1964.97;579.608;1.84
1130;1937.81;591.571;1.84
1131;1970.16;583.514;1.84
1132;2016.85;561.785;1.84
1133;2036.69;591.571;1.84
1134;2046.46;585.467;1.84
1135;2026.93;548.112;1.84
1136;1987.25;571.795;1.84
1137;1964.97;581.561;1.84
1138;1984.81;583.514;1.84
1139;2007.09;569.842;1.84
1140;2011.97;555.925;1.84
1141;2004.65;571.795;1.84
1142;1970.16;589.618;1.84
1143;1925.6;559.832;1.84
1144;1925.6;567.888;1.84
1145;1970.16;603.29;1.84
1146;1989.69;573.748;1.85
1147;1997.32;567.888;1.85
1148;1992.13;565.935;1.85
1149;1967.72;581.561;1.85
1150;1945.44;593.524;1.85
1151;1975.04;579.608;1.85
1152;2019.3;561.785;1.85
1153;2036.69;593.524;1.85
1154;2049.2;579.608;1.85
1155;2029.37;553.972;1.85
1156;1994.88;573.748;1.85
1157;1970.16;581.561;1.85
1158;1992.13;583.514;1.85
1159;2007.09;571.795;1.85
1160;2011.97;552.019;1.85
1161;2004.65;573.748;1.85
1162;1972.6;589.618;1.85
1163;1925.6;553.972;1.86
1164;1928.04;569.842;1.86
1165;1972.6;599.384;1.86
1166;1992.13;575.701;1.86
1167;2004.65;563.738;1.86
1168;1997.32;569.842;1.86
1169;1972.6;577.654;1.86
1170;1945.44;597.43;1.86
1171;1977.49;573.748;1.86
1172;2019.3;563.738;1.86
1173;2039.13;599.384;1.86
1174;2046.46;575.701;1.86
1175;2031.81;557.878;1.86
1176;1997.32;571.795;1.86
1177;1970.16;583.514;1.86
1178;1992.13;579.608;1.86
1179;2009.53;571.795;1.87
1180;2014.41;552.019;1.87
1181;2007.09;579.608;1.87
1182;1977.49;591.571;1.87
1183;1932.93;563.738;1.87
1184;1928.04;561.785;1.87
1185;1970.16;605.243;1.87
1186;1992.13;575.701;1.87
1187;2002.21;567.888;1.87
1188;1994.88;567.888;1.87
1189;1972.6;577.654;1.87
1190;1945.44;589.618;1.87
1191;1975.04;581.561;1.87
1192;2022.04;559.832;1.87
1193;2039.13;589.618;1.87
1194;2051.65;583.514;1.87
1195;2036.69;552.019;1.87
1196;1999.76;575.701;1.88
1197;1972.6;581.561;1.88
1198;1992.13;581.561;1.88
1199;2011.97;569.842;1.88
1200;2014.41;553.972;1.88
1201;2011.97;573.748;1.88
1202;1977.49;589.618;1.88
1203;1935.37;555.925;1.88
1204;1930.49;567.888;1.88
1205;1972.6;603.29;1.88
1206;1999.76;575.701;1.88
1207;2007.09;567.888;1.88
1208;2002.21;565.935;1.88
1209;1979.93;577.654;1.88
1210;1952.76;593.524;1.88
1211;1979.93;579.608;1.88
1212;2024.48;561.785;1.89
1213;2044.02;595.477;1.89
1214;2054.09;579.608;1.89
1215;2039.13;552.019;1.89
1216;2002.21;571.795;1.89
1217;1975.04;583.514;1.89
1218;1994.88;583.514;1.89
1219;2016.85;569.842;1.89
1220;2019.3;552.019;1.89
1221;2014.41;577.654;1.89
1222;1984.81;585.467;1.89
1223;1940.56;553.972;1.89
1224;1932.93;571.795;1.89
1225;1977.49;597.43;1.89
1226;1999.76;575.701;1.89
1227;2009.53;565.935;1.89
1228;2007.09;571.795;1.89
1229;1979.93;577.654;1.9
1230;1952.76;595.477;1.9
1231;1977.49;573.748;1.9
1232;2022.04;563.738;1.9
1233;2046.46;599.384;1.9
1234;2056.53;599.384;1.9
1235;2041.57;536.149;1.9
1236;2004.65;571.795;1.9
1237;1977.49;571.795;1.9
1238;1994.88;583.514;1.9
1239;2014.41;567.888;1.9
1240;2016.85;567.888;1.9
1241;2011.97;559.832;1.9
1242;1982.37;599.384;1.9
1243;1940.56;571.795;1.9
1244;1930.49;550.066;1.91
1245;1970.16;615.253;1.91
1246;1997.32;573.748;1.91
1247;2004.65;571.795;1.91
1248;2004.65;565.935;1.91
1249;1977.49;581.561;1.91
1250;1947.88;581.561;1.91
1251;1972.6;591.571;1.91
1252;2022.04;552.019;1.91
1253;2044.02;577.654;1.91
1254;2054.09;595.477;1.91
1255;2041.57;540.056;1.91
1256;2009.53;573.748;1.91
1257;1977.49;573.748;1.91
1258;1994.88;585.467;1.91
1259;2016.85;567.888;1.91
1260;2019.3;563.738;1.92
1261;2014.41;563.738;1.92
1262;1987.25;597.43;1.92
1263;1945.44;567.888;1.92
1264;1932.93;553.972;1.92
1265;1975.04;609.149;1.92
1266;1999.76;573.748;1.92
1267;2007.09;569.842;1.92
1268;2007.09;563.738;1.92
1269;1982.37;579.608;1.92
1270;1955.21;583.514;1.92
1271;1977.49;585.467;1.92
1272;2029.37;553.972;1.92
1273;2051.65;581.561;1.92
1274;2061.41;593.524;1.92
1275;2049.2;544.206;1.92
1276;2014.41;573.748;1.93
1277;1982.37;575.701;1.93
1278;1999.76;583.514;1.93
1279;2022.04;569.842;1.93
1280;2026.93;561.785;1.93
1281;2022.04;565.935;1.93
1282;1994.88;593.524;1.93
1283;1950.32;563.738;1.93
1284;1937.81;559.832;1.93
1285;1982.37;607.196;1.93
1286;2004.65;573.748;1.93
1287;2016.85;569.842;1.93
1288;2014.41;567.888;1.93
1289;1992.13;577.654;1.93
1290;1962.53;587.42;1.93
1291;1979.93;585.467;1.93
1292;2029.37;557.878;1.93999
1293;2054.09;585.467;1.93999
1294;2066.29;587.42;1.93999
1295;2054.09;546.159;1.93999
1296;2016.85;571.795;1.93999
1297;1987.25;579.608;1.93999
1298;2004.65;583.514;1.93999
1299;2024.48;571.795;1.93999
1300;2029.37;555.925;1.93999
1301;2024.48;569.842;1.93999
1302;1997.32;589.618;1.93999
1303;1950.32;559.832;1.93999
1304;1937.81;563.738;1.93999
1305;1979.93;601.337;1.93999
1306;2004.65;573.748;1.93999
1307;2016.85;567.888;1.93999
1308;2016.85;565.935;1.95
1309;1992.13;577.654;1.95
1310;1964.97;593.524;1.95
1311;1982.37;579.608;1.95
1312;2031.81;559.832;1.95
1313;2056.53;591.571;1.95
1314;2066.29;581.561;1.95
1315;2056.53;548.112;1.95
1316;2022.04;571.795;1.95
1317;1989.69;583.514;1.95
1318;2004.65;583.514;1.95
1319;2026.93;571.795;1.95
1320;2034.25;553.972;1.95
1321;2029.37;575.701;1.95
1322;2002.21;587.42;1.95
1323;1957.65;550.066;1.95
1324;1943;567.888;1.96
1325;1984.81;599.384;1.96
1326;2011.97;575.701;1.96
1327;2022.04;565.935;1.96
1328;2022.04;567.888;1.96
1329;2002.21;577.654;1.96
1330;1972.6;593.524;1.96
1331;1987.25;575.701;1.96
1332;2036.69;563.738;1.96
1333;2058.97;593.524;1.96
1334;2068.74;575.701;1.96
1335;2058.97;552.019;1.96
1336;2024.48;571.795;1.96
1337;1994.88;583.514;1.96
1338;2007.09;583.514;1.96
1339;2031.81;563.738;1.97
1340;2036.69;569.842;1.97
1341;2034.25;555.925;1.97
1342;2007.09;599.384;1.97
1343;1960.09;573.748;1.97
1344;1943;548.112;1.97
1345;1987.25;615.253;1.97
1346;2014.41;575.701;1.97
1347;2022.04;573.748;1.97
1348;2024.48;565.935;1.97
1349;2002.21;583.514;1.97
1350;1972.6;575.701;1.97
1351;1984.81;593.524;1.97
1352;2036.69;550.066;1.97
1353;2061.41;577.654;1.97
1354;2071.18;599.384;1.98
1355;2063.85;534.196;1.98
1356;2029.37;571.795;1.98
1357;1994.88;573.748;1.98
1358;2007.09;581.561;1.98
1359;2031.81;567.888;1.98
1360;2036.69;563.738;1.98
1361;2036.69;557.878;1.98
1362;2007.09;595.477;1.98
1363;1964.97;569.842;1.98
1364;1947.88;553.972;1.98
1365;1984.81;613.3;1.98
1366;2014.41;573.748;1.98
1367;2026.93;569.842;1.98
1368;2026.93;565.935;1.98
1369;2007.09;579.608;1.98
1370;1972.6;581.561;1.99
1371;1984.81;589.618;1.99
1372;2036.69;552.019;1.99
1373;2061.41;579.608;1.99
1374;2071.18;593.524;1.99
1375;2063.85;540.056;1.99
1376;2026.93;573.748;1.99
1377;1992.13;575.701;1.99
1378;2007.09;583.514;1.99
1379;2031.81;567.888;1.99
1380;2036.69;561.785;1.99
1381;2036.69;563.738;1.99
1382;2007.09;593.524;1.99
1383;1967.72;565.935;1.99
1384;1943;553.972;1.99
1385;1987.25;609.149;1.99
1386;2014.41;571.795;2
1387;2026.93;569.842;2
1388;2026.93;567.888;2
1389;2007.09;579.608;2
1390;1977.49;583.514;2
1391;1987.25;585.467;2
1392;2036.69;553.972;2
1393;2066.29;583.514;2
1394;2076.36;589.618;2
1395;2068.74;542.009;2
1396;2034.25;573.748;2
1397;1999.76;577.654;2
1398;2007.09;581.561;2
1399;2036.69;567.888;2
1400;2041.57;555.925;2
1401;2041.57;565.935;2.00999
1402;2011.97;591.571;2.00999
1403;1970.16;561.785;2.00999
1404;1952.76;561.785;2.00999
1405;1989.69;605.243;2.00999
1406;2016.85;573.748;2.00999
1407;2029.37;567.888;2.00999
1408;2029.37;563.738;2.00999
1409;2009.53;577.654;2.00999
1410;1977.49;589.618;2.00999
1411;1987.25;583.514;2.00999
1412;2039.13;561.785;2.00999
1413;2063.85;587.42;2.00999
1414;2078.81;583.514;2.00999
1415;2068.74;548.112;2.00999
1416;2036.69;573.748;2.00999
1417;2004.65;579.608;2.02
1418;2007.09;579.608;2.02
1419;2036.69;569.842;2.02
1420;2044.02;553.972;2.02
1421;2041.57;571.795;2.02
1422;2016.85;585.467;2.02
1423;1975.04;557.878;2.02
1424;1952.76;565.935;2.02
1425;1989.69;601.337;2.02
1426;2019.3;571.795;2.02
1427;2031.81;563.738;2.02
1428;2031.81;563.738;2.02
1429;2011.97;575.701;2.02
1430;1979.93;589.618;2.02
1431;1989.69;575.701;2.02
1432;2041.57;561.785;2.02
1433;2066.29;593.524;2.03
1434;2081.25;579.608;2.03
1435;2073.62;552.019;2.03
1436;2041.57;569.842;2.03
1437;2007.09;579.608;2.03
1438;2011.97;581.561;2.03
1439;2039.13;571.795;2.03
1440;2046.46;552.019;2.03
1441;2046.46;573.748;2.03
1442;2022.04;587.42;2.03
1443;1977.49;563.738;2.03
1444;1952.76;557.878;2.03
1445;1992.13;609.149;2.03
1446;2024.48;573.748;2.03
1447;2034.25;569.842;2.03
1448;2036.69;565.935;2.03
1449;2019.3;579.608;2.04
1450;1987.25;585.467;2.04
1451;1992.13;585.467;2.04
1452;2044.02;553.972;2.04
1453;2068.74;585.467;2.04
1454;2081.25;587.42;2.04
1455;2071.18;546.159;2.04
1456;2041.57;573.748;2.04
1457;2007.09;577.654;2.04
1458;2011.97;581.561;2.04
1459;2041.57;567.888;2.04
1460;2049.2;555.925;2.04
1461;2049.2;565.935;2.04
1462;2026.93;591.571;2.04
1463;1984.81;561.785;2.04
1464;1957.65;559.832;2.04
1465;1992.13;603.29;2.05
1466;2024.48;573.748;2.05
1467;2036.69;565.935;2.05
1468;2039.13;567.888;2.05
1469;2019.3;575.701;2.05
1470;1989.69;589.618;2.05
1471;1992.13;581.561;2.05
1472;2046.46;557.878;2.05
1473;2071.18;589.618;2.05
1474;2086.13;583.514;2.05
1475;2081.25;546.159;2.05
1476;2054.09;571.795;2.05
1477;2014.41;579.608;2.05
1478;2019.3;581.561;2.05
1479;2049.2;567.888;2.05
1480;2054.09;553.972;2.05
1481;2054.09;571.795;2.06
1482;2031.81;585.467;2.06
1483;1989.69;553.972;2.06
1484;1962.53;567.888;2.06
1485;1997.32;601.337;2.06
1486;2029.37;571.795;2.06
1487;2044.02;563.738;2.06
1488;2044.02;565.935;2.06
1489;2016.85;577.654;2.06
1490;1989.69;593.524;2.06
1491;2022.04;575.701;2.06
1492;2066.29;561.785;2.06
1493;2086.13;593.524;2.06
1494;2095.9;575.701;2.06
1495;2078.81;536.149;2.06
1496;2041.57;571.795;2.06
1497;2014.41;567.888;2.07
1498;2036.69;581.561;2.07
1499;2054.09;563.738;2.07
1500;2061.41;569.842;2.07
1501;2056.53;553.972;2.07
1502;2022.04;603.29;2.07
1503;1977.49;571.795;2.07
1504;1972.6;546.159;2.07
1505;2019.3;611.347;2.07
1506;2041.57;575.701;2.07
1507;2054.09;575.701;2.07
1508;2049.2;563.738;2.07
1509;2024.48;579.608;2.07
1510;1994.88;577.654;2.07
1511;2024.48;593.524;2.08
1512;2071.18;548.112;2.08
1513;2091.01;573.748;2.08
1514;2100.78;597.43;2.08
1515;2086.13;536.149;2.08
1516;2046.46;571.795;2.08
1517;2019.3;567.888;2.08
1518;2039.13;581.561;2.08
1519;2063.85;563.738;2.08
1520;2066.29;565.935;2.08
1521;2058.97;557.878;2.08
1522;2024.48;599.384;2.08
1523;1979.93;571.795;2.08
1524;1975.04;550.066;2.08
1525;2022.04;613.3;2.08
1526;2046.46;571.795;2.09
1527;2054.09;571.795;2.09
1528;2051.65;561.785;2.09
1529;2024.48;577.654;2.09
1530;1997.32;579.608;2.09
1531;2024.48;589.618;2.09
1532;2071.18;550.066;2.09
1533;2091.01;577.654;2.09
1534;2103.53;593.524;2.09
1535;2088.57;538.102;2.09
1536;2054.09;573.748;2.09
1537;2024.48;575.701;2.09
1538;2041.57;579.608;2.09
1539;2066.29;565.935;2.09
1540;2068.74;561.785;2.1
1541;2061.41;559.832;2.1
1542;2029.37;595.477;2.1
1543;1987.25;565.935;2.1
1544;1977.49;553.972;2.1
1545;2026.93;611.347;2.1
1546;2051.65;573.748;2.1
1547;2061.41;571.795;2.1
1548;2056.53;563.738;2.1
1549;2031.81;579.608;2.1
1550;1999.76;583.514;2.1
1551;2026.93;585.467;2.1
1552;2073.62;553.972;2.1
1553;2095.9;581.561;2.1
1554;2103.53;589.618;2.1
1555;2088.57;542.009;2.11
1556;2054.09;571.795;2.11
1557;2024.48;575.701;2.11
1558;2041.57;581.561;2.11
1559;2063.85;567.888;2.11
1560;2066.29;557.878;2.11
1561;2063.85;565.935;2.11
1562;2031.81;589.618;2.11
1563;1987.25;561.785;2.11
1564;1975.04;557.878;2.11
1565;2019.3;607.196;2.11
1566;2044.02;571.795;2.11
1567;2054.09;565.935;2.11
1568;2049.2;567.888;2.11
1569;2024.48;577.654;2.12
1570;1999.76;585.467;2.12
1571;2022.04;581.561;2.12
1572;2071.18;555.925;2.12
1573;2088.57;585.467;2.12
1574;2103.53;583.514;2.12
1575;2091.01;544.206;2.12
1576;2054.09;571.795;2.12
1577;2022.04;577.654;2.12
1578;2039.13;577.654;2.12
1579;2063.85;567.888;2.12
1580;2068.74;552.019;2.12
1581;2063.85;567.888;2.12
1582;2031.81;587.42;2.12
1583;1989.69;557.878;2.13
1584;1977.49;563.738;2.13
1585;2022.04;603.29;2.13
1586;2046.46;571.795;2.13
1587;2056.53;565.935;2.13
1588;2054.09;563.738;2.13
1589;2026.93;577.654;2.13
1590;1997.32;589.618;2.13
1591;2022.04;577.654;2.13
1592;2071.18;555.925;2.13
1593;2095.9;589.618;2.13
1594;2103.53;577.654;2.13
1595;2093.46;548.112;2.13
1596;2058.97;571.795;2.13
1597;2024.48;581.561;2.14
1598;2041.57;579.608;2.14
1599;2066.29;561.785;2.14
1600;2071.18;569.842;2.14
1601;2068.74;552.019;2.14
1602;2036.69;597.43;2.14
1603;1989.69;573.748;2.14
1604;1977.49;544.206;2.14
1605;2024.48;609.149;2.14
1606;2049.2;575.701;2.14
1607;2061.41;575.701;2.14
1608;2056.53;561.785;2.14
1609;2034.25;581.561;2.14
1610;2004.65;573.748;2.15
1611;2024.48;593.524;2.15
1612;2073.62;546.159;2.15
1613;2098.34;569.842;2.15
1614;2108.41;599.384;2.15
1615;2093.46;534.196;2.15
1616;2058.97;569.842;2.15
1617;2024.48;569.842;2.15
1618;2039.13;583.514;2.15
1619;2066.29;561.785;2.15
1620;2073.62;567.888;2.15
1621;2066.29;553.972;2.15
1622;2039.13;599.384;2.15
1623;1997.32;569.842;2.15
1624;1979.93;544.206;2.16
1625;2024.48;613.3;2.16
1626;2051.65;571.795;2.16
1627;2058.97;571.795;2.16
1628;2058.97;561.785;2.16
1629;2036.69;579.608;2.16
1630;2004.65;575.701;2.16
1631;2024.48;589.618;2.16
1632;2071.18;548.112;2.16
1633;2098.34;575.701;2.16
1634;2108.41;595.477;2.16
1635;2095.9;534.196;2.16
1636;2061.41;573.748;2.16
1637;2026.93;571.795;2.16
1638;2044.02;581.561;2.17
1639;2068.74;565.935;2.17
1640;2073.62;561.785;2.17
1641;2071.18;557.878;2.17
1642;2044.02;597.43;2.17
1643;1999.76;567.888;2.17
1644;1982.37;550.066;2.17
1645;2026.93;611.347;2.17
1646;2051.65;571.795;2.17
1647;2066.29;567.888;2.17
1648;2063.85;563.738;2.17
1649;2039.13;579.608;2.17
1650;2009.53;577.654;2.17
1651;2026.93;587.42;2.18
1652;2078.81;550.066;2.18
1653;2103.53;575.701;2.18
1654;2113.29;591.571;2.18
1655;2105.97;534.196;2.18
1656;2068.74;571.795;2.18
1657;2034.25;575.701;2.18
1658;2049.2;579.608;2.18
1659;2076.36;565.935;2.18
1660;2081.25;559.832;2.18
1661;2078.81;561.785;2.18
1662;2049.2;593.524;2.18
1663;2004.65;561.785;2.18
1664;1984.81;552.019;2.18
1665;2026.93;607.196;2.18999
1666;2056.53;569.842;2.18999
