<WeldAnalyseData xmlns:i="http:www.w3.org/2001/XMLSchema-instance">
<WeldParameter>
<TimeStamp>DT#2024-01-25-09:48:40</TimeStamp>
<Generator>SG-22-10000</Generator>
<GenFreq>20</GenFreq>
<MaxForce>8000</MaxForce>
<MaxPower>10000</MaxPower>
<RunupPressure>1.5</RunupPressure>
<RunupDist>10</RunupDist>
<RunPress>0.8</RunPress>
<ShakeDelay>0.03</ShakeDelay>
<ShakeTime>0.3</ShakeTime>
<RunBackPress1>6</RunBackPress1>
<RunBackPress2>2</RunBackPress2>
<RunBackDist>1</RunBackDist>
<TrigValue>500</TrigValue>
<TrigModeUnit>W</TrigModeUnit>
<WeldModeUnit>Ws</WeldModeUnit>
<PressNr>0</PressNr>
<MaxLoss>1500</MaxLoss>
</WeldParameter>
<WeldSets>
<WeldSet>
<PressRiseTime>0</PressRiseTime>
<RunPressure>1</RunPressure>
<Amplitude>86</Amplitude>
<WeldMode>3270</WeldMode>
</WeldSet>
</WeldSets>
<WeldValue>
<WeldNr>2989</WeldNr>
<RecipeName>RickStyle</RecipeName>
<WeldTime>1694</WeldTime>
<DistDiff>2.57</DistDiff>
<DistAbs>78.25</DistAbs>
<Energy>3271.63</Energy>
<MaxPower>2140.74</MaxPower>
<CycleTime>6030</CycleTime>
<TrigForce>500.748</TrigForce>
<TrigDist>75.68</TrigDist>
<RunSpeed>68.1188</RunSpeed>
<MaxForce>619.16</MaxForce>
<LossPower>325.766</LossPower>
</WeldValue>
</WeldAnalyseData>
#CSV-START#
ms;Power[W];Force[N];Distance[mm]
1;0;0;0
2;0;502.701;0
3;0;502.701;0
4;0;502.701;0
5;0;504.654;0
6;0;504.654;0
7;0;504.654;0
8;0;484.878;0.0100021
9;0;429.456;0.0199966
10;0;413.831;0.0400009
11;0;378.185;0.0699997
12;14.8206;360.363;0.0999985
13;71.585;336.68;0.139999
14;145.745;336.68;0.18
15;227.229;299.326;0.220001
16;286.435;295.419;0.269997
17;340.758;301.279;0.32
18;397.523;263.68;0.370003
19;454.287;273.69;0.419998
20;506.169;277.596;0.470001
21;558.05;293.222;0.510002
22;622.139;283.456;0.550003
23;686.533;295.419;0.589996
24;748.18;285.409;0.620003
25;812.269;330.821;0.639999
26;859.268;324.961;0.669998
27;893.754;307.138;0.690002
28;948.077;364.513;0.699997
29;1014.91;362.56;0.720001
30;1064.05;374.279;0.730003
31;1108.6;370.373;0.739998
32;1140.65;392.102;0.739998
33;1160.49;394.055;0.75
34;1177.88;419.691;0.75
35;1227.02;380.139;0.760002
36;1274.01;401.868;0.769997
37;1308.5;435.56;0.769997
38;1343.29;388.195;0.779999
39;1355.5;409.925;0.779999
40;1353.06;409.925;0.790001
41;1360.38;425.55;0.790001
42;1400.06;411.878;0.800003
43;1427.22;419.691;0.800003
44;1454.38;401.868;0.809998
45;1469.03;445.326;0.82
46;1464.14;425.55;0.82
47;1456.82;396.008;0.830002
48;1483.98;453.383;0.830002
49;1538.3;431.654;0.839996
50;1575.23;433.607;0.849998
51;1602.39;419.691;0.860001
52;1619.79;443.373;0.860001
53;1617.35;437.513;0.870003
54;1619.79;457.289;0.879997
55;1674.11;413.831;0.879997
56;1728.43;437.513;0.889999
57;1760.48;470.962;0.900002
58;1785.2;435.56;0.909996
59;1785.2;433.607;0.909996
60;1765.36;443.373;0.919998
61;1762.92;459.243;0.919998
62;1797.41;449.232;0.93
63;1829.76;453.383;0.940002
64;1846.85;433.607;0.940002
65;1851.73;469.008;0.949997
66;1827.01;469.008;0.949997
67;1799.85;437.513;0.959999
68;1841.96;477.065;0.959999
69;1886.52;482.925;0.970001
70;1906.05;475.112;0.970001
71;1921.01;461.196;0.970001
72;1916.12;482.925;0.980003
73;1896.29;477.065;0.980003
74;1903.61;502.701;0.989998
75;1960.38;469.008;0.989998
76;2002.49;472.915;1
77;2024.77;512.467;1
78;2027.21;469.008;1.01
79;2002.49;472.915;1.01
80;1970.45;479.019;1.01
81;1975.33;496.597;1.02
82;2007.37;479.019;1.02
83;2024.77;490.738;1.03
84;2032.09;465.102;1.03
85;2014.7;504.654;1.04
86;1975.33;498.795;1.04
87;1950.61;465.102;1.04
88;1985.1;510.514;1.05
89;2024.77;504.654;1.05
90;2044.3;504.654;1.06
91;2051.93;486.831;1.06
92;2036.98;510.514;1.07
93;2009.82;502.701;1.07
94;2009.82;530.29;1.07
95;2064.14;490.738;1.08
96;2101.37;502.701;1.08
97;2120.9;542.009;1.08
98;2118.46;486.831;1.09
99;2088.86;496.597;1.09
100;2051.93;502.701;1.09
101;2049.49;520.524;1.1
102;2079.09;498.795;1.1
103;2091.3;508.56;1.1
104;2091.3;482.925;1.11
105;2074.21;528.336;1.11
106;2024.77;516.373;1.11
107;1995.17;479.019;1.12
108;2029.65;532.243;1.12
109;2064.14;520.524;1.13
110;2081.53;520.524;1.13
111;2081.53;502.701;1.13
112;2064.14;524.43;1.13
113;2034.54;514.42;1.14
114;2032.09;540.056;1.14
115;2083.98;498.795;1.14
116;2113.58;510.514;1.15
117;2133.42;548.112;1.15
118;2130.97;492.691;1.15
119;2096.18;508.56;1.16
120;2056.81;512.467;1.16
121;2049.49;528.336;1.16
122;2079.09;508.56;1.16
123;2088.86;520.524;1.17
124;2091.3;496.597;1.17
125;2066.58;546.159;1.17
126;2019.89;524.43;1.17
127;1985.1;488.784;1.18
128;2017.14;550.066;1.18
129;2051.93;528.336;1.18
130;2066.58;530.29;1.18
131;2069.02;514.42;1.19
132;2054.37;536.149;1.19
133;2019.89;524.43;1.19
134;2017.14;552.019;1.19
135;2066.58;502.701;1.2
136;2098.62;524.43;1.2
137;2116.02;559.832;1.2
138;2111.14;498.795;1.2
139;2079.09;522.477;1.21
140;2039.42;522.477;1.21
141;2034.54;538.102;1.21
142;2061.7;516.373;1.21
143;2069.02;528.336;1.21
144;2069.02;506.607;1.22
145;2047.05;557.878;1.22
146;2000.05;534.196;1.22
147;1970.45;498.795;1.22
148;2000.05;561.785;1.23
149;2036.98;534.196;1.23
150;2051.93;534.196;1.23
151;2056.81;522.477;1.23
152;2036.98;544.206;1.23
153;2002.49;532.243;1.24
154;1997.61;557.878;1.24
155;2047.05;508.56;1.24
156;2076.65;530.29;1.24
157;2093.74;563.738;1.24
158;2088.86;500.748;1.25
159;2059.26;532.243;1.25
160;2019.89;528.336;1.25
161;2012.26;546.159;1.25
162;2039.42;522.477;1.25
163;2047.05;536.149;1.26
164;2047.05;510.514;1.26
165;2024.77;557.878;1.26
166;1980.21;540.056;1.26
167;1940.84;506.607;1.26
168;1972.89;561.785;1.27
169;2004.93;542.009;1.27
170;2022.33;542.009;1.27
171;2024.77;528.336;1.27
172;2009.82;552.019;1.27
173;1977.77;540.056;1.28
174;1970.45;565.935;1.28
175;2019.89;522.477;1.28
176;2049.49;538.102;1.28
177;2064.14;575.701;1.28
178;2061.7;516.373;1.28
179;2029.65;536.149;1.29
180;1989.98;534.196;1.29
181;1985.1;553.972;1.29
182;2012.26;530.29;1.29
183;2019.89;542.009;1.29
184;2017.14;520.524;1.3
185;1997.61;571.795;1.3
186;1953.05;546.159;1.3
187;1921.01;510.514;1.3
188;1945.73;573.748;1.3
189;1982.65;548.112;1.3
190;1995.17;550.066;1.31
191;2000.05;532.243;1.31
192;1985.1;555.925;1.31
193;1953.05;544.206;1.31
194;1945.73;571.795;1.31
195;1995.17;520.524;1.31
196;2027.21;544.206;1.32
197;2041.86;577.654;1.32
198;2041.86;516.373;1.32
199;2012.26;542.009;1.32
200;1972.89;542.009;1.32
201;1965.56;557.878;1.32
202;1989.98;536.149;1.33
203;2002.49;548.112;1.33
204;2000.05;526.383;1.33
205;1980.21;579.608;1.33
206;1938.4;552.019;1.33
207;1901.17;518.326;1.33
208;1930.77;583.514;1.34
209;1962.82;550.066;1.34
210;1980.21;553.972;1.34
211;1985.1;542.009;1.34
212;1972.89;559.832;1.34
213;1938.4;552.019;1.34
214;1930.77;579.608;1.35
215;1982.65;546.159;1.35
216;2012.26;544.206;1.35
217;2029.65;579.608;1.35
218;2027.21;542.009;1.35
219;2000.05;538.102;1.35
220;1965.56;548.112;1.35
221;1953.05;561.785;1.36
222;1977.77;548.112;1.36
223;1989.98;550.066;1.36
224;1987.54;528.336;1.36
225;1970.45;565.935;1.36
226;1928.33;559.832;1.36
227;1891.4;522.477;1.37
228;1918.57;569.842;1.37
229;1950.61;563.738;1.37
230;1968.01;555.925;1.37
231;1975.33;544.206;1.37
232;1957.93;565.935;1.37
233;1928.33;553.972;1.37
234;1921.01;579.608;1.37
235;1968.01;546.159;1.38
236;2000.05;550.066;1.38
237;2014.7;587.42;1.38
238;2014.7;540.056;1.38
239;1982.65;546.159;1.38
240;1948.17;548.112;1.38
241;1935.66;567.888;1.38
242;1962.82;546.159;1.39
243;1972.89;555.925;1.39
244;1975.33;530.29;1.39
245;1955.49;571.795;1.39
246;1913.68;561.785;1.39
247;1878.89;526.383;1.39
248;1901.17;577.654;1.39
249;1935.66;565.935;1.4
250;1950.61;561.785;1.4
251;1955.49;546.159;1.4
252;1940.84;571.795;1.4
253;1916.12;559.832;1.4
254;1903.61;585.467;1.4
255;1950.61;546.159;1.4
256;1982.65;553.972;1.4
257;1997.61;589.618;1.41
258;1997.61;536.149;1.41
259;1972.89;552.019;1.41
260;1935.66;553.972;1.41
261;1923.45;571.795;1.41
262;1950.61;548.112;1.41
263;1960.38;557.878;1.41
264;1962.82;536.149;1.41
265;1943.29;581.561;1.42
266;1896.29;563.738;1.42
267;1866.68;530.29;1.42
268;1898.73;585.467;1.42
269;1930.77;567.888;1.42
270;1945.73;567.888;1.42
271;1950.61;550.066;1.42
272;1930.77;573.748;1.42
273;1906.05;563.738;1.43
274;1903.61;589.618;1.43
275;1953.05;544.206;1.43
276;1982.65;561.785;1.43
277;1995.17;597.43;1.43
278;1989.98;536.149;1.43
279;1957.93;557.878;1.43
280;1925.89;555.925;1.43
281;1923.45;577.654;1.44
282;1948.17;552.019;1.44
283;1957.93;561.785;1.44
284;1955.49;540.056;1.44
285;1935.66;593.524;1.44
286;1893.85;569.842;1.44
287;1866.68;534.196;1.44
288;1896.29;595.477;1.44
289;1928.33;571.795;1.44
290;1940.84;571.795;1.45
291;1943.29;553.972;1.45
292;1928.33;577.654;1.45
293;1898.73;565.935;1.45
294;1898.73;593.524;1.45
295;1948.17;544.206;1.45
296;1975.33;567.888;1.45
297;1989.98;601.337;1.45
298;1987.54;540.056;1.45
299;1955.49;563.738;1.46
300;1921.01;563.738;1.46
301;1918.57;579.608;1.46
302;1943.29;559.832;1.46
303;1950.61;569.842;1.46
304;1950.61;548.112;1.46
305;1928.33;599.384;1.46
306;1888.96;573.748;1.46
307;1859.36;542.009;1.47
308;1893.85;603.29;1.47
309;1918.57;573.748;1.47
310;1933.21;575.701;1.47
311;1938.4;561.785;1.47
312;1923.45;581.561;1.47
313;1896.29;573.748;1.47
314;1893.85;595.477;1.47
315;1943.29;548.112;1.47
316;1972.89;569.842;1.47
317;1982.65;603.29;1.48
318;1982.65;563.738;1.48
319;1955.49;561.785;1.48
320;1918.57;567.888;1.48
321;1916.12;587.42;1.48
322;1940.84;567.888;1.48
323;1948.17;571.795;1.48
324;1948.17;550.066;1.48
325;1925.89;587.42;1.48
326;1888.96;583.514;1.49
327;1856.92;544.206;1.49
328;1888.96;589.618;1.49
329;1918.57;589.618;1.49
330;1930.77;583.514;1.49
331;1935.66;565.935;1.49
332;1921.01;587.42;1.49
333;1893.85;581.561;1.49
334;1891.4;603.29;1.49
335;1940.84;567.888;1.49
336;1968.01;573.748;1.5
337;1985.1;613.3;1.5
338;1982.65;561.785;1.5
339;1953.05;571.795;1.5
340;1916.12;571.795;1.5
341;1911.24;589.618;1.5
342;1940.84;569.842;1.5
343;1948.17;577.654;1.5
344;1945.73;552.019;1.5
345;1928.33;597.43;1.5
346;1886.52;583.514;1.51
347;1856.92;548.112;1.51
348;1886.52;597.43;1.51
349;1918.57;587.42;1.51
350;1930.77;583.514;1.51
351;1938.4;567.888;1.51
352;1921.01;593.524;1.51
353;1891.4;579.608;1.51
354;1886.52;607.196;1.51
355;1938.4;565.935;1.51
356;1965.56;577.654;1.52
357;1977.77;615.253;1.52
358;1977.77;559.832;1.52
359;1948.17;573.748;1.52
360;1913.68;575.701;1.52
361;1908.49;593.524;1.52
362;1933.21;567.888;1.52
363;1940.84;579.608;1.52
364;1940.84;555.925;1.52
365;1921.01;605.243;1.52
366;1881.33;583.514;1.53
367;1849.29;552.019;1.53
368;1884.08;607.196;1.53
369;1911.24;591.571;1.53
370;1925.89;589.618;1.53
371;1930.77;571.795;1.53
372;1921.01;595.477;1.53
373;1891.4;583.514;1.53
374;1886.52;609.149;1.53
375;1933.21;563.738;1.53
376;1960.38;581.561;1.53
377;1977.77;615.253;1.54
378;1975.33;559.832;1.54
379;1953.05;577.654;1.54
380;1916.12;575.701;1.54
381;1908.49;593.524;1.54
382;1933.21;569.842;1.54
383;1943.29;581.561;1.54
384;1943.29;559.832;1.54
385;1925.89;611.347;1.54
386;1884.08;585.467;1.54
387;1854.17;552.019;1.54
388;1881.33;615.253;1.55
389;1916.12;587.42;1.55
390;1930.77;587.42;1.55
391;1933.21;573.748;1.55
392;1921.01;595.477;1.55
393;1896.29;583.514;1.55
394;1891.4;605.243;1.55
395;1935.66;557.878;1.55
396;1960.38;579.608;1.55
397;1977.77;615.253;1.55
398;1977.77;555.925;1.55
399;1945.73;579.608;1.55
400;1911.24;579.608;1.56
401;1906.05;593.524;1.56
402;1930.77;573.748;1.56
403;1938.4;581.561;1.56
404;1940.84;559.832;1.56
405;1921.01;609.149;1.56
406;1884.08;585.467;1.56
407;1849.29;553.972;1.56
408;1876.45;617.206;1.56
409;1908.49;583.514;1.56
410;1923.45;587.42;1.56
411;1928.33;571.795;1.57
412;1916.12;591.571;1.57
413;1888.96;583.514;1.57
414;1884.08;605.243;1.57
415;1928.33;555.925;1.57
416;1957.93;583.514;1.57
417;1975.33;611.347;1.57
418;1972.89;548.112;1.57
419;1945.73;579.608;1.57
420;1911.24;579.608;1.57
421;1906.05;593.524;1.57
422;1928.33;569.842;1.57
423;1938.4;581.561;1.58
424;1938.4;557.878;1.58
425;1921.01;607.196;1.58
426;1884.08;587.42;1.58
427;1851.73;552.019;1.58
428;1876.45;607.196;1.58
429;1908.49;587.42;1.58
430;1921.01;587.42;1.58
431;1928.33;569.842;1.58
432;1913.68;595.477;1.58
433;1886.52;581.561;1.58
434;1878.89;609.149;1.58
435;1928.33;559.832;1.59
436;1962.82;579.608;1.59
437;1975.33;615.253;1.59
438;1975.33;555.925;1.59
439;1945.73;577.654;1.59
440;1911.24;575.701;1.59
441;1906.05;593.524;1.59
442;1928.33;571.795;1.59
443;1935.66;581.561;1.59
444;1938.4;557.878;1.59
445;1918.57;609.149;1.59
446;1881.33;583.514;1.59
447;1851.73;550.066;1.6
448;1874.01;609.149;1.6
449;1906.05;587.42;1.6
450;1921.01;587.42;1.6
451;1928.33;571.795;1.6
452;1916.12;593.524;1.6
453;1886.52;581.561;1.6
454;1878.89;605.243;1.6
455;1925.89;555.925;1.6
456;1955.49;579.608;1.6
457;1970.45;611.347;1.6
458;1970.45;550.066;1.6
459;1943.29;577.654;1.61
460;1908.49;577.654;1.61
461;1898.73;593.524;1.61
462;1923.45;573.748;1.61
463;1935.66;579.608;1.61
464;1935.66;559.832;1.61
465;1916.12;609.149;1.61
466;1881.33;583.514;1.61
467;1846.85;552.019;1.61
468;1874.01;617.206;1.61
469;1906.05;583.514;1.61
470;1923.45;587.42;1.61
471;1928.33;571.795;1.61
472;1916.12;591.571;1.62
473;1888.96;585.467;1.62
474;1881.33;605.243;1.62
475;1930.77;575.701;1.62
476;1957.93;573.748;1.62
477;1972.89;613.3;1.62
478;1972.89;569.842;1.62
479;1948.17;571.795;1.62
480;1911.24;575.701;1.62
481;1903.61;593.524;1.62
482;1925.89;573.748;1.62
483;1935.66;577.654;1.62
484;1935.66;555.925;1.63
485;1921.01;595.477;1.63
486;1886.52;589.618;1.63
487;1851.73;550.066;1.63
488;1874.01;595.477;1.63
489;1906.05;593.524;1.63
490;1921.01;587.42;1.63
491;1925.89;571.795;1.63
492;1913.68;593.524;1.63
493;1886.52;583.514;1.63
494;1878.89;607.196;1.63
495;1925.89;571.795;1.63
496;1957.93;575.701;1.63
497;1970.45;615.253;1.64
498;1972.89;563.738;1.64
499;1948.17;575.701;1.64
500;1911.24;573.748;1.64
501;1903.61;591.571;1.64
502;1925.89;571.795;1.64
503;1935.66;579.608;1.64
504;1935.66;555.925;1.64
505;1918.57;599.384;1.64
506;1884.08;587.42;1.64
507;1849.29;550.066;1.64
508;1871.57;601.337;1.64
509;1908.49;589.618;1.64
510;1921.01;589.618;1.65
511;1928.33;569.842;1.65
512;1918.57;593.524;1.65
513;1891.4;581.561;1.65
514;1878.89;607.196;1.65
515;1925.89;565.935;1.65
516;1955.49;579.608;1.65
517;1972.89;617.206;1.65
518;1977.77;559.832;1.65
519;1950.61;575.701;1.65
520;1916.12;575.701;1.65
521;1903.61;593.524;1.65
522;1930.77;573.748;1.65
523;1938.4;577.654;1.66
524;1938.4;557.878;1.66
525;1925.89;605.243;1.66
526;1884.08;587.42;1.66
527;1851.73;550.066;1.66
528;1874.01;607.196;1.66
529;1911.24;589.618;1.66
530;1925.89;589.618;1.66
531;1935.66;571.795;1.66
532;1923.45;595.477;1.66
533;1896.29;583.514;1.66
534;1886.52;607.196;1.66
535;1928.33;559.832;1.66
536;1962.82;579.608;1.66
537;1977.77;615.253;1.67
538;1982.65;555.925;1.67
539;1955.49;577.654;1.67
540;1921.01;575.701;1.67
541;1906.05;593.524;1.67
542;1930.77;571.795;1.67
543;1938.4;581.561;1.67
544;1943.29;559.832;1.67
545;1928.33;611.347;1.67
546;1891.4;583.514;1.67
547;1854.17;552.019;1.67
548;1876.45;611.347;1.67
549;1913.68;587.42;1.67
550;1928.33;585.467;1.68
551;1938.4;571.795;1.68
552;1925.89;595.477;1.68
553;1898.73;583.514;1.68
554;1886.52;607.196;1.68
555;1930.77;557.878;1.68
556;1965.56;581.561;1.68
557;1980.21;615.253;1.68
558;1982.65;552.019;1.68
559;1957.93;581.561;1.68
560;1923.45;577.654;1.68
561;1908.49;593.524;1.68
562;1930.77;573.748;1.68
563;1943.29;581.561;1.68
564;1940.84;561.785;1.69
565;1928.33;611.347;1.69
566;1891.4;585.467;1.69
567;1856.92;553.972;1.69
568;1874.01;619.16;1.69
569;1911.24;585.467;1.69
570;1925.89;585.467;1.69
571;1933.21;571.795;1.69
572;1923.45;591.571;1.69
573;1893.85;583.514;1.69
574;1881.33;605.243;1.69
575;1925.89;555.925;1.69
576;1957.93;583.514;1.69
577;1977.77;613.3;1.69
578;1980.21;571.795;1.69
579;1955.49;571.795;1.7
580;1918.57;575.701;1.7
581;1906.05;593.524;1.7
582;1928.33;573.748;1.7
583;1938.4;579.608;1.7
584;1938.4;555.925;1.7
585;1925.89;593.524;1.7
586;1888.96;587.42;1.7
587;1854.17;552.019;1.7
588;1871.57;597.43;1.7
589;1908.49;593.524;1.7
590;1923.45;589.618;1.7
591;1930.77;571.795;1.7
592;1923.45;595.477;1.7
593;1896.29;585.467;1.71
594;1884.08;609.149;1.71
595;1925.89;571.795;1.71
596;1960.38;577.654;1.71
597;1977.77;615.253;1.71
598;1980.21;565.935;1.71
599;1960.38;571.795;1.71
600;1921.01;575.701;1.71
601;1906.05;593.524;1.71
602;1933.21;571.795;1.71
603;1943.29;579.608;1.71
604;1943.29;557.878;1.71
605;1930.77;601.337;1.71
606;1896.29;589.618;1.71
607;1856.92;550.066;1.71
608;1876.45;599.384;1.72
609;1911.24;591.571;1.72
610;1930.77;587.42;1.72
611;1940.84;571.795;1.72
612;1928.33;595.477;1.72
613;1903.61;583.514;1.72
614;1891.4;607.196;1.72
615;1930.77;565.935;1.72
616;1965.56;577.654;1.72
617;1982.65;615.253;1.72
618;1985.1;561.785;1.72
619;1962.82;575.701;1.72
620;1925.89;573.748;1.72
621;1908.49;591.571;1.72
622;1935.66;571.795;1.73
623;1945.73;581.561;1.73
624;1948.17;555.925;1.73
625;1933.21;603.29;1.73
626;1898.73;585.467;1.73
627;1864.24;548.112;1.73
628;1876.45;607.196;1.73
629;1913.68;587.42;1.73
630;1930.77;587.42;1.73
631;1938.4;571.795;1.73
632;1930.77;595.477;1.73
633;1906.05;581.561;1.73
634;1888.96;605.243;1.73
635;1933.21;557.878;1.73
636;1965.56;577.654;1.73
637;1982.65;617.206;1.74
638;1987.54;555.925;1.74
639;1965.56;575.701;1.74
640;1928.33;573.748;1.74
641;1911.24;593.524;1.74
642;1935.66;569.842;1.74
643;1950.61;577.654;1.74
644;1948.17;557.878;1.74
645;1935.66;607.196;1.74
646;1901.17;583.514;1.74
647;1861.8;550.066;1.74
648;1878.89;611.347;1.74
649;1918.57;581.561;1.74
650;1935.66;583.514;1.74
651;1945.73;569.842;1.75
652;1935.66;593.524;1.75
653;1908.49;583.514;1.75
654;1891.4;603.29;1.75
655;1930.77;555.925;1.75
656;1970.45;579.608;1.75
657;1985.1;611.347;1.75
658;1989.98;548.112;1.75
659;1965.56;577.654;1.75
660;1930.77;573.748;1.75
661;1911.24;591.571;1.75
662;1938.4;569.842;1.75
663;1948.17;577.654;1.75
664;1953.05;557.878;1.75
665;1940.84;607.196;1.76
666;1903.61;583.514;1.76
667;1866.68;553.972;1.76
668;1881.33;615.253;1.76
669;1918.57;583.514;1.76
670;1935.66;583.514;1.76
671;1945.73;569.842;1.76
672;1925.89;589.618;1.76
673;1898.73;581.561;1.76
674;1901.17;601.337;1.76
675;1948.17;555.925;1.76
676;1977.77;579.608;1.76
677;1989.98;607.196;1.76
678;1985.1;544.206;1.76
679;1957.93;577.654;1.76
680;1918.57;577.654;1.77
681;1923.45;591.571;1.77
682;1945.73;569.842;1.77
683;1950.61;579.608;1.77
684;1950.61;553.972;1.77
685;1930.77;603.29;1.77
686;1888.96;581.561;1.77
687;1864.24;546.159;1.77
688;1898.73;607.196;1.77
689;1925.89;583.514;1.77
690;1938.4;585.467;1.77
691;1945.73;567.888;1.77
692;1925.89;591.571;1.77
693;1896.29;579.608;1.77
694;1901.17;605.243;1.78
695;1950.61;555.925;1.78
696;1975.33;575.701;1.78
697;1989.98;613.3;1.78
698;1985.1;552.019;1.78
699;1955.49;575.701;1.78
700;1923.45;573.748;1.78
701;1918.57;589.618;1.78
702;1943.29;567.888;1.78
703;1950.61;577.654;1.78
704;1948.17;555.925;1.78
705;1928.33;607.196;1.78
706;1886.52;581.561;1.78
707;1859.36;550.066;1.78
708;1896.29;611.347;1.78
709;1925.89;583.514;1.79
710;1938.4;585.467;1.79
711;1943.29;567.888;1.79
712;1928.33;591.571;1.79
713;1901.17;579.608;1.79
714;1901.17;601.337;1.79
715;1948.17;552.019;1.79
716;1975.33;579.608;1.79
717;1989.98;609.149;1.79
718;1985.1;548.112;1.79
719;1955.49;577.654;1.79
720;1918.57;575.701;1.79
721;1918.57;589.618;1.79
722;1943.29;571.795;1.79
723;1948.17;575.701;1.79
724;1950.61;557.878;1.8
725;1928.33;609.149;1.8
726;1886.52;581.561;1.8
727;1859.36;552.019;1.8
728;1896.29;615.253;1.8
729;1925.89;577.654;1.8
730;1938.4;579.608;1.8
731;1943.29;567.888;1.8
732;1928.33;587.42;1.8
733;1901.17;579.608;1.8
734;1901.17;607.196;1.8
735;1950.61;573.748;1.8
736;1975.33;571.795;1.8
737;1989.98;613.3;1.8
738;1985.1;565.935;1.81
739;1957.93;571.795;1.81
740;1921.01;573.748;1.81
741;1921.01;589.618;1.81
742;1945.73;569.842;1.81
743;1950.61;577.654;1.81
744;1950.61;550.066;1.81
745;1930.77;593.524;1.81
746;1891.4;585.467;1.81
747;1864.24;548.112;1.81
748;1896.29;593.524;1.81
749;1928.33;591.571;1.81
750;1940.84;583.514;1.81
751;1948.17;567.888;1.81
752;1930.77;589.618;1.82
753;1906.05;579.608;1.82
754;1903.61;607.196;1.82
755;1950.61;569.842;1.82
756;1980.21;571.795;1.82
757;1995.17;611.347;1.82
758;1992.73;561.785;1.82
759;1965.56;573.748;1.82
760;1925.89;571.795;1.82
761;1925.89;589.618;1.82
762;1948.17;565.935;1.82
763;1955.49;577.654;1.82
764;1955.49;553.972;1.82
765;1935.66;595.477;1.82
766;1896.29;583.514;1.83
767;1866.68;548.112;1.83
768;1896.29;599.384;1.83
769;1930.77;585.467;1.83
770;1943.29;585.467;1.83
771;1948.17;567.888;1.83
772;1930.77;589.618;1.83
773;1903.61;577.654;1.83
774;1903.61;607.196;1.83
775;1948.17;559.832;1.83
776;1972.89;573.748;1.83
777;1992.73;611.347;1.83
778;1989.98;555.925;1.83
779;1957.93;573.748;1.83
780;1923.45;571.795;1.83
781;1921.01;587.42;1.84
782;1945.73;567.888;1.84
783;1953.05;577.654;1.84
784;1953.05;553.972;1.84
785;1933.21;605.243;1.84
786;1893.85;583.514;1.84
787;1864.24;546.159;1.84
788;1893.85;605.243;1.84
789;1925.89;581.561;1.84
790;1943.29;583.514;1.84
791;1948.17;567.888;1.84
792;1933.21;591.571;1.84
793;1903.61;575.701;1.84
794;1903.61;601.337;1.84
795;1950.61;555.925;1.85
796;1980.21;573.748;1.85
797;1995.17;609.149;1.85
798;1992.73;550.066;1.85
799;1962.82;575.701;1.85
800;1928.33;571.795;1.85
801;1925.89;587.42;1.85
802;1948.17;565.935;1.85
803;1957.93;575.701;1.85
804;1957.93;553.972;1.85
805;1940.84;607.196;1.85
806;1898.73;581.561;1.85
807;1869.13;550.066;1.85
808;1898.73;611.347;1.85
809;1930.77;579.608;1.85
810;1943.29;585.467;1.86
811;1948.17;567.888;1.86
812;1933.21;587.42;1.86
813;1906.05;579.608;1.86
814;1906.05;601.337;1.86
815;1950.61;552.019;1.86
816;1982.65;575.701;1.86
817;1995.17;607.196;1.86
818;1992.73;546.159;1.86
819;1968.01;577.654;1.86
820;1928.33;573.748;1.86
821;1925.89;587.42;1.86
822;1950.61;567.888;1.86
823;1957.93;573.748;1.86
824;1957.93;557.878;1.87
825;1940.84;605.243;1.87
826;1903.61;579.608;1.87
827;1871.57;552.019;1.87
828;1896.29;615.253;1.87
829;1933.21;579.608;1.87
830;1943.29;581.561;1.87
831;1950.61;569.842;1.87
832;1938.4;587.42;1.87
833;1906.05;579.608;1.87
834;1906.05;599.384;1.87
835;1953.05;553.972;1.87
836;1980.21;577.654;1.87
837;1995.17;611.347;1.87
838;1997.61;567.888;1.88
839;1965.56;567.888;1.88
840;1930.77;571.795;1.88
841;1923.45;589.618;1.88
842;1950.61;567.888;1.88
843;1960.38;575.701;1.88
844;1960.38;550.066;1.88
845;1943.29;591.571;1.88
846;1903.61;583.514;1.88
847;1869.13;546.159;1.88
848;1896.29;593.524;1.88
849;1933.21;589.618;1.88
850;1945.73;583.514;1.88
851;1950.61;567.888;1.88
852;1940.84;589.618;1.88
853;1911.24;577.654;1.89
854;1903.61;603.29;1.89
855;1950.61;569.842;1.89
856;1980.21;573.748;1.89
857;1995.17;609.149;1.89
858;1997.61;561.785;1.89
859;1968.01;571.795;1.89
860;1930.77;571.795;1.89
861;1923.45;587.42;1.89
862;1950.61;565.935;1.89
863;1960.38;575.701;1.89
864;1960.38;550.066;1.89
865;1943.29;595.477;1.89
866;1903.61;581.561;1.89
867;1874.01;544.206;1.89
868;1898.73;599.384;1.9
869;1930.77;583.514;1.9
870;1945.73;583.514;1.9
871;1950.61;569.842;1.9
872;1935.66;589.618;1.9
873;1908.49;577.654;1.9
874;1901.17;603.29;1.9
875;1955.49;559.832;1.9
876;1980.21;571.795;1.9
877;1997.61;611.347;1.9
878;1997.61;552.019;1.9
879;1970.45;571.795;1.9
880;1933.21;569.842;1.9
881;1925.89;589.618;1.9
882;1948.17;565.935;1.91
883;1957.93;575.701;1.91
884;1957.93;552.019;1.91
885;1943.29;603.29;1.91
886;1903.61;579.608;1.91
887;1871.57;544.206;1.91
888;1896.29;605.243;1.91
889;1930.77;583.514;1.91
890;1943.29;583.514;1.91
891;1950.61;567.888;1.91
892;1938.4;589.618;1.91
893;1908.49;575.701;1.91
894;1903.61;605.243;1.91
895;1945.73;553.972;1.91
896;1980.21;575.701;1.92
897;2000.05;611.347;1.92
898;1997.61;552.019;1.92
899;1972.89;571.795;1.92
900;1935.66;569.842;1.92
901;1930.77;587.42;1.92
902;1950.61;565.935;1.92
903;1962.82;577.654;1.92
904;1960.38;553.972;1.92
905;1948.17;605.243;1.92
906;1906.05;577.654;1.92
907;1874.01;546.159;1.92
908;1898.73;607.196;1.92
909;1935.66;581.561;1.92
910;1950.61;581.561;1.92
911;1957.93;567.888;1.93
912;1945.73;587.42;1.93
913;1918.57;577.654;1.93
914;1908.49;599.384;1.93
915;1953.05;552.019;1.93
916;1985.1;573.748;1.93
917;1997.61;603.29;1.93
918;2000.05;544.206;1.93
919;1975.33;577.654;1.93
920;1935.66;571.795;1.93
921;1925.89;587.42;1.93
922;1955.49;567.888;1.93
923;1960.38;575.701;1.93
924;1962.82;557.878;1.93
925;1948.17;605.243;1.93
926;1908.49;579.608;1.94
927;1876.45;550.066;1.94
928;1898.73;613.3;1.94
929;1933.21;579.608;1.94
930;1948.17;579.608;1.94
931;1955.49;567.888;1.94
932;1943.29;585.467;1.94
933;1916.12;579.608;1.94
934;1903.61;601.337;1.94
935;1950.61;552.019;1.94
936;1982.65;577.654;1.94
937;1995.17;603.29;1.94
938;2000.05;540.056;1.94
939;1972.89;575.701;1.94
940;1938.4;577.654;1.94
941;1925.89;587.42;1.94
942;1950.61;565.935;1.95
943;1962.82;573.748;1.95
944;1962.82;552.019;1.95
945;1948.17;603.29;1.95
946;1908.49;581.561;1.95
947;1874.01;544.206;1.95
948;1898.73;605.243;1.95
949;1933.21;581.561;1.95
950;1948.17;583.514;1.95
951;1955.49;565.935;1.95
952;1945.73;589.618;1.95
953;1916.12;577.654;1.95
954;1906.05;599.384;1.95
955;1950.61;553.972;1.95
956;1985.1;573.748;1.95
957;2000.05;609.149;1.96
958;2002.49;546.159;1.96
959;1975.33;573.748;1.96
960;1938.4;571.795;1.96
961;1928.33;587.42;1.96
962;1953.05;567.888;1.96
963;1962.82;575.701;1.96
964;1965.56;553.972;1.96
965;1950.61;605.243;1.96
966;1911.24;579.608;1.96
967;1871.57;548.112;1.96
968;1896.29;611.347;1.96
969;1933.21;579.608;1.96
970;1948.17;579.608;1.96
971;1957.93;565.935;1.96
972;1945.73;585.467;1.97
973;1916.12;575.701;1.97
974;1906.05;599.384;1.97
975;1953.05;550.066;1.97
976;1985.1;573.748;1.97
977;2000.05;605.243;1.97
978;2004.93;542.009;1.97
979;1977.77;573.748;1.97
980;1940.84;571.795;1.97
981;1928.33;587.42;1.97
982;1953.05;569.842;1.97
983;1965.56;573.748;1.97
984;1968.01;557.878;1.97
985;1953.05;603.29;1.97
986;1911.24;577.654;1.97
987;1876.45;550.066;1.98
988;1898.73;617.206;1.98
989;1933.21;577.654;1.98
990;1950.61;579.608;1.98
991;1960.38;569.842;1.98
992;1945.73;585.467;1.98
993;1921.01;579.608;1.98
994;1906.05;603.29;1.98
995;1950.61;567.888;1.98
996;1985.1;571.795;1.98
997;2002.49;607.196;1.98
998;2002.49;561.785;1.98
999;1977.77;567.888;1.98
1000;1940.84;569.842;1.98
1001;1925.89;587.42;1.99
1002;1955.49;565.935;1.99
1003;1965.56;575.701;1.99
1004;1965.56;548.112;1.99
1005;1950.61;591.571;1.99
1006;1913.68;579.608;1.99
1007;1876.45;546.159;1.99
1008;1896.29;593.524;1.99
1009;1933.21;587.42;1.99
1010;1945.73;585.467;1.99
1011;1955.49;567.888;1.99
1012;1940.84;587.42;1.99
1013;1916.12;577.654;1.99
1014;1906.05;599.384;1.99
1015;1948.17;561.785;1.99
1016;1982.65;571.795;2
1017;2000.05;609.149;2
1018;2004.93;555.925;2
1019;1980.21;569.842;2
1020;1943.29;569.842;2
1021;1928.33;587.42;2
1022;1953.05;563.738;2
1023;1965.56;573.748;2
1024;1965.56;552.019;2
1025;1955.49;599.384;2
1026;1916.12;581.561;2
1027;1881.33;544.206;2
1028;1898.73;599.384;2
1029;1940.84;581.561;2
1030;1957.93;583.514;2.01
1031;1962.82;565.935;2.01
1032;1955.49;591.571;2.01
1033;1928.33;575.701;2.01
1034;1913.68;601.337;2.01
1035;1955.49;557.878;2.01
1036;1989.98;571.795;2.01
1037;2004.93;611.347;2.01
1038;2009.82;552.019;2.01
1039;1987.54;571.795;2.01
1040;1950.61;571.795;2.01
1041;1938.4;587.42;2.01
1042;1962.82;563.738;2.01
1043;1972.89;575.701;2.01
1044;1975.33;552.019;2.02
1045;1962.82;603.29;2.02
1046;1923.45;579.608;2.02
1047;1886.52;546.159;2.02
1048;1903.61;603.29;2.02
1049;1943.29;579.608;2.02
1050;1957.93;579.608;2.02
1051;1965.56;563.738;2.02
1052;1955.49;587.42;2.02
1053;1928.33;577.654;2.02
1054;1911.24;601.337;2.02
1055;1955.49;552.019;2.02
1056;1989.98;573.748;2.02
1057;2004.93;607.196;2.02
1058;2012.26;546.159;2.03
1059;1989.98;571.795;2.03
1060;1948.17;569.842;2.03
1061;1935.66;587.42;2.03
1062;1960.38;563.738;2.03
1063;1972.89;573.748;2.03
1064;1972.89;552.019;2.03
1065;1962.82;605.243;2.03
1066;1923.45;577.654;2.03
1067;1886.52;544.206;2.03
1068;1901.17;609.149;2.03
1069;1940.84;577.654;2.03
1070;1957.93;581.561;2.03
1071;1968.01;567.888;2.04
1072;1957.93;585.467;2.04
1073;1930.77;577.654;2.04
1074;1918.57;597.43;2.04
1075;1977.77;550.066;2.04
1076;2002.49;575.701;2.04
1077;2014.7;603.29;2.04
1078;2009.82;540.056;2.04
1079;1975.33;573.748;2.04
1080;1943.29;571.795;2.04
1081;1945.73;585.467;2.04
1082;1970.45;565.935;2.04
1083;1975.33;573.748;2.04
1084;1970.45;555.925;2.04
1085;1950.61;603.29;2.05
1086;1908.49;577.654;2.05
1087;1884.08;548.112;2.05
1088;1921.01;615.253;2.05
1089;1950.61;577.654;2.05
1090;1962.82;579.608;2.05
1091;1965.56;565.935;2.05
1092;1945.73;583.514;2.05
1093;1918.57;577.654;2.05
1094;1923.45;595.477;2.05
1095;1972.89;552.019;2.05
1096;2000.05;575.701;2.05
1097;2009.82;607.196;2.06
1098;2004.93;561.785;2.06
1099;1977.77;565.935;2.06
1100;1940.84;571.795;2.06
1101;1943.29;585.467;2.06
1102;1965.56;565.935;2.06
1103;1970.45;573.748;2.06
1104;1968.01;550.066;2.06
1105;1945.73;589.618;2.06
1106;1906.05;579.608;2.06
1107;1881.33;542.009;2.06
1108;1918.57;595.477;2.06
1109;1945.73;587.42;2.06
1110;1962.82;581.561;2.06
1111;1962.82;565.935;2.07
1112;1948.17;587.42;2.07
1113;1918.57;575.701;2.07
1114;1921.01;603.29;2.07
1115;1970.45;563.738;2.07
1116;1997.61;569.842;2.07
1117;2009.82;609.149;2.07
1118;2007.37;553.972;2.07
1119;1977.77;569.842;2.07
1120;1940.84;567.888;2.07
1121;1943.29;587.42;2.07
1122;1968.01;563.738;2.07
1123;1972.89;573.748;2.07
1124;1970.45;550.066;2.08
1125;1950.61;597.43;2.08
1126;1911.24;577.654;2.08
1127;1884.08;540.056;2.08
1128;1918.57;599.384;2.08
1129;1950.61;583.514;2.08
1130;1965.56;581.561;2.08
1131;1968.01;563.738;2.08
1132;1950.61;589.618;2.08
1133;1925.89;573.748;2.08
1134;1923.45;603.29;2.08
1135;1977.77;555.925;2.08
1136;2004.93;571.795;2.08
1137;2017.14;607.196;2.09
1138;2012.26;552.019;2.09
1139;1980.21;571.795;2.09
1140;1943.29;567.888;2.09
1141;1945.73;587.42;2.09
1142;1972.89;565.935;2.09
1143;1980.21;573.748;2.09
1144;1977.77;550.066;2.09
1145;1957.93;603.29;2.09
1146;1916.12;579.608;2.09
1147;1888.96;542.009;2.09
1148;1923.45;603.29;2.09
1149;1955.49;579.608;2.09
1150;1970.45;579.608;2.1
1151;1972.89;563.738;2.1
1152;1955.49;585.467;2.1
1153;1928.33;575.701;2.1
1154;1928.33;601.337;2.1
1155;1977.77;552.019;2.1
1156;2004.93;571.795;2.1
1157;2017.14;607.196;2.1
1158;2014.7;546.159;2.1
1159;1982.65;573.748;2.1
1160;1945.73;569.842;2.1
1161;1948.17;585.467;2.1
1162;1975.33;563.738;2.1
1163;1980.21;571.795;2.11
1164;1980.21;552.019;2.11
1165;1957.93;601.337;2.11
1166;1918.57;577.654;2.11
1167;1891.4;546.159;2.11
1168;1921.01;607.196;2.11
1169;1953.05;579.608;2.11
1170;1968.01;579.608;2.11
1171;1970.45;565.935;2.11
1172;1955.49;585.467;2.11
1173;1925.89;573.748;2.11
1174;1925.89;599.384;2.11
1175;1977.77;550.066;2.11
1176;2004.93;573.748;2.12
1177;2019.89;607.196;2.12
1178;2014.7;540.056;2.12
1179;1987.54;573.748;2.12
1180;1950.61;569.842;2.12
1181;1948.17;585.467;2.12
1182;1977.77;567.888;2.12
1183;1985.1;569.842;2.12
1184;1985.1;553.972;2.12
1185;1965.56;603.29;2.12
1186;1925.89;577.654;2.12
1187;1896.29;548.112;2.12
1188;1925.89;613.3;2.12
1189;1957.93;573.748;2.13
1190;1972.89;575.701;2.13
1191;1975.33;565.935;2.13
1192;1962.82;585.467;2.13
1193;1928.33;575.701;2.13
1194;1930.77;595.477;2.13
1195;1985.1;550.066;2.13
1196;2012.26;575.701;2.13
1197;2027.21;601.337;2.13
1198;2024.77;538.102;2.13
1199;1995.17;573.748;2.13
1200;1960.38;573.748;2.13
1201;1955.49;585.467;2.13
1202;1982.65;563.738;2.14
1203;1992.73;573.748;2.14
1204;1989.98;550.066;2.14
1205;1970.45;601.337;2.14
1206;1928.33;577.654;2.14
1207;1901.17;544.206;2.14
1208;1933.21;605.243;2.14
1209;1965.56;579.608;2.14
1210;1977.77;579.608;2.14
1211;1980.21;565.935;2.14
1212;1970.45;585.467;2.14
1213;1938.4;573.748;2.14
1214;1938.4;595.477;2.14
1215;1982.65;550.066;2.15
1216;2014.7;573.748;2.15
1217;2027.21;607.196;2.15
1218;2024.77;546.159;2.15
1219;1992.73;571.795;2.15
1220;1955.49;569.842;2.15
1221;1955.49;587.42;2.15
1222;1980.21;563.738;2.15
1223;1989.98;571.795;2.15
1224;1992.73;555.925;2.15
1225;1970.45;603.29;2.15
1226;1928.33;577.654;2.15
1227;1898.73;546.159;2.15
1228;1930.77;607.196;2.16
1229;1965.56;575.701;2.16
1230;1977.77;579.608;2.16
1231;1982.65;565.935;2.16
1232;1968.01;583.514;2.16
1233;1935.66;575.701;2.16
1234;1935.66;597.43;2.16
1235;1985.1;548.112;2.16
1236;2014.7;573.748;2.16
1237;2029.65;603.29;2.16
1238;2027.21;540.056;2.16
1239;2000.05;571.795;2.16
1240;1962.82;569.842;2.16
1241;1957.93;585.467;2.17
1242;1982.65;565.935;2.17
1243;1992.73;571.795;2.17
1244;1992.73;557.878;2.17
1245;1975.33;603.29;2.17
1246;1933.21;575.701;2.17
1247;1906.05;548.112;2.17
1248;1930.77;615.253;2.17
1249;1968.01;577.654;2.17
1250;1980.21;575.701;2.17
1251;1985.1;563.738;2.17
1252;1975.33;583.514;2.17
1253;1943.29;577.654;2.17
1254;1938.4;601.337;2.18
1255;1987.54;565.935;2.18
1256;2019.89;569.842;2.18
1257;2032.09;605.243;2.18
1258;2029.65;559.832;2.18
1259;2000.05;567.888;2.18
1260;1965.56;567.888;2.18
1261;1957.93;585.467;2.18
1262;1985.1;565.935;2.18
1263;1995.17;571.795;2.18
1264;1992.73;548.112;2.18
1265;1972.89;591.571;2.18
1266;1935.66;577.654;2.18
1267;1901.17;544.206;2.18
1268;1933.21;591.571;2.19
1269;1968.01;583.514;2.19
1270;1980.21;581.561;2.19
1271;1985.1;563.738;2.19
1272;1970.45;587.42;2.19
1273;1943.29;575.701;2.19
1274;1935.66;603.29;2.19
1275;1995.17;559.832;2.19
1276;2022.33;569.842;2.19
1277;2034.54;607.196;2.19
1278;2027.21;552.019;2.19
1279;1997.61;567.888;2.19
1280;1957.93;565.935;2.19
1281;1965.56;585.467;2.2
1282;1989.98;563.738;2.2
1283;1995.17;571.795;2.2
1284;1995.17;550.066;2.2
1285;1970.45;597.43;2.2
1286;1928.33;577.654;2.2
1287;1906.05;542.009;2.2
1288;1943.29;597.43;2.2
1289;1972.89;581.561;2.2
1290;1985.1;579.608;2.2
1291;1987.54;561.785;2.2
1292;1968.01;585.467;2.2
1293;1935.66;573.748;2.2
1294;1943.29;601.337;2.2
1295;1992.73;552.019;2.21
1296;2022.33;571.795;2.21
1297;2034.54;609.149;2.21
1298;2027.21;550.066;2.21
1299;1997.61;571.795;2.21
1300;1962.82;567.888;2.21
1301;1965.56;585.467;2.21
1302;1989.98;563.738;2.21
1303;1995.17;573.748;2.21
1304;1995.17;550.066;2.21
1305;1972.89;599.384;2.21
1306;1928.33;577.654;2.21
1307;1906.05;542.009;2.21
1308;1943.29;605.243;2.22
1309;1970.45;579.608;2.22
1310;1985.1;579.608;2.22
1311;1992.73;563.738;2.22
1312;1970.45;587.42;2.22
1313;1938.4;575.701;2.22
1314;1948.17;599.384;2.22
1315;1997.61;550.066;2.22
1316;2024.77;573.748;2.22
1317;2039.42;605.243;2.22
1318;2034.54;544.206;2.22
1319;2002.49;567.888;2.22
1320;1968.01;569.842;2.22
1321;1972.89;585.467;2.23
1322;1992.73;563.738;2.23
1323;2004.93;571.795;2.23
1324;2000.05;550.066;2.23
1325;1977.77;605.243;2.23
1326;1935.66;575.701;2.23
1327;1908.49;544.206;2.23
1328;1943.29;609.149;2.23
1329;1975.33;575.701;2.23
1330;1989.98;579.608;2.23
1331;1992.73;561.785;2.23
1332;1975.33;583.514;2.23
1333;1943.29;577.654;2.24
1334;1948.17;597.43;2.24
1335;2000.05;548.112;2.24
1336;2027.21;573.748;2.24
1337;2041.86;603.29;2.24
1338;2036.98;540.056;2.24
1339;2007.37;571.795;2.24
1340;1970.45;569.842;2.24
1341;1970.45;585.467;2.24
1342;1997.61;567.888;2.24
1343;2007.37;569.842;2.24
1344;2007.37;553.972;2.24
1345;1982.65;601.337;2.24
1346;1938.4;573.748;2.25
1347;1913.68;546.159;2.25
1348;1950.61;613.3;2.25
1349;1982.65;575.701;2.25
1350;1995.17;575.701;2.25
1351;2002.49;563.738;2.25
1352;1985.1;583.514;2.25
1353;1957.93;573.748;2.25
1354;1955.49;593.524;2.25
1355;2007.37;548.112;2.25
1356;2039.42;575.701;2.25
1357;2049.49;599.384;2.25
1358;2044.3;557.878;2.26
1359;2014.7;565.935;2.26
1360;1980.21;569.842;2.26
1361;1982.65;585.467;2.26
1362;2009.82;565.935;2.26
1363;2017.14;569.842;2.26
1364;2014.7;548.112;2.26
1365;1995.17;589.618;2.26
1366;1950.61;579.608;2.26
1367;1923.45;542.009;2.26
1368;1957.93;591.571;2.26
1369;1989.98;583.514;2.26
1370;2002.49;579.608;2.27
1371;2007.37;563.738;2.27
1372;1989.98;587.42;2.27
1373;1960.38;573.748;2.27
1374;1962.82;599.384;2.27
1375;2014.7;559.832;2.27
1376;2041.86;569.842;2.27
1377;2056.81;607.196;2.27
1378;2051.93;552.019;2.27
1379;2017.14;565.935;2.27
1380;1985.1;567.888;2.27
1381;1985.1;585.467;2.27
1382;2009.82;563.738;2.27
1383;2017.14;571.795;2.28
1384;2017.14;548.112;2.28
1385;1997.61;595.477;2.28
1386;1953.05;579.608;2.28
1387;1923.45;540.056;2.28
1388;1957.93;599.384;2.28
1389;1989.98;579.608;2.28
1390;2004.93;581.561;2.28
1391;2007.37;561.785;2.28
1392;1992.73;585.467;2.28
1393;1962.82;573.748;2.28
1394;1960.38;601.337;2.29
1395;2014.7;553.972;2.29
1396;2041.86;567.888;2.29
1397;2056.81;607.196;2.29
1398;2051.93;550.066;2.29
1399;2022.33;569.842;2.29
1400;1985.1;565.935;2.29
1401;1982.65;581.561;2.29
1402;2009.82;559.832;2.29
1403;2019.89;571.795;2.29
1404;2017.14;548.112;2.29
1405;2000.05;599.384;2.29
1406;1957.93;577.654;2.3
1407;1928.33;540.056;2.3
1408;1962.82;603.29;2.3
1409;1997.61;577.654;2.3
1410;2012.26;581.561;2.3
1411;2014.7;563.738;2.3
1412;2000.05;587.42;2.3
1413;1970.45;571.795;2.3
1414;1965.56;595.477;2.3
1415;2017.14;548.112;2.3
1416;2049.49;571.795;2.3
1417;2064.14;605.243;2.3
1418;2061.7;544.206;2.31
1419;2029.65;567.888;2.31
1420;1995.17;567.888;2.31
1421;1989.98;583.514;2.31
1422;2019.89;563.738;2.31
1423;2027.21;571.795;2.31
1424;2027.21;550.066;2.31
1425;2004.93;601.337;2.31
1426;1968.01;577.654;2.31
1427;1933.21;544.206;2.31
1428;1965.56;607.196;2.31
1429;2000.05;577.654;2.31
1430;2014.7;575.701;2.32
1431;2019.89;561.785;2.32
1432;2004.93;585.467;2.32
1433;1975.33;573.748;2.32
1434;1970.45;595.477;2.32
1435;2022.33;548.112;2.32
1436;2051.93;571.795;2.32
1437;2066.58;603.29;2.32
1438;2064.14;540.056;2.32
1439;2034.54;569.842;2.32
1440;1995.17;567.888;2.32
1441;1992.73;585.467;2.33
1442;2019.89;565.935;2.33
1443;2029.65;571.795;2.33
1444;2032.09;553.972;2.33
1445;2009.82;603.29;2.33
1446;1968.01;573.748;2.33
1447;1938.4;546.159;2.33
1448;1965.56;611.347;2.33
1449;2002.49;573.748;2.33
1450;2017.14;573.748;2.33
1451;2022.33;565.935;2.33
1452;2009.82;579.608;2.33
1453;1977.77;575.701;2.34
1454;1972.89;591.571;2.34
1455;2024.77;548.112;2.34
1456;2054.37;571.795;2.34
1457;2071.46;601.337;2.34
1458;2066.58;536.149;2.34
1459;2039.42;569.842;2.34
1460;2002.49;569.842;2.34
1461;1997.61;585.467;2.34
1462;2027.21;565.935;2.34
1463;2032.09;571.795;2.34
1464;2032.09;548.112;2.35
1465;2014.7;601.337;2.35
1466;1972.89;577.654;2.35
1467;1940.84;542.009;2.35
1468;1972.89;603.29;2.35
1469;2009.82;575.701;2.35
1470;2024.77;577.654;2.35
1471;2029.65;563.738;2.35
1472;2014.7;581.561;2.35
1473;1982.65;569.842;2.35
1474;1975.33;597.43;2.35
1475;2029.65;546.159;2.36
1476;2059.26;567.888;2.36
1477;2076.65;603.29;2.36
1478;2074.21;540.056;2.36
1479;2044.3;569.842;2.36
1480;2009.82;567.888;2.36
1481;2002.49;583.514;2.36
1482;2029.65;561.785;2.36
1483;2039.42;569.842;2.36
1484;2039.42;550.066;2.36
1485;2017.14;601.337;2.36
1486;1980.21;573.748;2.37
1487;1945.73;542.009;2.37
1488;1972.89;609.149;2.37
1489;2012.26;573.748;2.37
1490;2027.21;575.701;2.37
1491;2032.09;561.785;2.37
1492;2017.14;583.514;2.37
1493;1987.54;573.748;2.37
1494;1980.21;591.571;2.37
1495;2034.54;546.159;2.37
1496;2064.14;573.748;2.37
1497;2081.53;603.29;2.38
1498;2079.09;536.149;2.38
1499;2049.49;571.795;2.38
1500;2012.26;569.842;2.38
1501;2007.37;583.514;2.38
1502;2032.09;563.738;2.38
1503;2044.3;567.888;2.38
1504;2044.3;553.972;2.38
1505;2024.77;599.384;2.38
1506;1985.1;573.748;2.38
1507;1950.61;548.112;2.38
1508;1980.21;613.3;2.39
1509;2014.7;573.748;2.39
1510;2032.09;571.795;2.39
1511;2036.98;561.785;2.39
1512;2022.33;579.608;2.39
1513;1995.17;577.654;2.39
1514;1987.54;591.571;2.39
1515;2034.54;546.159;2.39
1516;2069.02;565.935;2.39
1517;2083.98;603.29;2.39
1518;2083.98;555.925;2.39
1519;2059.26;563.738;2.4
1520;2017.14;561.785;2.4
1521;2012.26;583.514;2.4
1522;2041.86;559.832;2.4
1523;2049.49;569.842;2.4
1524;2051.93;546.159;2.4
1525;2032.09;587.42;2.4
1526;1989.98;577.654;2.4
1527;1955.49;538.102;2.4
1528;1982.65;591.571;2.4
1529;2022.33;579.608;2.41
1530;2036.98;577.654;2.41
1531;2044.3;561.785;2.41
1532;2029.65;585.467;2.41
1533;2000.05;571.795;2.41
1534;1987.54;599.384;2.41
1535;2041.86;555.925;2.41
1536;2071.46;567.888;2.41
1537;2088.86;603.29;2.41
1538;2083.98;550.066;2.41
1539;2059.26;563.738;2.41
1540;2022.33;563.738;2.42
1541;2014.7;581.561;2.42
1542;2044.3;559.832;2.42
1543;2054.37;571.795;2.42
1544;2054.37;546.159;2.42
1545;2034.54;595.477;2.42
1546;1995.17;573.748;2.42
1547;1957.93;538.102;2.42
1548;1985.1;599.384;2.42
1549;2027.21;575.701;2.42
1550;2041.86;575.701;2.43
1551;2047.05;561.785;2.43
1552;2034.54;583.514;2.43
1553;2007.37;571.795;2.43
1554;1992.73;597.43;2.43
1555;2044.3;550.066;2.43
1556;2076.65;569.842;2.43
1557;2096.18;605.243;2.43
1558;2093.74;546.159;2.43
1559;2064.14;565.935;2.43
1560;2029.65;563.738;2.44
1561;2019.89;583.514;2.44
1562;2047.05;557.878;2.44
1563;2061.7;569.842;2.44
1564;2059.26;546.159;2.44
1565;2044.3;599.384;2.44
1566;2000.05;575.701;2.44
1567;1968.01;540.056;2.44
1568;1989.98;601.337;2.44
1569;2029.65;575.701;2.44
1570;2049.49;577.654;2.44
1571;2054.37;559.832;2.45
1572;2039.42;581.561;2.45
1573;2012.26;571.795;2.45
1574;1997.61;597.43;2.45
1575;2049.49;546.159;2.45
1576;2086.42;569.842;2.45
1577;2098.62;603.29;2.45
1578;2101.37;538.102;2.45
1579;2074.21;569.842;2.45
1580;2034.54;567.888;2.45
1581;2027.21;581.561;2.46
1582;2054.37;557.878;2.46
1583;2064.14;565.935;2.46
1584;2064.14;550.066;2.46
1585;2051.93;599.384;2.46
1586;2012.26;573.748;2.46
1587;1972.89;542.009;2.46
1588;1997.61;607.196;2.46
1589;2039.42;571.795;2.46
1590;2054.37;573.748;2.46
1591;2061.7;561.785;2.46
1592;2049.49;581.561;2.47
1593;2017.14;575.701;2.47
1594;2007.37;593.524;2.47
1595;2054.37;546.159;2.47
1596;2091.3;569.842;2.47
1597;2106.25;599.384;2.47
1598;2108.7;534.196;2.47
1599;2081.53;567.888;2.47
1600;2041.86;569.842;2.47
1601;2029.65;581.561;2.47
1602;2061.7;561.785;2.48
1603;2071.46;567.888;2.48
1604;2074.21;550.066;2.48
1605;2059.26;599.384;2.48
1606;2014.7;571.795;2.48
1607;1977.77;544.206;2.48
1608;1997.61;611.347;2.48
1609;2041.86;575.701;2.48
1610;2059.26;571.795;2.48
1611;2066.58;561.785;2.48
1612;2056.81;577.654;2.49
1613;2027.21;571.795;2.49
1614;2009.82;589.618;2.49
1615;2059.26;544.206;2.49
1616;2093.74;573.748;2.49
1617;2111.14;597.43;2.49
1618;2111.14;534.196;2.49
1619;2083.98;569.842;2.49
1620;2044.3;563.738;2.49
1621;2034.54;581.561;2.49
1622;2064.14;559.832;2.5
1623;2076.65;571.795;2.5
1624;2079.09;542.009;2.5
1625;2064.14;587.42;2.5
1626;2022.33;575.701;2.5
1627;1985.1;538.102;2.5
1628;2004.93;589.618;2.5
1629;2049.49;577.654;2.5
1630;2064.14;575.701;2.5
1631;2074.21;557.878;2.5
1632;2061.7;585.467;2.5
1633;2029.65;571.795;2.51
1634;2017.14;597.43;2.51
1635;2064.14;555.925;2.51
1636;2101.37;567.888;2.51
1637;2118.46;603.29;2.51
1638;2118.46;550.066;2.51
1639;2093.74;563.738;2.51
1640;2054.37;563.738;2.51
1641;2041.86;581.561;2.51
1642;2069.02;555.925;2.51
1643;2086.42;567.888;2.51
1644;2083.98;544.206;2.52
1645;2071.46;593.524;2.52
1646;2027.21;573.748;2.52
1647;1989.98;536.149;2.52
1648;2007.37;593.524;2.52
1649;2051.93;575.701;2.52
1650;2066.58;575.701;2.52
1651;2069.02;557.878;2.52
1652;2064.14;585.467;2.52
1653;2032.09;569.842;2.52
1654;2017.14;595.477;2.53
1655;2061.7;550.066;2.53
1656;2103.81;565.935;2.53
1657;2120.9;601.337;2.53
1658;2120.9;546.159;2.53
1659;2096.18;565.935;2.53
1660;2056.81;563.738;2.53
1661;2054.37;581.561;2.53
1662;2079.09;557.878;2.53
1663;2086.42;569.842;2.53
1664;2083.98;546.159;2.54
1665;2059.26;597.43;2.54
1666;2012.26;573.748;2.54
1667;1992.73;538.102;2.54
1668;2029.65;599.384;2.54
1669;2064.14;573.748;2.54
1670;2076.65;575.701;2.54
1671;2076.65;557.878;2.54
1672;2059.26;581.561;2.54
1673;2027.21;569.842;2.54
1674;2034.54;593.524;2.55
1675;2086.42;546.159;2.55
1676;2116.02;563.738;2.55
1677;2130.97;601.337;2.55
1678;2123.34;542.009;2.55
1679;2088.86;565.935;2.55
1680;2049.49;561.785;2.55
1681;2056.81;579.608;2.55
1682;2086.42;557.878;2.55
1683;2091.3;565.935;2.55
1684;2091.3;544.206;2.56
1685;2064.14;599.384;2.56
1686;2022.33;569.842;2.56
1687;1997.61;538.102;2.56
1688;2039.42;605.243;2.56
1689;2071.46;573.748;2.56
1690;2086.42;573.748;2.56
1691;2083.98;559.832;2.56
1692;2069.02;579.608;2.56
1693;2036.98;569.842;2.56
1694;2044.3;593.524;2.57
