<WeldAnalyseData xmlns:i="http:www.w3.org/2001/XMLSchema-instance">
<WeldParameter>
<TimeStamp>DT#2024-01-25-10:38:18</TimeStamp>
<Generator>SG-22-10000</Generator>
<GenFreq>20</GenFreq>
<MaxForce>8000</MaxForce>
<MaxPower>10000</MaxPower>
<RunupPressure>1.5</RunupPressure>
<RunupDist>10</RunupDist>
<RunPress>0.8</RunPress>
<ShakeDelay>0.03</ShakeDelay>
<ShakeTime>0.3</ShakeTime>
<RunBackPress1>6</RunBackPress1>
<RunBackPress2>2</RunBackPress2>
<RunBackDist>1</RunBackDist>
<TrigValue>500</TrigValue>
<TrigModeUnit>W</TrigModeUnit>
<WeldModeUnit>Ws</WeldModeUnit>
<PressNr>0</PressNr>
<MaxLoss>1500</MaxLoss>
</WeldParameter>
<WeldSets>
<WeldSet>
<PressRiseTime>0</PressRiseTime>
<RunPressure>1</RunPressure>
<Amplitude>86</Amplitude>
<WeldMode>3270</WeldMode>
</WeldSet>
</WeldSets>
<WeldValue>
<WeldNr>2993</WeldNr>
<RecipeName>RickStyle</RecipeName>
<WeldTime>1648</WeldTime>
<DistDiff>2.23</DistDiff>
<DistAbs>77.92</DistAbs>
<Energy>3272.08</Energy>
<MaxPower>2228.84</MaxPower>
<CycleTime>5980</CycleTime>
<TrigForce>500.748</TrigForce>
<TrigDist>75.69</TrigDist>
<RunSpeed>68.0054</RunSpeed>
<MaxForce>625.019</MaxForce>
<LossPower>321.589</LossPower>
</WeldValue>
</WeldAnalyseData>
#CSV-START#
ms;Power[W];Force[N];Distance[mm]
1;0;0;0
2;0;500.748;0
3;0;498.795;0
4;0;500.748;0
5;0;500.748;0
6;0;502.701;0
7;0;498.795;0
8;0;470.962;0
9;0;425.55;0.0199966
10;0;407.971;0.0400009
11;0;374.279;0.0699997
12;33.9518;348.643;0.0999985
13;98.0407;338.633;0.139999
14;172.201;321.055;0.18
15;243.614;293.222;0.220001
16;310.45;309.091;0.259995
17;372.097;285.409;0.309998
18;433.744;283.456;0.360001
19;492.95;279.55;0.409996
20;557.344;295.419;0.449997
21;614.109;301.279;0.489998
22;685.522;305.185;0.529999
23;774.636;297.372;0.559998
24;851.237;321.055;0.589996
25;920.209;328.867;0.610001
26;979.415;309.091;0.639999
27;1021.53;340.831;0.659996
28;1053.58;356.456;0.669998
29;1105.46;372.326;0.68
30;1157.34;372.326;0.689995
31;1196.71;370.373;0.699997
32;1236.38;366.466;0.699997
33;1251.03;417.737;0.709999
34;1253.47;399.915;0.709999
35;1270.87;374.279;0.720001
36;1322.75;439.467;0.720001
37;1367;409.925;0.729996
38;1401.79;413.831;0.729996
39;1433.84;403.821;0.739998
40;1448.48;423.597;0.75
41;1453.67;421.644;0.75
42;1493.04;439.467;0.75
43;1552.25;399.915;0.759995
44;1596.8;425.55;0.759995
45;1626.41;447.279;0.769997
46;1643.8;390.149;0.779999
47;1638.61;425.55;0.779999
48;1633.73;427.503;0.790001
49;1665.78;439.467;0.790001
50;1710.33;421.644;0.799995
51;1739.94;427.503;0.809998
52;1762.21;419.691;0.809998
53;1754.89;461.196;0.82
54;1739.94;437.513;0.82
55;1739.94;417.737;0.829994
56;1801.58;482.925;0.839996
57;1846.14;447.279;0.839996
58;1875.74;449.232;0.849998
59;1893.14;441.42;0.849998
60;1888.26;459.243;0.860001
61;1875.74;465.102;0.860001
62;1907.79;477.065;0.869995
63;1966.99;439.467;0.869995
64;2009.11;469.008;0.879997
65;2033.83;482.925;0.879997
66;2033.83;431.654;0.889999
67;2004.23;465.102;0.889999
68;1981.95;472.915;0.899994
69;2001.79;482.925;0.899994
70;2041.15;467.055;0.899994
71;2058.55;463.149;0.909996
72;2063.43;467.055;0.909996
73;2038.71;496.597;0.919998
74;1999.34;470.962;0.919998
75;1989.27;467.055;0.919998
76;2041.15;518.326;0.93
77;2078.39;480.972;0.93
78;2097.92;477.065;0.93
79;2100.36;477.065;0.939995
80;2080.83;492.691;0.939995
81;2053.67;500.748;0.949997
82;2075.64;500.748;0.949997
83;2132.71;470.962;0.949997
84;2164.75;506.607;0.959999
85;2181.84;504.654;0.959999
86;2172.08;463.149;0.959999
87;2137.59;496.597;0.970001
88;2102.8;502.701;0.970001
89;2117.76;506.607;0.970001
90;2149.8;492.691;0.979996
91;2162.31;482.925;0.979996
92;2162.31;496.597;0.979996
93;2132.71;520.524;0.989998
94;2085.71;490.738;0.989998
95;2070.76;494.644;0.989998
96;2122.64;538.102;1
97;2152.24;506.607;1
98;2169.64;498.795;1
99;2169.64;500.748;1.00999
100;2144.92;510.514;1.00999
101;2110.43;528.336;1.00999
102;2135.15;514.42;1.02
103;2189.47;494.644;1.02
104;2216.64;530.29;1.02
105;2228.84;516.373;1.03
106;2219.08;484.878;1.03
107;2174.52;508.56;1.03
108;2137.59;520.524;1.03
109;2154.68;520.524;1.04
110;2176.96;510.514;1.04
111;2187.03;500.748;1.04
112;2181.84;504.654;1.05
113;2149.8;532.243;1.05
114;2100.36;504.654;1.05
115;2085.71;498.795;1.06
116;2129.96;552.019;1.06
117;2162.31;516.373;1.06
118;2174.52;510.514;1.06
119;2174.52;508.56;1.07
120;2147.36;524.43;1.07
121;2112.87;532.243;1.07
122;2127.52;530.29;1.07
123;2179.4;502.701;1.07
124;2201.68;536.149;1.07999
125;2216.64;532.243;1.07999
126;2201.68;490.738;1.07999
127;2162.31;520.524;1.07999
128;2125.08;528.336;1.09
129;2137.59;530.29;1.09
130;2159.87;518.326;1.09
131;2169.64;506.607;1.09
132;2167.2;522.477;1.1
133;2129.96;542.009;1.1
134;2078.39;508.56;1.1
135;2063.43;514.42;1.1
136;2107.99;555.925;1.11
137;2135.15;526.383;1.11
138;2147.36;518.326;1.11
139;2147.36;520.524;1.11
140;2120.2;532.243;1.12
141;2088.15;548.112;1.12
142;2102.8;532.243;1.12
143;2154.68;514.42;1.12
144;2179.4;550.066;1.12
145;2191.92;534.196;1.13
146;2176.96;504.654;1.13
147;2137.59;528.336;1.13
148;2102.8;540.056;1.13
149;2112.87;538.102;1.13
150;2137.59;524.43;1.14
151;2147.36;524.43;1.14
152;2142.48;512.467;1.14
153;2110.43;559.832;1.14
154;2063.43;534.196;1.14
155;2041.15;506.607;1.14999
156;2090.59;569.842;1.14999
157;2117.76;534.196;1.14999
158;2129.96;534.196;1.14999
159;2127.52;522.477;1.14999
160;2102.8;540.056;1.16
161;2068.32;538.102;1.16
162;2083.27;553.972;1.16
163;2129.96;510.514;1.16
164;2157.12;536.149;1.16
165;2169.64;559.832;1.16
166;2152.24;498.795;1.17
167;2112.87;534.196;1.17
168;2078.39;536.149;1.17
169;2083.27;546.159;1.17
170;2110.43;530.29;1.17
171;2112.87;530.29;1.17
172;2110.43;522.477;1.18
173;2078.39;561.785;1.18
174;2031.39;534.196;1.18
175;2011.55;518.326;1.18
176;2060.99;581.561;1.18
177;2083.27;540.056;1.18
178;2097.92;540.056;1.18999
179;2095.48;532.243;1.18999
180;2070.76;550.066;1.18999
181;2038.71;550.066;1.18999
182;2051.23;555.925;1.18999
183;2100.36;520.524;1.18999
184;2125.08;550.066;1.18999
185;2135.15;561.785;1.2
186;2125.08;508.56;1.2
187;2085.71;540.056;1.2
188;2051.23;544.206;1.2
189;2058.55;550.066;1.2
190;2083.27;536.149;1.2
191;2093.04;530.29;1.21
192;2088.15;532.243;1.21
193;2056.11;563.738;1.21
194;2009.11;532.243;1.21
195;1989.27;528.336;1.21
196;2036.27;579.608;1.21
197;2060.99;544.206;1.21
198;2070.76;540.056;1.22
199;2070.76;538.102;1.22
200;2046.04;552.019;1.22
201;2011.55;559.832;1.22
202;2028.95;559.832;1.22
203;2075.64;528.336;1.22
204;2102.8;559.832;1.22
205;2112.87;561.785;1.23
206;2100.36;520.524;1.23
207;2063.43;550.066;1.23
208;2024.06;555.925;1.23
209;2038.71;555.925;1.23
210;2060.99;546.159;1.23
211;2068.32;532.243;1.23
212;2065.87;546.159;1.24
213;2033.83;563.738;1.24
214;1989.27;534.196;1.24
215;1972.18;540.056;1.24
216;2011.55;579.608;1.24
217;2043.6;550.066;1.24
218;2056.11;542.009;1.24
219;2053.67;542.009;1.25
220;2028.95;555.925;1.25
221;1994.16;569.842;1.25
222;2011.55;555.925;1.25
223;2063.43;538.102;1.25
224;2083.27;573.748;1.25
225;2095.48;557.878;1.25
226;2083.27;528.336;1.25999
227;2046.04;552.019;1.25999
228;2011.55;559.832;1.25999
229;2024.06;563.738;1.25999
230;2046.04;542.009;1.25999
231;2053.67;548.112;1.25999
232;2048.48;534.196;1.25999
233;2018.88;579.608;1.25999
234;1974.62;553.972;1.27
235;1957.23;528.336;1.27
236;2001.79;591.571;1.27
237;2028.95;555.925;1.27
238;2041.15;553.972;1.27
239;2041.15;544.206;1.27
240;2018.88;561.785;1.27
241;1984.39;559.832;1.27
242;2001.79;575.701;1.28
243;2051.23;530.29;1.28
244;2075.64;557.878;1.28
245;2088.15;579.608;1.28
246;2073.2;518.326;1.28
247;2041.15;555.925;1.28
248;2004.23;553.972;1.28
249;2011.55;567.888;1.29
250;2033.83;548.112;1.29
251;2041.15;552.019;1.29
252;2036.27;540.056;1.29
253;2009.11;581.561;1.29
254;1962.11;553.972;1.29
255;1947.46;538.102;1.29
256;1989.27;599.384;1.29
257;2016.43;557.878;1.3
258;2028.95;555.925;1.3
259;2026.51;550.066;1.3
260;2001.79;565.935;1.3
261;1974.62;565.935;1.3
262;1986.83;575.701;1.3
263;2038.71;536.149;1.3
264;2058.55;567.888;1.3
265;2073.2;579.608;1.31
266;2060.99;526.383;1.31
267;2024.06;557.878;1.31
268;1989.27;559.832;1.31
269;1999.34;567.888;1.31
270;2026.51;553.972;1.31
271;2028.95;548.112;1.31
272;2028.95;552.019;1.31
273;1999.34;581.561;1.31
274;1954.79;552.019;1.32
275;1937.39;548.112;1.32
276;1981.95;597.43;1.32
277;2006.67;559.832;1.32
278;2021.32;557.878;1.32
279;2021.32;555.925;1.32
280;1999.34;569.842;1.32
281;1969.74;575.701;1.32
282;1984.39;575.701;1.32999
283;2031.39;546.159;1.32999
284;2056.11;575.701;1.32999
285;2068.32;575.701;1.32999
286;2056.11;538.102;1.32999
287;2018.88;565.935;1.32999
288;1984.39;569.842;1.32999
289;1994.16;573.748;1.32999
290;2024.06;559.832;1.32999
291;2026.51;550.066;1.34
292;2024.06;561.785;1.34
293;1994.16;581.561;1.34
294;1949.9;550.066;1.34
295;1930.07;557.878;1.34
296;1974.62;599.384;1.34
297;2001.79;565.935;1.34
298;2013.99;561.785;1.34
299;2013.99;561.785;1.34
300;1989.27;571.795;1.35
301;1962.11;585.467;1.35
302;1977.07;573.748;1.35
303;2021.32;555.925;1.35
304;2048.48;587.42;1.35
305;2058.55;575.701;1.35
306;2041.15;546.159;1.35
307;2011.55;567.888;1.35
308;1974.62;571.795;1.35
309;1986.83;577.654;1.36
310;2011.55;563.738;1.36
311;2018.88;561.785;1.36
312;2016.43;561.785;1.36
313;1986.83;593.524;1.36
314;1945.02;563.738;1.36
315;1927.63;555.925;1.36
316;1966.99;607.196;1.36
317;1999.34;573.748;1.36
318;2009.11;567.888;1.37
319;2009.11;567.888;1.37
320;1989.27;577.654;1.37
321;1959.67;587.42;1.37
322;1972.18;587.42;1.37
323;2018.88;555.925;1.37
324;2043.6;585.467;1.37
325;2056.11;587.42;1.37
326;2046.04;544.206;1.37
327;2013.99;575.701;1.37
328;1977.07;583.514;1.38
329;1984.39;585.467;1.38
330;2009.11;571.795;1.38
331;2016.43;561.785;1.38
332;2013.99;571.795;1.38
333;1981.95;593.524;1.38
334;1942.58;561.785;1.38
335;1925.18;569.842;1.38
336;1964.55;607.196;1.38
337;1996.9;575.701;1.38
338;2006.67;571.795;1.39
339;2009.11;571.795;1.39
340;1986.83;585.467;1.39
341;1952.35;595.477;1.39
342;1969.74;585.467;1.39
343;2018.88;565.935;1.39
344;2043.6;599.384;1.39
345;2053.67;585.467;1.39
346;2043.6;555.925;1.39
347;2009.11;579.608;1.39
348;1972.18;573.748;1.39999
349;1984.39;589.618;1.39999
350;2004.23;569.842;1.39999
351;2011.55;577.654;1.39999
352;2006.67;559.832;1.39999
353;1979.51;607.196;1.39999
354;1937.39;581.561;1.39999
355;1917.86;555.925;1.39999
356;1964.55;621.113;1.39999
357;1989.27;579.608;1.39999
358;2006.67;583.514;1.41
359;2001.79;573.748;1.41
360;1981.95;589.618;1.41
361;1952.35;585.467;1.41
362;1964.55;601.337;1.41
363;2013.99;555.925;1.41
364;2038.71;583.514;1.41
365;2048.48;605.243;1.41
366;2038.71;546.159;1.41
367;2006.67;579.608;1.41
368;1972.18;579.608;1.42
369;1979.51;593.524;1.42
370;2004.23;573.748;1.42
371;2011.55;575.701;1.42
372;2006.67;567.888;1.42
373;1979.51;605.243;1.42
374;1934.95;579.608;1.42
375;1920.3;561.785;1.42
376;1959.67;623.066;1.42
377;1991.71;583.514;1.42
378;2004.23;583.514;1.42
379;2004.23;573.748;1.43
380;1979.51;591.571;1.43
381;1952.35;591.571;1.43
382;1964.55;599.384;1.43
383;2011.55;565.935;1.43
384;2038.71;591.571;1.43
385;2051.23;603.29;1.43
386;2038.71;550.066;1.43
387;2006.67;583.514;1.43
388;1972.18;585.467;1.43
389;1979.51;589.618;1.43
390;2001.79;579.608;1.43999
391;2006.67;571.795;1.43999
392;2006.67;575.701;1.43999
393;1974.62;601.337;1.43999
394;1930.07;573.748;1.43999
395;1912.67;569.842;1.43999
396;1954.79;619.16;1.43999
397;1986.83;583.514;1.43999
398;1996.9;577.654;1.43999
399;2001.79;577.654;1.43999
400;1979.51;589.618;1.43999
401;1947.46;595.477;1.45
402;1959.67;597.43;1.45
403;2009.11;567.888;1.45
404;2033.83;595.477;1.45
405;2043.6;595.477;1.45
406;2036.27;553.972;1.45
407;2001.79;583.514;1.45
408;1964.55;591.571;1.45
409;1977.07;593.524;1.45
410;1999.34;579.608;1.45
411;2009.11;567.888;1.45
412;2001.79;579.608;1.46
413;1974.62;599.384;1.46
414;1927.63;567.888;1.46
415;1912.67;575.701;1.46
416;1952.35;615.253;1.46
417;1981.95;585.467;1.46
418;1996.9;577.654;1.46
419;1999.34;579.608;1.46
420;1974.62;589.618;1.46
421;1949.9;599.384;1.46
422;1959.67;591.571;1.46
423;2006.67;571.795;1.46
424;2028.95;603.29;1.46
425;2038.71;589.618;1.47
426;2028.95;548.112;1.47
427;1994.16;581.561;1.47
428;1959.67;581.561;1.47
429;1972.18;595.477;1.47
430;1996.9;573.748;1.47
431;2001.79;583.514;1.47
432;2001.79;565.935;1.47
433;1974.62;611.347;1.47
434;1930.07;583.514;1.47
435;1912.67;555.925;1.47
436;1952.35;623.066;1.47
437;1981.95;585.467;1.48
438;1994.16;583.514;1.48
439;1994.16;575.701;1.48
440;1974.62;595.477;1.48
441;1945.02;587.42;1.48
442;1957.23;603.29;1.48
443;2006.67;559.832;1.48
444;2031.39;585.467;1.48
445;2041.15;607.196;1.48
446;2031.39;546.159;1.48
447;1996.9;581.561;1.48
448;1962.11;583.514;1.48
449;1972.18;593.524;1.48
450;1994.16;575.701;1.49
451;2001.79;579.608;1.49
452;2004.23;567.888;1.49
453;1972.18;605.243;1.49
454;1930.07;579.608;1.49
455;1912.67;561.785;1.49
456;1952.35;625.019;1.49
457;1981.95;583.514;1.49
458;1991.71;581.561;1.49
459;1991.71;575.701;1.49
460;1972.18;591.571;1.49
461;1942.58;589.618;1.49
462;1952.35;599.384;1.49
463;2004.23;563.738;1.5
464;2026.51;593.524;1.5
465;2038.71;601.337;1.5
466;2028.95;550.066;1.5
467;1996.9;585.467;1.5
468;1959.67;585.467;1.5
469;1966.99;591.571;1.5
470;1994.16;577.654;1.5
471;2001.79;571.795;1.5
472;1999.34;573.748;1.5
473;1969.74;605.243;1.5
474;1927.63;571.795;1.5
475;1910.23;569.842;1.5
476;1949.9;621.113;1.5
477;1979.51;583.514;1.50999
478;1991.71;575.701;1.50999
479;1994.16;575.701;1.50999
480;1974.62;587.42;1.50999
481;1942.58;595.477;1.50999
482;1954.79;593.524;1.50999
483;2004.23;565.935;1.50999
484;2026.51;597.43;1.50999
485;2036.27;597.43;1.50999
486;2031.39;553.972;1.50999
487;1996.9;583.514;1.50999
488;1962.11;587.42;1.50999
489;1969.74;593.524;1.50999
490;1991.71;581.561;1.52
491;1999.34;567.888;1.52
492;1994.16;579.608;1.52
493;1966.99;599.384;1.52
494;1927.63;567.888;1.52
495;1907.79;575.701;1.52
496;1945.02;613.3;1.52
497;1974.62;583.514;1.52
498;1989.27;579.608;1.52
499;1989.27;579.608;1.52
500;1969.74;587.42;1.52
501;1937.39;601.337;1.52
502;1949.9;587.42;1.52
503;1999.34;569.842;1.52
504;2026.51;591.571;1.53
505;2038.71;603.29;1.53
506;2031.39;550.066;1.53
507;1994.16;585.467;1.53
508;1959.67;585.467;1.53
509;1966.99;593.524;1.53
510;1991.71;577.654;1.53
511;1996.9;573.748;1.53
512;1994.16;575.701;1.53
513;1966.99;603.29;1.53
514;1925.18;575.701;1.53
515;1907.79;569.842;1.53
516;1949.9;617.206;1.53
517;1977.07;583.514;1.53
518;1991.71;577.654;1.53
519;1994.16;577.654;1.54
520;1972.18;587.42;1.54
521;1942.58;597.43;1.54
522;1952.35;595.477;1.54
523;2004.23;567.888;1.54
524;2026.51;595.477;1.54
525;2038.71;597.43;1.54
526;2031.39;553.972;1.54
527;1994.16;583.514;1.54
528;1962.11;587.42;1.54
529;1969.74;593.524;1.54
530;1994.16;579.608;1.54
531;1999.34;567.888;1.54
532;1996.9;579.608;1.54
533;1969.74;599.384;1.54
534;1927.63;567.888;1.55
535;1907.79;577.654;1.55
536;1947.46;615.253;1.55
537;1977.07;583.514;1.55
538;1989.27;577.654;1.55
539;1989.27;581.561;1.55
540;1972.18;589.618;1.55
541;1939.83;601.337;1.55
542;1952.35;589.618;1.55
543;2001.79;559.832;1.55
544;2026.51;583.514;1.55
545;2038.71;613.3;1.55
546;2028.95;550.066;1.55
547;1994.16;583.514;1.55
548;1959.67;579.608;1.56
549;1966.99;595.477;1.56
550;1991.71;573.748;1.56
551;1996.9;579.608;1.56
552;1996.9;565.935;1.56
553;1972.18;613.3;1.56
554;1930.07;579.608;1.56
555;1907.79;559.832;1.56
556;1952.35;623.066;1.56
557;1977.07;585.467;1.56
558;1989.27;585.467;1.56
559;1991.71;575.701;1.56
560;1972.18;591.571;1.56
561;1939.83;587.42;1.56
562;1949.9;603.29;1.56
563;2001.79;559.832;1.57
564;2026.51;587.42;1.57
565;2036.27;609.149;1.57
566;2028.95;546.159;1.57
567;1994.16;583.514;1.57
568;1962.11;585.467;1.57
569;1969.74;593.524;1.57
570;1991.71;577.654;1.57
571;1996.9;579.608;1.57
572;1996.9;571.795;1.57
573;1969.74;609.149;1.57
574;1927.63;577.654;1.57
575;1907.79;565.935;1.57
576;1947.46;625.019;1.57
577;1979.51;587.42;1.57
578;1989.27;585.467;1.57999
579;1991.71;577.654;1.57999
580;1974.62;591.571;1.57999
581;1942.58;593.524;1.57999
582;1952.35;601.337;1.57999
583;2004.23;561.785;1.57999
584;2026.51;593.524;1.57999
585;2038.71;603.29;1.57999
586;2028.95;550.066;1.57999
587;1994.16;585.467;1.57999
588;1962.11;587.42;1.57999
589;1966.99;595.477;1.57999
590;1989.27;577.654;1.57999
591;1999.34;573.748;1.57999
592;1996.9;575.701;1.57999
593;1969.74;607.196;1.59
594;1925.18;575.701;1.59
595;1905.35;571.795;1.59
596;1947.46;621.113;1.59
597;1977.07;585.467;1.59
598;1986.83;579.608;1.59
599;1991.71;579.608;1.59
600;1969.74;589.618;1.59
601;1942.58;599.384;1.59
602;1952.35;595.477;1.59
603;1999.34;567.888;1.59
604;2024.06;595.477;1.59
605;2036.27;597.43;1.59
606;2028.95;557.878;1.59
607;1994.16;583.514;1.59
608;1959.67;591.571;1.59
609;1966.99;591.571;1.6
610;1989.27;581.561;1.6
611;1999.34;565.935;1.6
612;1996.9;579.608;1.6
613;1969.74;601.337;1.6
614;1927.63;569.842;1.6
615;1907.79;575.701;1.6
616;1949.9;615.253;1.6
617;1974.62;583.514;1.6
618;1989.27;575.701;1.6
619;1991.71;577.654;1.6
620;1966.99;587.42;1.6
621;1942.58;601.337;1.6
622;1952.35;605.243;1.6
623;2001.79;557.878;1.6
624;2024.06;583.514;1.61
625;2033.83;611.347;1.61
626;2026.51;552.019;1.61
627;1994.16;581.561;1.61
628;1959.67;581.561;1.61
629;1964.55;593.524;1.61
630;1989.27;573.748;1.61
631;1996.9;581.561;1.61
632;1991.71;565.935;1.61
633;1966.99;609.149;1.61
634;1922.74;585.467;1.61
635;1907.79;559.832;1.61
636;1945.02;625.019;1.61
637;1972.18;583.514;1.61
638;1984.39;583.514;1.61
639;1986.83;573.748;1.61
640;1966.99;591.571;1.62
641;1937.39;583.514;1.62
642;1947.46;601.337;1.62
643;1999.34;557.878;1.62
644;2021.32;585.467;1.62
645;2036.27;607.196;1.62
646;2026.51;546.159;1.62
647;1989.27;581.561;1.62
648;1957.23;583.514;1.62
649;1962.11;589.618;1.62
650;1989.27;573.748;1.62
651;1996.9;575.701;1.62
652;1991.71;569.842;1.62
653;1964.55;605.243;1.62
654;1922.74;579.608;1.62
655;1902.91;561.785;1.63
656;1945.02;623.066;1.63
657;1972.18;583.514;1.63
658;1986.83;579.608;1.63
659;1986.83;573.748;1.63
660;1966.99;591.571;1.63
661;1939.83;589.618;1.63
662;1947.46;597.43;1.63
663;2001.79;561.785;1.63
664;2026.51;589.618;1.63
665;2038.71;599.384;1.63
666;2031.39;548.112;1.63
667;1999.34;579.608;1.63
668;1962.11;583.514;1.63
669;1969.74;591.571;1.63
670;1994.16;575.701;1.63
671;1999.34;569.842;1.64
672;1996.9;569.842;1.64
673;1972.18;601.337;1.64
674;1930.07;569.842;1.64
675;1910.23;567.888;1.64
676;1949.9;615.253;1.64
677;1981.95;581.561;1.64
678;1994.16;577.654;1.64
679;1994.16;575.701;1.64
680;1974.62;585.467;1.64
681;1942.58;593.524;1.64
682;1954.79;591.571;1.64
683;2004.23;565.935;1.64
684;2028.95;595.477;1.64
685;2038.71;595.477;1.64
686;2031.39;553.972;1.64
687;2001.79;581.561;1.64999
688;1962.11;587.42;1.64999
689;1969.74;589.618;1.64999
690;1994.16;577.654;1.64999
691;1999.34;565.935;1.64999
692;1996.9;577.654;1.64999
693;1969.74;597.43;1.64999
694;1927.63;563.738;1.64999
695;1910.23;573.748;1.64999
696;1949.9;611.347;1.64999
697;1977.07;579.608;1.64999
698;1986.83;573.748;1.64999
699;1989.27;575.701;1.64999
700;1972.18;587.42;1.64999
701;1937.39;589.618;1.64999
702;1947.46;595.477;1.64999
703;1999.34;559.832;1.64999
704;2021.32;589.618;1.66
705;2038.71;599.384;1.66
706;2031.39;548.112;1.66
707;1996.9;577.654;1.66
708;1962.11;585.467;1.66
709;1969.74;591.571;1.66
710;1994.16;573.748;1.66
711;2001.79;567.888;1.66
712;1996.9;571.795;1.66
713;1972.18;601.337;1.66
714;1930.07;569.842;1.66
715;1910.23;565.935;1.66
716;1949.9;617.206;1.66
717;1981.95;581.561;1.66
718;1994.16;573.748;1.66
719;1996.9;575.701;1.66
720;1977.07;583.514;1.67
721;1947.46;593.524;1.67
722;1957.23;591.571;1.67
723;2006.67;561.785;1.67
724;2031.39;595.477;1.67
725;2043.6;591.571;1.67
726;2033.83;553.972;1.67
727;1999.34;579.608;1.67
728;1964.55;585.467;1.67
729;1974.62;587.42;1.67
730;1996.9;573.748;1.67
731;2004.23;561.785;1.67
732;2004.23;575.701;1.67
733;1974.62;595.477;1.67
734;1932.51;561.785;1.67
735;1912.67;571.795;1.67
736;1952.35;609.149;1.67
737;1981.95;579.608;1.68
738;1996.9;573.748;1.68
739;1999.34;571.795;1.68
740;1977.07;589.618;1.68
741;1949.9;581.561;1.68
742;1957.23;601.337;1.68
743;2009.11;552.019;1.68
744;2036.27;577.654;1.68
745;2048.48;609.149;1.68
746;2038.71;544.206;1.68
747;2001.79;577.654;1.68
748;1966.99;573.748;1.68
749;1977.07;591.571;1.68
750;2001.79;571.795;1.68
751;2009.11;577.654;1.68
752;2004.23;561.785;1.68
753;1979.51;607.196;1.68
754;1937.39;579.608;1.68999
755;1915.42;552.019;1.68999
756;1954.79;619.16;1.68999
757;1984.39;581.561;1.68999
758;1996.9;579.608;1.68999
759;1999.34;571.795;1.68999
760;1979.51;587.42;1.68999
761;1947.46;583.514;1.68999
762;1957.23;597.43;1.68999
763;2006.67;553.972;1.68999
764;2031.39;581.561;1.68999
765;2043.6;603.29;1.68999
766;2038.71;542.009;1.68999
767;2001.79;575.701;1.68999
768;1966.99;577.654;1.68999
769;1974.62;589.618;1.68999
770;1999.34;569.842;1.68999
771;2009.11;571.795;1.68999
772;2004.23;565.935;1.7
773;1979.51;601.337;1.7
774;1934.95;575.701;1.7
775;1912.67;559.832;1.7
776;1952.35;617.206;1.7
777;1981.95;579.608;1.7
778;1994.16;577.654;1.7
779;1996.9;571.795;1.7
780;1977.07;585.467;1.7
781;1947.46;587.42;1.7
782;1957.23;593.524;1.7
783;2006.67;557.878;1.7
784;2031.39;587.42;1.7
785;2046.04;595.477;1.7
786;2038.71;546.159;1.7
787;2001.79;575.701;1.7
788;1966.99;579.608;1.7
789;1974.62;587.42;1.71
790;1999.34;573.748;1.71
791;2004.23;567.888;1.71
792;2004.23;569.842;1.71
793;1977.07;599.384;1.71
794;1932.51;567.888;1.71
795;1915.42;565.935;1.71
796;1954.79;613.3;1.71
797;1986.83;577.654;1.71
798;1999.34;571.795;1.71
799;2001.79;573.748;1.71
800;1981.95;583.514;1.71
801;1952.35;593.524;1.71
802;1962.11;591.571;1.71
803;2011.55;561.785;1.71
804;2038.71;593.524;1.71
805;2051.23;593.524;1.71
806;2041.15;552.019;1.72
807;2009.11;577.654;1.72
808;1972.18;585.467;1.72
809;1977.07;585.467;1.72
810;2004.23;571.795;1.72
811;2009.11;561.785;1.72
812;2009.11;577.654;1.72
813;1984.39;593.524;1.72
814;1939.83;559.832;1.72
815;1920.3;571.795;1.72
816;1959.67;605.243;1.72
817;1986.83;577.654;1.72
818;1999.34;581.561;1.72
819;2004.23;567.888;1.72
820;1981.95;587.42;1.72
821;1949.9;579.608;1.72
822;1959.67;599.384;1.72
823;2013.99;553.972;1.73
824;2038.71;577.654;1.73
825;2051.23;605.243;1.73
826;2043.6;542.009;1.73
827;2006.67;575.701;1.73
828;1974.62;573.748;1.73
829;1979.51;591.571;1.73
830;2004.23;569.842;1.73
831;2009.11;571.795;1.73
832;2009.11;559.832;1.73
833;1981.95;607.196;1.73
834;1939.83;575.701;1.73
835;1917.86;553.972;1.73
836;1959.67;617.206;1.73
837;1989.27;579.608;1.73
838;2004.23;577.654;1.73
839;2006.67;567.888;1.73
840;1986.83;585.467;1.74
841;1954.79;581.561;1.74
842;1962.11;595.477;1.74
843;2016.43;553.972;1.74
844;2038.71;579.608;1.74
845;2053.67;601.337;1.74
846;2043.6;544.206;1.74
847;2011.55;577.654;1.74
848;1974.62;579.608;1.74
849;1979.51;587.42;1.74
850;2004.23;569.842;1.74
851;2011.55;567.888;1.74
852;2009.11;563.738;1.74
853;1981.95;603.29;1.74
854;1937.39;573.748;1.74
855;1915.42;555.925;1.74
856;1952.35;617.206;1.74
857;1984.39;579.608;1.75
858;2001.79;573.748;1.75
859;2001.79;567.888;1.75
860;1981.95;585.467;1.75
861;1952.35;585.467;1.75
862;1959.67;593.524;1.75
863;2011.55;555.925;1.75
864;2038.71;585.467;1.75
865;2048.48;593.524;1.75
866;2041.15;546.159;1.75
867;2006.67;577.654;1.75
868;1972.18;579.608;1.75
869;1979.51;587.42;1.75
870;2004.23;571.795;1.75
871;2011.55;563.738;1.75
872;2009.11;567.888;1.75
873;1984.39;595.477;1.75
874;1942.58;565.935;1.75999
875;1917.86;561.785;1.75999
876;1957.23;609.149;1.75999
877;1989.27;575.701;1.75999
878;2001.79;569.842;1.75999
879;2004.23;569.842;1.75999
880;1986.83;583.514;1.75999
881;1954.79;591.571;1.75999
882;1964.55;585.467;1.75999
883;2016.43;559.832;1.75999
884;2038.71;591.571;1.75999
885;2051.23;589.618;1.75999
886;2043.6;550.066;1.75999
887;2011.55;577.654;1.75999
888;1974.62;581.561;1.75999
889;1979.51;585.467;1.75999
890;2004.23;573.748;1.75999
891;2011.55;557.878;1.77
892;2011.55;573.748;1.77
893;1984.39;591.571;1.77
894;1942.58;561.785;1.77
895;1920.3;569.842;1.77
896;1959.67;605.243;1.77
897;1989.27;577.654;1.77
898;2004.23;573.748;1.77
899;2004.23;567.888;1.77
900;1984.39;581.561;1.77
901;1954.79;587.42;1.77
902;1962.11;591.571;1.77
903;2016.43;557.878;1.77
904;2041.15;585.467;1.77
905;2056.11;593.524;1.77
906;2046.04;544.206;1.77
907;2011.55;575.701;1.78
908;1977.07;577.654;1.78
909;1984.39;585.467;1.78
910;2011.55;571.795;1.78
911;2016.43;561.785;1.78
912;2013.99;567.888;1.78
913;1989.27;595.477;1.78
914;1945.02;565.935;1.78
915;1920.3;561.785;1.78
916;1962.11;611.347;1.78
917;1991.71;577.654;1.78
918;2006.67;571.795;1.78
919;2009.11;569.842;1.78
920;1989.27;581.561;1.78
921;1957.23;591.571;1.78
922;1964.55;585.467;1.78
923;2016.43;561.785;1.78
924;2046.04;591.571;1.79
925;2056.11;585.467;1.79
926;2048.48;548.112;1.79
927;2016.43;575.701;1.79
928;1981.95;583.514;1.79
929;1986.83;583.514;1.79
930;2009.11;571.795;1.79
931;2018.88;561.785;1.79
932;2018.88;573.748;1.79
933;1991.71;589.618;1.79
934;1949.9;557.878;1.79
935;1925.18;569.842;1.79
936;1964.55;601.337;1.79
937;1994.16;579.608;1.79
938;2006.67;577.654;1.79
939;2009.11;565.935;1.79
940;1989.27;585.467;1.79
941;1959.67;575.701;1.8
942;1969.74;597.43;1.8
943;2021.32;550.066;1.8
944;2046.04;575.701;1.8
945;2058.55;603.29;1.8
946;2051.23;540.056;1.8
947;2013.99;573.748;1.8
948;1981.95;573.748;1.8
949;1986.83;585.467;1.8
950;2011.55;565.935;1.8
951;2021.32;571.795;1.8
952;2016.43;555.925;1.8
953;1994.16;601.337;1.8
954;1949.9;577.654;1.8
955;1927.63;550.066;1.8
956;1964.55;615.253;1.8
957;1996.9;577.654;1.81
958;2009.11;575.701;1.81
959;2013.99;567.888;1.81
960;1991.71;583.514;1.81
961;1959.67;579.608;1.81
962;1966.99;595.477;1.81
963;2018.88;552.019;1.81
964;2046.04;577.654;1.81
965;2058.55;599.384;1.81
966;2051.23;538.102;1.81
967;2016.43;573.748;1.81
968;1981.95;577.654;1.81
969;1986.83;585.467;1.81
970;2011.55;567.888;1.81
971;2018.88;565.935;1.81
972;2016.43;559.832;1.81
973;1991.71;599.384;1.81
974;1949.9;569.842;1.82
975;1927.63;555.925;1.82
976;1966.99;617.206;1.82
977;1996.9;573.748;1.82
978;2011.55;573.748;1.82
979;2013.99;569.842;1.82
980;1994.16;579.608;1.82
981;1962.11;585.467;1.82
982;1969.74;589.618;1.82
983;2021.32;555.925;1.82
984;2046.04;585.467;1.82
985;2056.11;591.571;1.82
986;2051.23;546.159;1.82
987;2018.88;573.748;1.82
988;1981.95;579.608;1.82
989;1986.83;585.467;1.82
990;2013.99;569.842;1.82
991;2024.06;561.785;1.82999
992;2018.88;565.935;1.82999
993;1994.16;591.571;1.82999
994;1952.35;567.888;1.82999
995;1927.63;559.832;1.82999
996;1966.99;609.149;1.82999
997;1996.9;577.654;1.82999
998;2009.11;571.795;1.82999
999;2011.55;569.842;1.82999
1000;1994.16;579.608;1.82999
1001;1959.67;589.618;1.82999
1002;1966.99;585.467;1.82999
1003;2021.32;561.785;1.82999
1004;2048.48;589.618;1.82999
1005;2060.99;587.42;1.82999
1006;2053.67;548.112;1.82999
1007;2018.88;575.701;1.82999
1008;1981.95;583.514;1.82999
1009;1989.27;583.514;1.84
1010;2011.55;571.795;1.84
1011;2021.32;557.878;1.84
1012;2021.32;571.795;1.84
1013;1999.34;589.618;1.84
1014;1954.79;555.925;1.84
1015;1934.95;548.112;1.84
1016;1969.74;609.149;1.84
1017;2001.79;575.701;1.84
1018;2013.99;577.654;1.84
1019;2013.99;563.738;1.84
1020;1996.9;585.467;1.84
1021;1964.55;577.654;1.84
1022;1972.18;597.43;1.84
1023;2024.06;550.066;1.84
1024;2053.67;571.795;1.84
1025;2063.43;603.29;1.85
1026;2056.11;540.056;1.85
1027;2024.06;571.795;1.85
1028;1986.83;569.842;1.85
1029;1994.16;583.514;1.85
1030;2016.43;565.935;1.85
1031;2024.06;571.795;1.85
1032;2021.32;553.972;1.85
1033;1996.9;605.243;1.85
1034;1954.79;573.748;1.85
1035;1930.07;550.066;1.85
1036;1969.74;615.253;1.85
1037;2001.79;575.701;1.85
1038;2016.43;575.701;1.85
1039;2016.43;565.935;1.85
1040;1994.16;581.561;1.85
1041;1966.99;579.608;1.85
1042;1974.62;593.524;1.86
1043;2026.51;550.066;1.86
1044;2051.23;575.701;1.86
1045;2065.87;597.43;1.86
1046;2058.55;538.102;1.86
1047;2026.51;571.795;1.86
1048;1989.27;573.748;1.86
1049;1994.16;583.514;1.86
1050;2018.88;567.888;1.86
1051;2024.06;565.935;1.86
1052;2021.32;559.832;1.86
1053;1996.9;595.477;1.86
1054;1952.35;571.795;1.86
1055;1930.07;553.972;1.86
1056;1969.74;615.253;1.86
1057;1999.34;575.701;1.86
1058;2013.99;571.795;1.86
1059;2016.43;567.888;1.86
1060;1999.34;581.561;1.87
1061;1966.99;583.514;1.87
1062;1974.62;587.42;1.87
1063;2026.51;553.972;1.87
1064;2051.23;585.467;1.87
1065;2063.43;591.571;1.87
1066;2056.11;542.009;1.87
1067;2024.06;573.748;1.87
1068;1989.27;577.654;1.87
1069;1994.16;581.561;1.87
1070;2018.88;567.888;1.87
1071;2028.95;561.785;1.87
1072;2026.51;565.935;1.87
1073;1999.34;591.571;1.87
1074;1954.79;563.738;1.87
1075;1934.95;561.785;1.87
1076;1972.18;609.149;1.87
1077;2004.23;573.748;1.88
1078;2018.88;567.888;1.88
1079;2018.88;569.842;1.88
1080;2001.79;579.608;1.88
1081;1969.74;589.618;1.88
1082;1977.07;585.467;1.88
1083;2028.95;557.878;1.88
1084;2056.11;589.618;1.88
1085;2065.87;583.514;1.88
1086;2060.99;548.112;1.88
1087;2031.39;573.748;1.88
1088;1991.71;581.561;1.88
1089;1999.34;579.608;1.88
1090;2026.51;569.842;1.88
1091;2033.83;557.878;1.88
1092;2028.95;573.748;1.88
1093;2004.23;587.42;1.88
1094;1959.67;569.842;1.89
1095;1934.95;555.925;1.89
1096;1979.51;611.347;1.89
1097;2006.67;573.748;1.89
1098;2021.32;571.795;1.89
1099;2024.06;569.842;1.89
1100;2001.79;579.608;1.89
1101;1972.18;583.514;1.89
1102;1981.95;587.42;1.89
1103;2033.83;552.019;1.89
1104;2058.55;583.514;1.89
1105;2070.76;589.618;1.89
1106;2065.87;540.056;1.89
1107;2031.39;573.748;1.89
1108;1996.9;577.654;1.89
1109;1999.34;583.514;1.89
1110;2026.51;569.842;1.89
1111;2036.27;559.832;1.89999
1112;2031.39;565.935;1.89999
1113;2009.11;595.477;1.89999
1114;1964.55;561.785;1.89999
1115;1939.83;563.738;1.89999
1116;1979.51;609.149;1.89999
1117;2009.11;571.795;1.89999
1118;2024.06;567.888;1.89999
1119;2026.51;567.888;1.89999
1120;2006.67;579.608;1.89999
1121;1977.07;587.42;1.89999
1122;1981.95;583.514;1.89999
1123;2036.27;557.878;1.89999
1124;2060.99;591.571;1.89999
1125;2073.2;583.514;1.89999
1126;2065.87;546.159;1.89999
1127;2033.83;571.795;1.89999
1128;1994.16;579.608;1.91
1129;2001.79;583.514;1.91
1130;2028.95;569.842;1.91
1131;2038.71;557.878;1.91
1132;2036.27;571.795;1.91
1133;2011.55;589.618;1.91
1134;1969.74;577.654;1.91
1135;1942.58;544.206;1.91
1136;1981.95;607.196;1.91
1137;2013.99;573.748;1.91
1138;2028.95;579.608;1.91
1139;2028.95;563.738;1.91
1140;2009.11;585.467;1.91
1141;1979.51;577.654;1.91
1142;1984.39;595.477;1.91
1143;2036.27;548.112;1.91
1144;2065.87;571.795;1.91
1145;2078.39;601.337;1.92
1146;2068.32;536.149;1.92
1147;2036.27;571.795;1.92
1148;1999.34;571.795;1.92
1149;2004.23;583.514;1.92
1150;2031.39;563.738;1.92
1151;2041.15;567.888;1.92
1152;2036.27;555.925;1.92
1153;2011.55;599.384;1.92
1154;1964.55;571.795;1.92
1155;1942.58;548.112;1.92
1156;1981.95;615.253;1.92
1157;2013.99;573.748;1.92
1158;2028.95;573.748;1.92
1159;2028.95;565.935;1.92
1160;2009.11;581.561;1.92
1161;1977.07;577.654;1.92
1162;1984.39;591.571;1.92
1163;2033.83;552.019;1.93
1164;2060.99;575.701;1.93
1165;2073.2;595.477;1.93
1166;2068.32;540.056;1.93
1167;2033.83;571.795;1.93
1168;1994.16;573.748;1.93
1169;1999.34;581.561;1.93
1170;2028.95;565.935;1.93
1171;2036.27;565.935;1.93
1172;2033.83;561.785;1.93
1173;2009.11;593.524;1.93
1174;1966.99;567.888;1.93
1175;1942.58;555.925;1.93
1176;1981.95;613.3;1.93
1177;2013.99;573.748;1.93
1178;2026.51;569.842;1.93
1179;2028.95;565.935;1.93
1180;2013.99;579.608;1.93
1181;1979.51;583.514;1.93
1182;1986.83;587.42;1.93999
1183;2041.15;553.972;1.93999
1184;2065.87;585.467;1.93999
1185;2075.64;589.618;1.93999
1186;2070.76;542.009;1.93999
1187;2036.27;573.748;1.93999
1188;2001.79;575.701;1.93999
1189;2009.11;581.561;1.93999
1190;2033.83;567.888;1.93999
1191;2041.15;559.832;1.93999
1192;2036.27;563.738;1.93999
1193;2011.55;593.524;1.93999
1194;1969.74;559.832;1.93999
1195;1945.02;559.832;1.93999
1196;1986.83;609.149;1.93999
1197;2018.88;573.748;1.93999
1198;2031.39;567.888;1.93999
1199;2036.27;567.888;1.93999
1200;2018.88;579.608;1.95
1201;1986.83;587.42;1.95
1202;1991.71;581.561;1.95
1203;2041.15;557.878;1.95
1204;2070.76;589.618;1.95
1205;2085.71;583.514;1.95
1206;2073.2;546.159;1.95
1207;2043.6;571.795;1.95
1208;2006.67;579.608;1.95
1209;2011.55;581.561;1.95
1210;2038.71;569.842;1.95
1211;2046.04;553.972;1.95
1212;2043.6;571.795;1.95
1213;2021.32;603.29;1.95
1214;1974.62;573.748;1.95
1215;1949.9;544.206;1.95
1216;1991.71;609.149;1.95
1217;2024.06;577.654;1.96
1218;2036.27;573.748;1.96
1219;2038.71;563.738;1.96
1220;2018.88;583.514;1.96
1221;1989.27;571.795;1.96
1222;1996.9;595.477;1.96
1223;2046.04;548.112;1.96
1224;2070.76;573.748;1.96
1225;2085.71;599.384;1.96
1226;2078.39;536.149;1.96
1227;2043.6;569.842;1.96
1228;2009.11;569.842;1.96
1229;2011.55;579.608;1.96
1230;2038.71;563.738;1.96
1231;2046.04;567.888;1.96
1232;2041.15;555.925;1.96
1233;2016.43;599.384;1.96
1234;1972.18;571.795;1.96
1235;1947.46;550.066;1.97
1236;1989.27;613.3;1.97
1237;2021.32;571.795;1.97
1238;2036.27;573.748;1.97
1239;2036.27;563.738;1.97
1240;2018.88;583.514;1.97
1241;1986.83;577.654;1.97
1242;1991.71;593.524;1.97
1243;2046.04;550.066;1.97
1244;2070.76;575.701;1.97
1245;2083.27;593.524;1.97
1246;2078.39;536.149;1.97
1247;2043.6;573.748;1.97
1248;2006.67;571.795;1.97
1249;2011.55;583.514;1.97
1250;2038.71;565.935;1.97
1251;2046.04;561.785;1.97
1252;2046.04;561.785;1.98
1253;2018.88;597.43;1.98
1254;1974.62;565.935;1.98
1255;1949.9;552.019;1.98
1256;1991.71;611.347;1.98
1257;2021.32;571.795;1.98
1258;2036.27;569.842;1.98
1259;2038.71;565.935;1.98
1260;2021.32;579.608;1.98
1261;1989.27;581.561;1.98
1262;1994.16;585.467;1.98
1263;2046.04;553.972;1.98
1264;2073.2;579.608;1.98
1265;2085.71;587.42;1.98
1266;2078.39;542.009;1.98
1267;2048.48;569.842;1.98
1268;2009.11;577.654;1.98
1269;2013.99;581.561;1.99
1270;2041.15;565.935;1.99
1271;2051.23;555.925;1.99
1272;2048.48;565.935;1.99
1273;2021.32;591.571;1.99
1274;1979.51;557.878;1.99
1275;1954.79;561.785;1.99
1276;1994.16;607.196;1.99
1277;2026.51;573.748;1.99
1278;2041.15;565.935;1.99
1279;2043.6;565.935;1.99
1280;2024.06;577.654;1.99
1281;1991.71;589.618;1.99
1282;1996.9;581.561;1.99
1283;2051.23;559.832;1.99
1284;2075.64;587.42;1.99
1285;2090.59;583.514;1.99
1286;2080.83;546.159;2
1287;2048.48;573.748;2
1288;2013.99;579.608;2
1289;2018.88;581.561;2
1290;2043.6;567.888;2
1291;2051.23;553.972;2
1292;2051.23;561.785;2
1293;2024.06;595.477;2
1294;1979.51;567.888;2
1295;1957.23;552.019;2
1296;1996.9;615.253;2
1297;2028.95;571.795;2
1298;2041.15;569.842;2
1299;2046.04;565.935;2
1300;2026.51;579.608;2
1301;1994.16;581.561;2
1302;2001.79;585.467;2
1303;2053.67;553.972;2.00999
1304;2080.83;579.608;2.00999
1305;2095.48;589.618;2.00999
1306;2085.71;540.056;2.00999
1307;2053.67;573.748;2.00999
1308;2016.43;577.654;2.00999
1309;2021.32;581.561;2.00999
1310;2046.04;567.888;2.00999
1311;2053.67;557.878;2.00999
1312;2053.67;565.935;2.00999
1313;2028.95;591.571;2.00999
1314;1984.39;559.832;2.00999
1315;1959.67;561.785;2.00999
1316;1999.34;607.196;2.00999
1317;2033.83;571.795;2.00999
1318;2051.23;565.935;2.00999
1319;2053.67;565.935;2.00999
1320;2033.83;577.654;2.02
1321;1999.34;585.467;2.02
1322;2006.67;579.608;2.02
1323;2056.11;557.878;2.02
1324;2080.83;587.42;2.02
1325;2095.48;579.608;2.02
1326;2085.71;546.159;2.02
1327;2053.67;571.795;2.02
1328;2016.43;579.608;2.02
1329;2024.06;581.561;2.02
1330;2048.48;569.842;2.02
1331;2058.55;569.842;2.02
1332;2058.55;552.019;2.02
1333;2031.39;599.384;2.02
1334;1986.83;573.748;2.02
1335;1964.55;546.159;2.02
1336;2004.23;609.149;2.03
1337;2036.27;573.748;2.03
1338;2051.23;575.701;2.03
1339;2053.67;559.832;2.03
1340;2033.83;583.514;2.03
1341;2001.79;573.748;2.03
1342;2006.67;593.524;2.03
1343;2060.99;548.112;2.03
1344;2085.71;571.795;2.03
1345;2100.36;599.384;2.03
1346;2093.04;536.149;2.03
1347;2058.55;569.842;2.03
1348;2021.32;569.842;2.03
1349;2026.51;583.514;2.03
1350;2053.67;559.832;2.03
1351;2060.99;567.888;2.03
1352;2063.43;555.925;2.04
1353;2036.27;599.384;2.04
1354;1994.16;571.795;2.04
1355;1966.99;548.112;2.04
1356;2006.67;611.347;2.04
1357;2038.71;575.701;2.04
1358;2051.23;571.795;2.04
1359;2053.67;565.935;2.04
1360;2033.83;581.561;2.04
1361;1999.34;579.608;2.04
1362;2009.11;587.42;2.04
1363;2060.99;548.112;2.04
1364;2088.15;575.701;2.04
1365;2100.36;591.571;2.04
1366;2095.48;536.149;2.04
1367;2060.99;569.842;2.05
1368;2021.32;573.748;2.05
1369;2028.95;581.561;2.05
1370;2056.11;565.935;2.05
1371;2063.43;563.738;2.05
1372;2063.43;557.878;2.05
1373;2041.15;597.43;2.05
1374;1994.16;563.738;2.05
1375;1966.99;552.019;2.05
1376;2006.67;611.347;2.05
1377;2041.15;571.795;2.05
1378;2053.67;567.888;2.05
1379;2056.11;563.738;2.05
1380;2036.27;577.654;2.05
1381;2004.23;579.608;2.05
1382;2009.11;583.514;2.05
1383;2065.87;552.019;2.06
1384;2090.59;583.514;2.06
1385;2102.8;587.42;2.06
1386;2095.48;540.056;2.06
1387;2060.99;571.795;2.06
1388;2024.06;575.701;2.06
1389;2028.95;579.608;2.06
1390;2058.55;567.888;2.06
1391;2065.87;559.832;2.06
1392;2060.99;565.935;2.06
1393;2038.71;589.618;2.06
1394;1994.16;557.878;2.06
1395;1969.74;559.832;2.06
1396;2009.11;607.196;2.06
1397;2041.15;571.795;2.06
1398;2056.11;563.738;2.06
1399;2060.99;565.935;2.07
1400;2038.71;575.701;2.07
1401;2006.67;589.618;2.07
1402;2013.99;581.561;2.07
1403;2065.87;557.878;2.07
1404;2090.59;589.618;2.07
1405;2107.99;583.514;2.07
1406;2102.8;548.112;2.07
1407;2068.32;571.795;2.07
1408;2028.95;579.608;2.07
1409;2036.27;579.608;2.07
1410;2060.99;567.888;2.07
1411;2070.76;571.795;2.07
1412;2068.32;550.066;2.07
1413;2041.15;601.337;2.07
1414;1999.34;573.748;2.07
1415;1972.18;542.009;2.07999
1416;2013.99;607.196;2.07999
1417;2046.04;573.748;2.07999
1418;2060.99;571.795;2.07999
1419;2063.43;559.832;2.07999
1420;2043.6;581.561;2.07999
1421;2011.55;575.701;2.07999
1422;2018.88;591.571;2.07999
1423;2068.32;548.112;2.07999
1424;2100.36;571.795;2.07999
1425;2110.43;599.384;2.07999
1426;2105.55;536.149;2.07999
1427;2073.2;569.842;2.07999
1428;2036.27;569.842;2.07999
1429;2041.15;583.514;2.07999
1430;2068.32;563.738;2.07999
1431;2075.64;565.935;2.09
1432;2070.76;555.925;2.09
1433;2048.48;599.384;2.09
1434;2004.23;571.795;2.09
1435;1979.51;550.066;2.09
1436;2016.43;615.253;2.09
1437;2053.67;573.748;2.09
1438;2065.87;569.842;2.09
1439;2068.32;563.738;2.09
1440;2051.23;577.654;2.09
1441;2013.99;577.654;2.09
1442;2018.88;589.618;2.09
1443;2070.76;546.159;2.09
1444;2097.92;575.701;2.09
1445;2110.43;591.571;2.09
1446;2105.55;534.196;2.1
1447;2070.76;571.795;2.1
1448;2036.27;571.795;2.1
1449;2041.15;581.561;2.1
1450;2068.32;563.738;2.1
1451;2075.64;561.785;2.1
1452;2073.2;559.832;2.1
1453;2051.23;593.524;2.1
1454;2006.67;563.738;2.1
1455;1979.51;552.019;2.1
1456;2018.88;611.347;2.1
1457;2053.67;571.795;2.1
1458;2068.32;567.888;2.1
1459;2068.32;563.738;2.1
1460;2053.67;577.654;2.1
1461;2021.32;581.561;2.11
1462;2026.51;581.561;2.11
1463;2078.39;552.019;2.11
1464;2105.55;581.561;2.11
1465;2115.31;587.42;2.11
1466;2112.87;540.056;2.11
1467;2078.39;571.795;2.11
1468;2046.04;573.748;2.11
1469;2048.48;579.608;2.11
1470;2075.64;565.935;2.11
1471;2083.27;553.972;2.11
1472;2080.83;565.935;2.11
1473;2058.55;591.571;2.11
1474;2013.99;557.878;2.11
1475;1986.83;559.832;2.11
1476;2026.51;603.29;2.11
1477;2058.55;571.795;2.12
1478;2073.2;565.935;2.12
1479;2075.64;563.738;2.12
1480;2058.55;577.654;2.12
1481;2024.06;585.467;2.12
1482;2031.39;579.608;2.12
1483;2083.27;555.925;2.12
1484;2112.87;587.42;2.12
1485;2125.08;579.608;2.12
1486;2117.76;544.206;2.12
1487;2083.27;571.795;2.12
1488;2046.04;577.654;2.12
1489;2051.23;581.561;2.12
1490;2075.64;565.935;2.12
1491;2088.15;559.832;2.12
1492;2083.27;559.832;2.13
1493;2058.55;593.524;2.13
1494;2013.99;563.738;2.13
1495;1986.83;552.019;2.13
1496;2028.95;611.347;2.13
1497;2063.43;569.842;2.13
1498;2075.64;565.935;2.13
1499;2078.39;563.738;2.13
1500;2063.43;577.654;2.13
1501;2031.39;581.561;2.13
1502;2036.27;585.467;2.13
1503;2088.15;552.019;2.13
1504;2115.31;581.561;2.13
1505;2127.52;587.42;2.13
1506;2120.2;538.102;2.13
1507;2088.15;571.795;2.13
1508;2051.23;577.654;2.14
1509;2053.67;579.608;2.14
1510;2080.83;565.935;2.14
1511;2090.59;553.972;2.14
1512;2085.71;565.935;2.14
1513;2065.87;589.618;2.14
1514;2018.88;555.925;2.14
1515;1989.27;559.832;2.14
1516;2033.83;603.29;2.14
1517;2068.32;569.842;2.14
1518;2080.83;561.785;2.14
1519;2083.27;565.935;2.14
1520;2065.87;577.654;2.14
1521;2031.39;587.42;2.14
1522;2036.27;581.561;2.14
1523;2090.59;555.925;2.14
1524;2120.2;589.618;2.14999
1525;2132.71;581.561;2.14999
1526;2125.08;544.206;2.14999
1527;2093.04;567.888;2.14999
1528;2053.67;579.608;2.14999
1529;2058.55;581.561;2.14999
1530;2083.27;561.785;2.14999
1531;2093.04;567.888;2.14999
1532;2090.59;550.066;2.14999
1533;2068.32;601.337;2.14999
1534;2021.32;571.795;2.14999
1535;1996.9;538.102;2.14999
1536;2033.83;607.196;2.14999
1537;2068.32;573.748;2.14999
1538;2083.27;573.748;2.14999
1539;2085.71;559.832;2.16
1540;2068.32;583.514;2.16
1541;2033.83;573.748;2.16
1542;2036.27;593.524;2.16
1543;2088.15;546.159;2.16
1544;2120.2;571.795;2.16
1545;2129.96;597.43;2.16
1546;2127.52;534.196;2.16
1547;2090.59;571.795;2.16
1548;2053.67;567.888;2.16
1549;2058.55;583.514;2.16
1550;2088.15;561.785;2.16
1551;2097.92;565.935;2.16
1552;2095.48;555.925;2.16
1553;2070.76;599.384;2.16
1554;2026.51;569.842;2.16
1555;1999.34;548.112;2.17
1556;2041.15;615.253;2.17
1557;2078.39;569.842;2.17
1558;2090.59;569.842;2.17
1559;2093.04;561.785;2.17
1560;2073.2;579.608;2.17
1561;2043.6;577.654;2.17
1562;2048.48;591.571;2.17
1563;2100.36;548.112;2.17
1564;2127.52;577.654;2.17
1565;2142.48;593.524;2.17
1566;2137.59;534.196;2.17
1567;2100.36;567.888;2.17
1568;2063.43;571.795;2.17
1569;2068.32;579.608;2.17
1570;2095.48;561.785;2.17
1571;2100.36;557.878;2.18
1572;2097.92;559.832;2.18
1573;2073.2;593.524;2.18
1574;2031.39;563.738;2.18
1575;2004.23;552.019;2.18
1576;2046.04;607.196;2.18
1577;2080.83;571.795;2.18
1578;2093.04;565.935;2.18
1579;2097.92;561.785;2.18
1580;2078.39;577.654;2.18
1581;2048.48;581.561;2.18
1582;2048.48;585.467;2.18
1583;2102.8;552.019;2.18
1584;2132.71;581.561;2.18
1585;2144.92;585.467;2.18
1586;2140.03;540.056;2.18999
1587;2107.99;569.842;2.18999
1588;2068.32;573.748;2.18999
1589;2070.76;579.608;2.18999
1590;2100.36;565.935;2.18999
1591;2110.43;553.972;2.18999
1592;2110.43;563.738;2.18999
1593;2083.27;587.42;2.18999
1594;2038.71;557.878;2.18999
1595;2013.99;559.832;2.18999
1596;2053.67;603.29;2.18999
1597;2085.71;573.748;2.18999
1598;2102.8;563.738;2.18999
1599;2105.55;561.785;2.18999
1600;2085.71;575.701;2.18999
1601;2051.23;587.42;2.18999
1602;2058.55;579.608;2.2
1603;2110.43;555.925;2.2
1604;2137.59;587.42;2.2
1605;2154.68;579.608;2.2
1606;2147.36;544.206;2.2
1607;2112.87;567.888;2.2
1608;2075.64;567.888;2.2
1609;2078.39;583.514;2.2
1610;2107.99;559.832;2.2
1611;2115.31;567.888;2.2
1612;2112.87;550.066;2.2
1613;2088.15;599.384;2.2
1614;2046.04;571.795;2.2
1615;2018.88;544.206;2.2
1616;2060.99;605.243;2.2
1617;2093.04;573.748;2.2
1618;2107.99;571.795;2.21
1619;2112.87;561.785;2.21
1620;2088.15;579.608;2.21
1621;2058.55;575.701;2.21
1622;2060.99;593.524;2.21
1623;2115.31;544.206;2.21
1624;2144.92;569.842;2.21
1625;2159.87;597.43;2.21
1626;2152.24;532.243;2.21
1627;2120.2;567.888;2.21
1628;2080.83;567.888;2.21
1629;2083.27;581.561;2.21
1630;2112.87;561.785;2.21
1631;2122.64;563.738;2.21
1632;2120.2;553.972;2.21
1633;2095.48;599.384;2.22
1634;2048.48;567.888;2.22
1635;2024.06;548.112;2.22
1636;2060.99;613.3;2.22
1637;2097.92;571.795;2.22
1638;2112.87;565.935;2.22
1639;2112.87;559.832;2.22
1640;2095.48;579.608;2.22
1641;2063.43;575.701;2.22
1642;2065.87;587.42;2.22
1643;2120.2;546.159;2.22
1644;2147.36;577.654;2.22
1645;2162.31;593.524;2.22
1646;2154.68;536.149;2.22
1647;2120.2;571.795;2.23
1648;2083.27;571.795;2.23
