<WeldAnalyseData xmlns:i="http:www.w3.org/2001/XMLSchema-instance">
<WeldParameter>
<TimeStamp>DT#2024-01-25-10:40:25</TimeStamp>
<Generator>SG-22-10000</Generator>
<GenFreq>20</GenFreq>
<MaxForce>8000</MaxForce>
<MaxPower>10000</MaxPower>
<RunupPressure>1.5</RunupPressure>
<RunupDist>10</RunupDist>
<RunPress>0.8</RunPress>
<ShakeDelay>0.03</ShakeDelay>
<ShakeTime>0.3</ShakeTime>
<RunBackPress1>6</RunBackPress1>
<RunBackPress2>2</RunBackPress2>
<RunBackDist>1</RunBackDist>
<TrigValue>500</TrigValue>
<TrigModeUnit>W</TrigModeUnit>
<WeldModeUnit>Ws</WeldModeUnit>
<PressNr>0</PressNr>
<MaxLoss>1500</MaxLoss>
</WeldParameter>
<WeldSets>
<WeldSet>
<PressRiseTime>0</PressRiseTime>
<RunPressure>1</RunPressure>
<Amplitude>86</Amplitude>
<WeldMode>3270</WeldMode>
</WeldSet>
</WeldSets>
<WeldValue>
<WeldNr>2996</WeldNr>
<RecipeName>RickStyle</RecipeName>
<WeldTime>1688</WeldTime>
<DistDiff>2.45</DistDiff>
<DistAbs>78.15</DistAbs>
<Energy>3271.06</Energy>
<MaxPower>2164.58</MaxPower>
<CycleTime>6030</CycleTime>
<TrigForce>500.748</TrigForce>
<TrigDist>75.7</TrigDist>
<RunSpeed>67.529</RunSpeed>
<MaxForce>625.019</MaxForce>
<LossPower>324.202</LossPower>
</WeldValue>
</WeldAnalyseData>
#CSV-START#
ms;Power[W];Force[N];Distance[mm]
1;0;0;0
2;0;498.795;0
3;0;500.748;0
4;0;500.748;0
5;0;500.748;0
6;0;502.701;0
7;0;502.701;0
8;0;486.831;0
9;0;435.56;0.0100021
10;0;413.831;0.0300064
11;0;374.279;0.0600052
12;11.5017;368.419;0.100006
13;65.8246;340.831;0.139999
14;139.985;328.867;0.18
15;213.839;309.091;0.220001
16;275.792;307.138;0.260002
17;327.368;297.372;0.300003
18;386.879;311.045;0.350006
19;460.734;279.55;0.389999
20;530.011;301.279;0.43
21;598.983;326.914;0.470001
22;663.377;287.362;0.5
23;729.907;317.148;0.530006
24;791.555;319.102;0.550003
25;853.507;338.633;0.580002
26;927.362;332.774;0.600006
27;989.315;348.643;0.610001
28;1046.08;340.831;0.630005
29;1087.89;392.102;0.639999
30;1110.17;382.092;0.650002
31;1127.56;366.466;0.650002
32;1174.26;427.503;0.660004
33;1223.7;401.868;0.670006
34;1260.93;405.774;0.670006
35;1292.97;396.008;0.68
36;1317.69;409.925;0.68
37;1325.02;407.971;0.690002
38;1344.86;429.456;0.700005
39;1408.94;394.055;0.700005
40;1453.5;413.831;0.710007
41;1487.99;437.513;0.720001
42;1515.15;384.045;0.720001
43;1520.03;421.644;0.730003
44;1515.15;419.691;0.740005
45;1524.91;429.456;0.740005
46;1569.47;415.784;0.75
47;1599.07;423.597;0.75
48;1621.35;407.971;0.760002
49;1628.68;449.232;0.770004
50;1616.47;429.456;0.770004
51;1606.4;409.925;0.780006
52;1648.51;469.008;0.790001
53;1695.51;435.56;0.790001
54;1727.56;431.654;0.800003
55;1752.28;427.503;0.810005
56;1759.6;445.326;0.82
57;1754.72;451.186;0.82
58;1762.04;461.196;0.830002
59;1823.69;427.503;0.840004
60;1870.69;457.289;0.840004
61;1902.73;470.962;0.850006
62;1915.25;421.644;0.850006
63;1900.29;455.336;0.860001
64;1878.01;461.196;0.860001
65;1882.9;470.962;0.870003
66;1920.13;449.232;0.870003
67;1947.29;463.149;0.880005
68;1957.06;441.42;0.880005
69;1949.73;490.738;0.889999
70;1917.69;475.112;0.889999
71;1892.97;439.467;0.900002
72;1929.9;498.795;0.900002
73;1974.45;480.972;0.900002
74;1999.17;480.972;0.910004
75;2011.38;465.102;0.910004
76;2006.5;488.784;0.920006
77;1981.78;480.972;0.920006
78;1981.78;504.654;0.93
79;2036.1;459.243;0.93
80;2073.03;480.972;0.93
81;2097.75;516.373;0.940002
82;2097.75;457.289;0.940002
83;2075.77;482.925;0.950005
84;2040.98;482.925;0.950005
85;2038.54;502.701;0.950005
86;2075.77;477.065;0.960007
87;2090.42;488.784;0.960007
88;2100.19;470.962;0.970001
89;2085.54;522.477;0.970001
90;2048.61;498.795;0.970001
91;2013.82;465.102;0.980003
92;2048.61;528.336;0.980003
93;2087.98;498.795;0.990005
94;2107.82;500.748;0.990005
95;2120.03;490.738;0.990005
96;2102.94;512.467;1
97;2068.14;502.701;1
98;2063.26;526.383;1
99;2112.7;477.065;1.01
100;2147.19;500.748;1.01
101;2164.58;532.243;1.02
102;2159.7;470.962;1.02
103;2127.35;500.748;1.02
104;2087.98;500.748;1.03001
105;2085.54;516.373;1.03001
106;2122.47;496.597;1.03001
107;2139.86;502.701;1.04
108;2144.75;488.784;1.04
109;2127.35;534.196;1.04
110;2083.1;508.56;1.05
111;2045.87;482.925;1.05
112;2070.59;548.112;1.05
113;2110.26;510.514;1.06001
114;2127.35;510.514;1.06001
115;2130.1;498.795;1.06001
116;2115.14;518.326;1.07
117;2075.77;516.373;1.07
118;2065.7;530.29;1.07
119;2115.14;488.784;1.08
120;2144.75;516.373;1.08
121;2162.14;538.102;1.08
122;2154.51;477.065;1.09
123;2124.91;512.467;1.09
124;2080.66;516.373;1.09
125;2073.03;528.336;1.09
126;2102.94;512.467;1.10001
127;2112.7;510.514;1.10001
128;2115.14;506.607;1.10001
129;2097.75;542.009;1.10001
130;2058.38;514.42;1.11
131;2031.22;500.748;1.11
132;2070.59;561.785;1.11
133;2115.14;522.477;1.12
134;2134.98;518.326;1.12
135;2137.42;514.42;1.12
136;2115.14;528.336;1.12
137;2078.22;534.196;1.13
138;2065.7;538.102;1.13
139;2112.7;500.748;1.13
140;2142.3;530.29;1.13
141;2152.07;540.056;1.14
142;2149.63;490.738;1.14
143;2112.7;522.477;1.14
144;2070.59;520.524;1.14
145;2060.82;534.196;1.15
146;2085.54;516.373;1.15
147;2092.86;522.477;1.15
148;2090.42;506.607;1.15
149;2070.59;553.972;1.15
150;2026.33;524.43;1.16
151;1984.22;502.701;1.16
152;2013.82;567.888;1.16
153;2053.5;528.336;1.16
154;2065.7;526.383;1.17001
155;2073.03;518.326;1.17001
156;2053.5;538.102;1.17001
157;2018.7;532.243;1.17001
158;2008.94;548.112;1.17001
159;2060.82;504.654;1.18
160;2087.98;534.196;1.18
161;2105.38;553.972;1.18
162;2105.38;492.691;1.18
163;2075.77;528.336;1.18
164;2033.66;530.29;1.19
165;2028.78;542.009;1.19
166;2058.38;526.383;1.19
167;2070.59;524.43;1.19
168;2073.03;520.524;1.19
169;2055.94;555.925;1.19
170;2011.38;528.336;1.2
171;1976.89;516.373;1.2
172;2006.5;577.654;1.2
173;2043.42;536.149;1.2
174;2060.82;530.29;1.2
175;2063.26;526.383;1.2
176;2045.87;542.009;1.21001
177;2013.82;548.112;1.21001
178;2001.61;552.019;1.21001
179;2048.61;518.326;1.21001
180;2078.22;548.112;1.21001
181;2092.86;553.972;1.22
182;2087.98;504.654;1.22
183;2058.38;532.243;1.22
184;2016.26;530.29;1.22
185;2006.5;550.066;1.22
186;2033.66;528.336;1.22
187;2043.42;536.149;1.23
188;2040.98;516.373;1.23
189;2021.45;563.738;1.23
190;1974.45;542.009;1.23
191;1942.41;510.514;1.23
192;1967.13;563.738;1.24001
193;2006.5;542.009;1.24001
194;2018.7;546.159;1.24001
195;2026.33;528.336;1.24001
196;2006.5;553.972;1.24001
197;1976.89;540.056;1.24001
198;1967.13;563.738;1.25
199;2016.26;516.373;1.25
200;2045.87;536.149;1.25
201;2063.26;573.748;1.25
202;2058.38;512.467;1.25
203;2023.89;540.056;1.25
204;1989.1;538.102;1.26
205;1984.22;553.972;1.26
206;2016.26;532.243;1.26
207;2026.33;544.206;1.26
208;2031.22;522.477;1.26
209;2008.94;575.701;1.26
210;1967.13;548.112;1.26
211;1937.22;520.524;1.27
212;1961.94;579.608;1.27
213;1999.17;548.112;1.27
214;2011.38;550.066;1.27
215;2016.26;536.149;1.27
216;2001.61;557.878;1.27
217;1969.57;548.112;1.28001
218;1964.38;567.888;1.28001
219;2013.82;522.477;1.28001
220;2043.42;548.112;1.28001
221;2055.94;571.795;1.28001
222;2053.5;508.56;1.28001
223;2023.89;544.206;1.28001
224;1984.22;546.159;1.29
225;1976.89;561.785;1.29
226;2006.5;538.102;1.29
227;2016.26;542.009;1.29
228;2018.7;532.243;1.29
229;1999.17;571.795;1.29
230;1957.06;548.112;1.3
231;1925.01;524.43;1.3
232;1949.73;589.618;1.3
233;1986.66;550.066;1.3
234;2004.06;546.159;1.3
235;2004.06;544.206;1.3
236;1989.1;559.832;1.3
237;1954.62;557.878;1.3
238;1949.73;567.888;1.31001
239;1999.17;528.336;1.31001
240;2026.33;555.925;1.31001
241;2043.42;573.748;1.31001
242;2040.98;516.373;1.31001
243;2008.94;552.019;1.31001
244;1969.57;553.972;1.32
245;1967.13;561.785;1.32
246;1994.29;548.112;1.32
247;2004.06;544.206;1.32
248;2004.06;542.009;1.32
249;1984.22;575.701;1.32
250;1942.41;548.112;1.32
251;1907.62;538.102;1.33
252;1937.22;593.524;1.33
253;1974.45;553.972;1.33
254;1989.1;552.019;1.33
255;1989.1;548.112;1.33
256;1976.89;563.738;1.33
257;1944.85;565.935;1.33
258;1937.22;569.842;1.33
259;1986.66;538.102;1.34
260;2016.26;567.888;1.34
261;2031.22;573.748;1.34
262;2026.33;534.196;1.34
263;1996.73;552.019;1.34
264;1959.5;552.019;1.34
265;1954.62;569.842;1.34
266;1981.78;546.159;1.35001
267;1991.54;555.925;1.35001
268;1991.54;536.149;1.35001
269;1972.01;585.467;1.35001
270;1929.9;561.785;1.35001
271;1900.29;530.29;1.35001
272;1925.01;589.618;1.35001
273;1961.94;565.935;1.35001
274;1972.01;567.888;1.36
275;1976.89;552.019;1.36
276;1961.94;573.748;1.36
277;1929.9;561.785;1.36
278;1922.57;585.467;1.36
279;1969.57;538.102;1.36
280;1999.17;561.785;1.36
281;2016.26;593.524;1.36
282;2013.82;534.196;1.37
283;1981.78;561.785;1.37
284;1942.41;559.832;1.37
285;1939.97;575.701;1.37
286;1967.13;553.972;1.37
287;1976.89;563.738;1.37
288;1974.45;544.206;1.37
289;1957.06;595.477;1.37
290;1920.13;567.888;1.38
291;1888.08;538.102;1.38
292;1917.69;605.243;1.38
293;1952.17;567.888;1.38
294;1964.38;569.842;1.38
295;1972.01;557.878;1.38
296;1957.06;575.701;1.38
297;1925.01;571.795;1.38
298;1915.25;587.42;1.39
299;1964.38;544.206;1.39
300;1994.29;569.842;1.39
301;2008.94;595.477;1.39
302;2008.94;532.243;1.39
303;1979.34;569.842;1.39
304;1937.22;567.888;1.39
305;1934.78;579.608;1.39
306;1961.94;561.785;1.4
307;1972.01;565.935;1.4
308;1969.57;553.972;1.4
309;1952.17;597.43;1.4
310;1912.8;569.842;1.4
311;1880.46;552.019;1.4
312;1910.06;615.253;1.4
313;1944.85;573.748;1.4
314;1959.5;571.795;1.4
315;1964.38;563.738;1.41
316;1949.73;581.561;1.41
317;1915.25;577.654;1.41
318;1912.8;589.618;1.41
319;1959.5;552.019;1.41
320;1989.1;579.608;1.41
321;2004.06;593.524;1.41
322;1999.17;538.102;1.41
323;1969.57;573.748;1.41
324;1929.9;575.701;1.42001
325;1927.45;583.514;1.42001
326;1954.62;567.888;1.42001
327;1961.94;561.785;1.42001
328;1967.13;567.888;1.42001
329;1947.29;595.477;1.42001
330;1905.18;567.888;1.42001
331;1875.57;561.785;1.42001
332;1902.73;611.347;1.43
333;1934.78;573.748;1.43
334;1952.17;571.795;1.43
335;1954.62;569.842;1.43
336;1939.97;583.514;1.43
337;1907.62;587.42;1.43
338;1905.18;587.42;1.43
339;1952.17;557.878;1.43
340;1984.22;587.42;1.43
341;1996.73;599.384;1.44
342;1994.29;540.056;1.44
343;1969.57;573.748;1.44
344;1927.45;573.748;1.44
345;1922.57;587.42;1.44
346;1952.17;569.842;1.44
347;1957.06;571.795;1.44
348;1961.94;563.738;1.44
349;1944.85;601.337;1.44
350;1902.73;575.701;1.44
351;1873.13;557.878;1.45
352;1902.73;619.16;1.45
353;1937.22;577.654;1.45
354;1949.73;575.701;1.45
355;1952.17;571.795;1.45
356;1939.97;587.42;1.45
357;1907.62;585.467;1.45
358;1907.62;593.524;1.45
359;1952.17;557.878;1.45
360;1984.22;585.467;1.45
361;1999.17;599.384;1.46001
362;1996.73;544.206;1.46001
363;1967.13;577.654;1.46001
364;1929.9;581.561;1.46001
365;1927.45;589.618;1.46001
366;1952.17;571.795;1.46001
367;1959.5;569.842;1.46001
368;1959.5;569.842;1.46001
369;1939.97;599.384;1.46001
370;1902.73;571.795;1.46001
371;1870.69;563.738;1.47
372;1900.29;615.253;1.47
373;1932.34;579.608;1.47
374;1949.73;573.748;1.47
375;1954.62;573.748;1.47
376;1937.22;585.467;1.47
377;1907.62;591.571;1.47
378;1905.18;591.571;1.47
379;1947.29;561.785;1.47
380;1976.89;591.571;1.47
381;1989.1;611.347;1.48
382;1986.66;553.972;1.48
383;1959.5;577.654;1.48
384;1922.57;573.748;1.48
385;1920.13;591.571;1.48
386;1944.85;565.935;1.48
387;1954.62;577.654;1.48
388;1957.06;559.832;1.48
389;1937.22;605.243;1.48
390;1897.85;583.514;1.48
391;1870.69;550.066;1.48
392;1895.41;611.347;1.49001
393;1929.9;583.514;1.49001
394;1942.41;583.514;1.49001
395;1947.29;569.842;1.49001
396;1932.34;591.571;1.49001
397;1905.18;579.608;1.49001
398;1900.29;601.337;1.49001
399;1944.85;555.925;1.49001
400;1974.45;581.561;1.49001
401;1989.1;609.149;1.49001
402;1984.22;546.159;1.49001
403;1957.06;577.654;1.5
404;1917.69;575.701;1.5
405;1917.69;591.571;1.5
406;1944.85;571.795;1.5
407;1954.62;575.701;1.5
408;1954.62;561.785;1.5
409;1939.97;607.196;1.5
410;1900.29;581.561;1.5
411;1868.25;555.925;1.5
412;1895.41;619.16;1.5
413;1929.9;581.561;1.5
414;1942.41;581.561;1.51
415;1947.29;567.888;1.51
416;1932.34;587.42;1.51
417;1902.73;581.561;1.51
418;1900.29;599.384;1.51
419;1947.29;555.925;1.51
420;1974.45;583.514;1.51
421;1986.66;605.243;1.51
422;1984.22;546.159;1.51
423;1957.06;577.654;1.51
424;1920.13;581.561;1.51
425;1915.25;589.618;1.51
426;1944.85;571.795;1.52
427;1954.62;573.748;1.52
428;1954.62;567.888;1.52
429;1937.22;605.243;1.52
430;1900.29;575.701;1.52
431;1868.25;559.832;1.52
432;1897.85;621.113;1.52
433;1927.45;581.561;1.52
434;1942.41;579.608;1.52
435;1947.29;573.748;1.52
436;1932.34;587.42;1.52
437;1905.18;589.618;1.52
438;1902.73;595.477;1.53001
439;1947.29;561.785;1.53001
440;1976.89;587.42;1.53001
441;1986.66;599.384;1.53001
442;1984.22;546.159;1.53001
443;1954.62;579.608;1.53001
444;1917.69;581.561;1.53001
445;1915.25;589.618;1.53001
446;1942.41;573.748;1.53001
447;1952.17;569.842;1.53001
448;1952.17;573.748;1.53001
449;1932.34;601.337;1.53001
450;1892.97;573.748;1.54
451;1865.81;565.935;1.54
452;1895.41;617.206;1.54
453;1925.01;581.561;1.54
454;1939.97;573.748;1.54
455;1944.85;573.748;1.54
456;1927.45;587.42;1.54
457;1900.29;595.477;1.54
458;1897.85;593.524;1.54
459;1942.41;563.738;1.54
460;1972.01;581.561;1.54
461;1986.66;613.3;1.54
462;1984.22;555.925;1.55
463;1957.06;575.701;1.55
464;1920.13;575.701;1.55
465;1917.69;591.571;1.55
466;1944.85;569.842;1.55
467;1949.73;579.608;1.55
468;1952.17;559.832;1.55
469;1929.9;609.149;1.55
470;1895.41;585.467;1.55
471;1863.36;553.972;1.55
472;1892.97;617.206;1.55
473;1927.45;583.514;1.55
474;1937.22;585.467;1.56001
475;1947.29;571.795;1.56001
476;1932.34;593.524;1.56001
477;1902.73;581.561;1.56001
478;1897.85;605.243;1.56001
479;1942.41;557.878;1.56001
480;1969.57;581.561;1.56001
481;1984.22;611.347;1.56001
482;1981.78;546.159;1.56001
483;1949.73;577.654;1.56001
484;1912.8;577.654;1.56001
485;1912.8;591.571;1.56001
486;1942.41;571.795;1.56001
487;1947.29;579.608;1.57
488;1947.29;565.935;1.57
489;1932.34;609.149;1.57
490;1888.08;579.608;1.57
491;1860.92;557.878;1.57
492;1890.53;623.066;1.57
493;1922.57;581.561;1.57
494;1934.78;581.561;1.57
495;1939.97;571.795;1.57
496;1925.01;589.618;1.57
497;1897.85;587.42;1.57
498;1895.41;601.337;1.57
499;1939.97;559.832;1.58
500;1967.13;587.42;1.58
501;1979.34;607.196;1.58
502;1976.89;548.112;1.58
503;1949.73;583.514;1.58
504;1907.62;583.514;1.58
505;1910.06;593.524;1.58
506;1937.22;575.701;1.58
507;1944.85;577.654;1.58
508;1944.85;571.795;1.58
509;1927.45;605.243;1.58
510;1888.08;579.608;1.58
511;1858.48;565.935;1.58
512;1890.53;621.113;1.59
513;1922.57;581.561;1.59
514;1937.22;579.608;1.59
515;1942.41;573.748;1.59
516;1927.45;589.618;1.59
517;1897.85;593.524;1.59
518;1892.97;599.384;1.59
519;1942.41;563.738;1.59
520;1969.57;591.571;1.59
521;1984.22;599.384;1.59
522;1984.22;552.019;1.59
523;1952.17;583.514;1.59
524;1917.69;587.42;1.60001
525;1912.8;593.524;1.60001
526;1939.97;579.608;1.60001
527;1949.73;569.842;1.60001
528;1952.17;575.701;1.60001
529;1932.34;603.29;1.60001
530;1892.97;573.748;1.60001
531;1863.36;569.842;1.60001
532;1895.41;617.206;1.60001
533;1927.45;583.514;1.60001
534;1942.41;575.701;1.60001
535;1947.29;577.654;1.60001
536;1929.9;589.618;1.60001
537;1902.73;595.477;1.61
538;1897.85;591.571;1.61
539;1944.85;561.785;1.61
540;1972.01;589.618;1.61
541;1989.1;605.243;1.61
542;1984.22;548.112;1.61
543;1954.62;583.514;1.61
544;1917.69;583.514;1.61
545;1917.69;593.524;1.61
546;1944.85;577.654;1.61
547;1952.17;575.701;1.61
548;1954.62;571.795;1.61
549;1932.34;605.243;1.62
550;1895.41;579.608;1.62
551;1863.36;563.738;1.62
552;1895.41;619.16;1.62
553;1925.01;585.467;1.62
554;1939.97;579.608;1.62
555;1942.41;575.701;1.62
556;1927.45;589.618;1.62
557;1897.85;595.477;1.62
558;1895.41;597.43;1.62
559;1942.41;563.738;1.62
560;1972.01;595.477;1.62
561;1986.66;601.337;1.62
562;1981.78;550.066;1.63
563;1952.17;583.514;1.63
564;1915.25;589.618;1.63
565;1917.69;591.571;1.63
566;1939.97;579.608;1.63
567;1947.29;569.842;1.63
568;1949.73;577.654;1.63
569;1929.9;601.337;1.63
570;1892.97;573.748;1.63
571;1865.81;571.795;1.63
572;1895.41;615.253;1.63
573;1927.45;583.514;1.63
574;1939.97;575.701;1.63
575;1947.29;577.654;1.64
576;1929.9;587.42;1.64
577;1905.18;597.43;1.64
578;1900.29;609.149;1.64
579;1947.29;557.878;1.64
580;1976.89;581.561;1.64
581;1986.66;615.253;1.64
582;1986.66;552.019;1.64
583;1957.06;579.608;1.64
584;1922.57;579.608;1.64
585;1917.69;597.43;1.64
586;1944.85;575.701;1.64
587;1952.17;579.608;1.64
588;1957.06;563.738;1.65
589;1934.78;613.3;1.65
590;1895.41;585.467;1.65
591;1865.81;553.972;1.65
592;1900.29;617.206;1.65
593;1927.45;583.514;1.65
594;1942.41;585.467;1.65
595;1947.29;571.795;1.65
596;1929.9;593.524;1.65
597;1902.73;587.42;1.65
598;1900.29;605.243;1.65
599;1949.73;557.878;1.65
600;1976.89;583.514;1.65
601;1991.54;609.149;1.66
602;1984.22;548.112;1.66
603;1954.62;581.561;1.66
604;1917.69;579.608;1.66
605;1917.69;593.524;1.66
606;1947.29;573.748;1.66
607;1954.62;579.608;1.66
608;1954.62;569.842;1.66
609;1934.78;609.149;1.66
610;1892.97;581.561;1.66
611;1865.81;559.832;1.66
612;1897.85;625.019;1.66
613;1932.34;583.514;1.66
614;1944.85;581.561;1.66
615;1947.29;573.748;1.67001
616;1934.78;589.618;1.67001
617;1902.73;587.42;1.67001
618;1902.73;599.384;1.67001
619;1947.29;559.832;1.67001
620;1976.89;587.42;1.67001
621;1989.1;601.337;1.67001
622;1986.66;548.112;1.67001
623;1957.06;579.608;1.67001
624;1920.13;581.561;1.67001
625;1917.69;591.571;1.67001
626;1944.85;573.748;1.67001
627;1952.17;571.795;1.67001
628;1957.06;571.795;1.67001
629;1937.22;605.243;1.68
630;1897.85;575.701;1.68
631;1865.81;565.935;1.68
632;1897.85;621.113;1.68
633;1929.9;581.561;1.68
634;1942.41;579.608;1.68
635;1947.29;573.748;1.68
636;1929.9;587.42;1.68
637;1902.73;591.571;1.68
638;1900.29;593.524;1.68
639;1949.73;563.738;1.68
640;1976.89;593.524;1.68
641;1986.66;599.384;1.68
642;1986.66;552.019;1.68
643;1954.62;583.514;1.68
644;1920.13;587.42;1.69
645;1917.69;591.571;1.69
646;1944.85;577.654;1.69
647;1954.62;567.888;1.69
648;1954.62;573.748;1.69
649;1934.78;599.384;1.69
650;1895.41;565.935;1.69
651;1868.25;571.795;1.69
652;1900.29;613.3;1.69
653;1932.34;579.608;1.69
654;1947.29;575.701;1.69
655;1947.29;575.701;1.69
656;1932.34;585.467;1.69
657;1905.18;579.608;1.69
658;1905.18;605.243;1.7
659;1949.73;555.925;1.7
660;1976.89;579.608;1.7
661;1991.54;611.347;1.7
662;1989.1;546.159;1.7
663;1959.5;579.608;1.7
664;1925.01;575.701;1.7
665;1922.57;591.571;1.7
666;1949.73;571.795;1.7
667;1959.5;577.654;1.7
668;1954.62;563.738;1.7
669;1937.22;609.149;1.7
670;1900.29;583.514;1.7
671;1868.25;557.878;1.7
672;1902.73;621.113;1.7
673;1934.78;581.561;1.71001
674;1947.29;581.561;1.71001
675;1949.73;571.795;1.71001
676;1937.22;589.618;1.71001
677;1907.62;581.561;1.71001
678;1907.62;603.29;1.71001
679;1952.17;555.925;1.71001
680;1981.78;583.514;1.71001
681;1991.54;605.243;1.71001
682;1986.66;546.159;1.71001
683;1959.5;581.561;1.71001
684;1922.57;579.608;1.71001
685;1922.57;589.618;1.71001
686;1947.29;571.795;1.71001
687;1957.06;573.748;1.72
688;1959.5;565.935;1.72
689;1939.97;603.29;1.72
690;1900.29;577.654;1.72
691;1870.69;559.832;1.72
692;1902.73;619.16;1.72
693;1934.78;583.514;1.72
694;1949.73;577.654;1.72
695;1954.62;571.795;1.72
696;1939.97;587.42;1.72
697;1907.62;587.42;1.72
698;1907.62;597.43;1.72
699;1957.06;559.832;1.72
700;1981.78;585.467;1.72
701;1994.29;601.337;1.73
702;1991.54;546.159;1.73
703;1959.5;581.561;1.73
704;1925.01;581.561;1.73
705;1922.57;587.42;1.73
706;1949.73;575.701;1.73
707;1957.06;565.935;1.73
708;1957.06;571.795;1.73
709;1937.22;599.384;1.73
710;1895.41;571.795;1.73
711;1868.25;563.738;1.73
712;1902.73;617.206;1.73
713;1934.78;579.608;1.73
714;1947.29;575.701;1.73
715;1952.17;571.795;1.73
716;1937.22;585.467;1.74001
717;1907.62;593.524;1.74001
718;1905.18;589.618;1.74001
719;1954.62;563.738;1.74001
720;1981.78;593.524;1.74001
721;1994.29;593.524;1.74001
722;1991.54;550.066;1.74001
723;1961.94;577.654;1.74001
724;1922.57;585.467;1.74001
725;1925.01;589.618;1.74001
726;1949.73;573.748;1.74001
727;1957.06;561.785;1.74001
728;1957.06;575.701;1.74001
729;1937.22;593.524;1.74001
730;1897.85;563.738;1.74001
731;1870.69;571.795;1.75
732;1905.18;609.149;1.75
733;1937.22;579.608;1.75
734;1949.73;569.842;1.75
735;1952.17;573.748;1.75
736;1939.97;585.467;1.75
737;1907.62;589.618;1.75
738;1907.62;597.43;1.75
739;1959.5;557.878;1.75
740;1986.66;587.42;1.75
741;1999.17;597.43;1.75
742;1996.73;546.159;1.75
743;1967.13;577.654;1.75
744;1927.45;579.608;1.75
745;1927.45;589.618;1.76
746;1954.62;573.748;1.76
747;1961.94;567.888;1.76
748;1961.94;571.795;1.76
749;1942.41;601.337;1.76
750;1902.73;569.842;1.76
751;1875.57;563.738;1.76
752;1910.06;611.347;1.76
753;1942.41;579.608;1.76
754;1954.62;573.748;1.76
755;1959.5;571.795;1.76
756;1939.97;583.514;1.76
757;1910.06;593.524;1.76
758;1910.06;591.571;1.76
759;1961.94;561.785;1.76
760;1989.1;591.571;1.77
761;1999.17;593.524;1.77
762;1996.73;550.066;1.77
763;1969.57;577.654;1.77
764;1927.45;583.514;1.77
765;1929.9;585.467;1.77
766;1954.62;575.701;1.77
767;1961.94;561.785;1.77
768;1964.38;577.654;1.77
769;1942.41;593.524;1.77
770;1900.29;563.738;1.77
771;1873.13;569.842;1.77
772;1907.62;609.149;1.77
773;1939.97;579.608;1.77
774;1952.17;571.795;1.77
775;1957.06;571.795;1.78001
776;1939.97;587.42;1.78001
777;1907.62;579.608;1.78001
778;1907.62;601.337;1.78001
779;1957.06;552.019;1.78001
780;1986.66;577.654;1.78001
781;1996.73;605.243;1.78001
782;1994.29;544.206;1.78001
783;1961.94;577.654;1.78001
784;1927.45;573.748;1.78001
785;1927.45;589.618;1.78001
786;1954.62;567.888;1.78001
787;1961.94;575.701;1.78001
788;1961.94;559.832;1.78001
789;1942.41;605.243;1.79
790;1900.29;577.654;1.79
791;1875.57;552.019;1.79
792;1907.62;617.206;1.79
793;1942.41;579.608;1.79
794;1952.17;579.608;1.79
795;1959.5;569.842;1.79
796;1944.85;587.42;1.79
797;1912.8;583.514;1.79
798;1912.8;597.43;1.79
799;1959.5;555.925;1.79
800;1986.66;579.608;1.79
801;2001.61;601.337;1.79
802;1994.29;540.056;1.79
803;1967.13;577.654;1.79
804;1927.45;577.654;1.8
805;1932.34;587.42;1.8
806;1954.62;571.795;1.8
807;1964.38;569.842;1.8
808;1967.13;565.935;1.8
809;1944.85;601.337;1.8
810;1902.73;573.748;1.8
811;1878.01;555.925;1.8
812;1907.62;617.206;1.8
813;1939.97;579.608;1.8
814;1954.62;575.701;1.8
815;1957.06;569.842;1.8
816;1939.97;583.514;1.8
817;1910.06;587.42;1.8
818;1912.8;591.571;1.81001
819;1961.94;559.832;1.81001
820;1986.66;587.42;1.81001
821;1999.17;593.524;1.81001
822;1996.73;546.159;1.81001
823;1967.13;575.701;1.81001
824;1927.45;581.561;1.81001
825;1929.9;587.42;1.81001
826;1959.5;571.795;1.81001
827;1964.38;563.738;1.81001
828;1964.38;571.795;1.81001
829;1942.41;597.43;1.81001
830;1905.18;567.888;1.81001
831;1875.57;565.935;1.81001
832;1907.62;611.347;1.81001
833;1939.97;577.654;1.82
834;1952.17;573.748;1.82
835;1954.62;571.795;1.82
836;1937.22;583.514;1.82
837;1907.62;591.571;1.82
838;1907.62;585.467;1.82
839;1959.5;561.785;1.82
840;1984.22;593.524;1.82
841;1999.17;587.42;1.82
842;1994.29;550.066;1.82
843;1961.94;575.701;1.82
844;1927.45;583.514;1.82
845;1927.45;585.467;1.82
846;1954.62;573.748;1.82
847;1961.94;559.832;1.82
848;1959.5;573.748;1.83
849;1922.57;593.524;1.83
850;1897.85;559.832;1.83
851;1870.69;571.795;1.83
852;1922.57;603.29;1.83
853;1944.85;575.701;1.83
854;1949.73;571.795;1.83
855;1952.17;571.795;1.83
856;1927.45;585.467;1.83
857;1905.18;579.608;1.83
858;1929.9;597.43;1.83
859;1974.45;553.972;1.83
860;1991.54;575.701;1.83
861;1999.17;605.243;1.83
862;1984.22;540.056;1.83
863;1947.29;577.654;1.84
864;1920.13;573.748;1.84
865;1937.22;587.42;1.84
866;1954.62;567.888;1.84
867;1959.5;571.795;1.84
868;1952.17;559.832;1.84
869;1922.57;601.337;1.84
870;1882.9;575.701;1.84
871;1878.01;553.972;1.84
872;1920.13;615.253;1.84
873;1942.41;579.608;1.84
874;1952.17;577.654;1.84
875;1947.29;565.935;1.84
876;1925.01;585.467;1.84
877;1897.85;579.608;1.85001
878;1925.01;595.477;1.85001
879;1969.57;552.019;1.85001
880;1986.66;579.608;1.85001
881;1996.73;599.384;1.85001
882;1979.34;540.056;1.85001
883;1944.85;575.701;1.85001
884;1917.69;575.701;1.85001
885;1937.22;587.42;1.85001
886;1954.62;567.888;1.85001
887;1959.5;567.888;1.85001
888;1952.17;561.785;1.85001
889;1922.57;599.384;1.85001
890;1882.9;569.842;1.85001
891;1878.01;557.878;1.85001
892;1920.13;613.3;1.86
893;1942.41;577.654;1.86
894;1954.62;573.748;1.86
895;1947.29;565.935;1.86
896;1927.45;583.514;1.86
897;1900.29;583.514;1.86
898;1927.45;591.571;1.86
899;1969.57;557.878;1.86
900;1989.1;585.467;1.86
901;1996.73;593.524;1.86
902;1981.78;544.206;1.86
903;1944.85;573.748;1.86
904;1920.13;579.608;1.86
905;1939.97;585.467;1.86
906;1957.06;571.795;1.86
907;1961.94;561.785;1.87
908;1954.62;569.842;1.87
909;1922.57;593.524;1.87
910;1882.9;561.785;1.87
911;1880.46;563.738;1.87
912;1922.57;607.196;1.87
913;1942.41;573.748;1.87
914;1952.17;569.842;1.87
915;1949.73;567.888;1.87
916;1925.01;579.608;1.87
917;1900.29;589.618;1.87
918;1927.45;583.514;1.87
919;1969.57;563.738;1.87
920;1989.1;589.618;1.87
921;1996.73;585.467;1.87
922;1981.78;548.112;1.88
923;1944.85;575.701;1.88
924;1920.13;581.561;1.88
925;1937.22;583.514;1.88
926;1954.62;571.795;1.88
927;1959.5;555.925;1.88
928;1952.17;573.748;1.88
929;1922.57;587.42;1.88
930;1880.46;555.925;1.88
931;1880.46;567.888;1.88
932;1920.13;601.337;1.88
933;1942.41;577.654;1.88
934;1952.17;565.935;1.88
935;1949.73;567.888;1.88
936;1927.45;581.561;1.88
937;1900.29;583.514;1.89
938;1927.45;587.42;1.89
939;1969.57;555.925;1.89
940;1991.54;585.467;1.89
941;1999.17;591.571;1.89
942;1981.78;544.206;1.89
943;1944.85;573.748;1.89
944;1920.13;581.561;1.89
945;1939.97;585.467;1.89
946;1959.5;571.795;1.89
947;1964.38;559.832;1.89
948;1954.62;565.935;1.89
949;1925.01;593.524;1.89
950;1885.64;563.738;1.89
951;1885.64;563.738;1.89
952;1925.01;607.196;1.9
953;1947.29;575.701;1.9
954;1957.06;567.888;1.9
955;1949.73;569.842;1.9
956;1927.45;579.608;1.9
957;1905.18;591.571;1.9
958;1929.9;581.561;1.9
959;1974.45;561.785;1.9
960;1991.54;593.524;1.9
961;1999.17;585.467;1.9
962;1984.22;548.112;1.9
963;1947.29;573.748;1.9
964;1920.13;581.561;1.9
965;1939.97;583.514;1.9
966;1959.5;571.795;1.9
967;1961.94;557.878;1.9
968;1957.06;573.748;1.91
969;1925.01;587.42;1.91
970;1885.64;555.925;1.91
971;1885.64;569.842;1.91
972;1927.45;601.337;1.91
973;1947.29;573.748;1.91
974;1957.06;573.748;1.91
975;1952.17;565.935;1.91
976;1927.45;585.467;1.91
977;1902.73;577.654;1.91
978;1929.9;593.524;1.91
979;1972.01;550.066;1.91
980;1991.54;575.701;1.91
981;2001.61;599.384;1.91
982;1986.66;536.149;1.91
983;1947.29;573.748;1.91
984;1925.01;573.748;1.92001
985;1944.85;585.467;1.92001
986;1961.94;565.935;1.92001
987;1967.13;567.888;1.92001
988;1957.06;559.832;1.92001
989;1927.45;599.384;1.92001
990;1888.08;571.795;1.92001
991;1880.46;552.019;1.92001
992;1927.45;615.253;1.92001
993;1947.29;573.748;1.92001
994;1959.5;573.748;1.92001
995;1954.62;563.738;1.92001
996;1929.9;581.561;1.92001
997;1905.18;581.561;1.92001
998;1932.34;591.571;1.92001
999;1974.45;553.972;1.92001
1000;1994.29;579.608;1.92001
1001;2001.61;593.524;1.93
1002;1984.22;540.056;1.93
1003;1949.73;573.748;1.93
1004;1922.57;577.654;1.93
1005;1944.85;585.467;1.93
1006;1961.94;567.888;1.93
1007;1967.13;561.785;1.93
1008;1959.5;563.738;1.93
1009;1929.9;593.524;1.93
1010;1888.08;567.888;1.93
1011;1888.08;557.878;1.93
1012;1927.45;611.347;1.93
1013;1947.29;573.748;1.93
1014;1957.06;569.842;1.93
1015;1954.62;565.935;1.93
1016;1929.9;579.608;1.93
1017;1905.18;585.467;1.94
1018;1932.34;585.467;1.94
1019;1979.34;559.832;1.94
1020;1996.73;585.467;1.94
1021;2004.06;585.467;1.94
1022;1986.66;544.206;1.94
1023;1949.73;573.748;1.94
1024;1925.01;577.654;1.94
1025;1944.85;581.561;1.94
1026;1961.94;569.842;1.94
1027;1967.13;557.878;1.94
1028;1961.94;569.842;1.94
1029;1929.9;587.42;1.94
1030;1888.08;561.785;1.94
1031;1885.64;563.738;1.94
1032;1929.9;603.29;1.94
1033;1949.73;573.748;1.95
1034;1957.06;567.888;1.95
1035;1952.17;567.888;1.95
1036;1927.45;577.654;1.95
1037;1905.18;593.524;1.95
1038;1932.34;579.608;1.95
1039;1976.89;559.832;1.95
1040;1996.73;593.524;1.95
1041;2004.06;583.514;1.95
1042;1989.1;552.019;1.95
1043;1952.17;573.748;1.95
1044;1927.45;581.561;1.95
1045;1947.29;581.561;1.95
1046;1964.38;571.795;1.95
1047;1969.57;552.019;1.95
1048;1964.38;577.654;1.95
1049;1929.9;585.467;1.96001
1050;1892.97;553.972;1.96001
1051;1890.53;569.842;1.96001
1052;1932.34;599.384;1.96001
1053;1957.06;573.748;1.96001
1054;1967.13;573.748;1.96001
1055;1961.94;565.935;1.96001
1056;1937.22;583.514;1.96001
1057;1910.06;575.701;1.96001
1058;1937.22;593.524;1.96001
1059;1984.22;550.066;1.96001
1060;2001.61;575.701;1.96001
1061;2006.5;597.43;1.96001
1062;1991.54;536.149;1.96001
1063;1954.62;571.795;1.96001
1064;1927.45;571.795;1.97
1065;1947.29;583.514;1.97
1066;1967.13;565.935;1.97
1067;1972.01;567.888;1.97
1068;1964.38;559.832;1.97
1069;1932.34;595.477;1.97
1070;1890.53;571.795;1.97
1071;1890.53;555.925;1.97
1072;1932.34;611.347;1.97
1073;1952.17;571.795;1.97
1074;1964.38;571.795;1.97
1075;1959.5;565.935;1.97
1076;1934.78;577.654;1.97
1077;1907.62;581.561;1.97
1078;1937.22;589.618;1.97
1079;1979.34;553.972;1.97
1080;1996.73;577.654;1.98
1081;2004.06;591.571;1.98
1082;1989.1;538.102;1.98
1083;1952.17;573.748;1.98
1084;1927.45;575.701;1.98
1085;1947.29;579.608;1.98
1086;1964.38;567.888;1.98
1087;1972.01;561.785;1.98
1088;1961.94;563.738;1.98
1089;1932.34;593.524;1.98
1090;1892.97;563.738;1.98
1091;1890.53;557.878;1.98
1092;1934.78;609.149;1.98
1093;1952.17;571.795;1.98
1094;1967.13;567.888;1.98
1095;1959.5;565.935;1.99001
1096;1937.22;579.608;1.99001
1097;1912.8;585.467;1.99001
1098;1939.97;583.514;1.99001
1099;1984.22;557.878;1.99001
1100;2004.06;587.42;1.99001
1101;2008.94;585.467;1.99001
1102;1991.54;544.206;1.99001
1103;1957.06;573.748;1.99001
1104;1929.9;579.608;1.99001
1105;1954.62;581.561;1.99001
1106;1969.57;567.888;1.99001
1107;1974.45;553.972;1.99001
1108;1967.13;571.795;1.99001
1109;1934.78;585.467;1.99001
1110;1895.41;557.878;2
1111;1895.41;563.738;2
1112;1937.22;603.29;2
1113;1957.06;573.748;2
1114;1969.57;563.738;2
1115;1961.94;565.935;2
1116;1937.22;575.701;2
1117;1912.8;591.571;2
1118;1944.85;577.654;2
1119;1986.66;559.832;2
1120;2006.5;591.571;2
1121;2011.38;575.701;2
1122;1994.29;550.066;2
1123;1961.94;571.795;2
1124;1934.78;579.608;2
1125;1954.62;581.561;2.01
1126;1974.45;569.842;2.01
1127;1979.34;552.019;2.01
1128;1969.57;573.748;2.01
1129;1937.22;583.514;2.01
1130;1900.29;552.019;2.01
1131;1897.85;571.795;2.01
1132;1942.41;607.196;2.01
1133;1959.5;573.748;2.01
1134;1969.57;567.888;2.01
1135;1967.13;563.738;2.01
1136;1937.22;573.748;2.01
1137;1915.25;585.467;2.01
1138;1942.41;583.514;2.01
1139;1986.66;557.878;2.01
1140;2004.06;587.42;2.02
1141;2011.38;583.514;2.02
1142;1994.29;544.206;2.02
1143;1957.06;571.795;2.02
1144;1932.34;577.654;2.02
1145;1954.62;579.608;2.02
1146;1972.01;567.888;2.02
1147;1976.89;555.925;2.02
1148;1969.57;569.842;2.02
1149;1937.22;585.467;2.02
1150;1897.85;557.878;2.02
1151;1897.85;563.738;2.02
1152;1937.22;601.337;2.02
1153;1954.62;571.795;2.02
1154;1967.13;563.738;2.02
1155;1961.94;565.935;2.03001
1156;1937.22;577.654;2.03001
1157;1912.8;591.571;2.03001
1158;1942.41;577.654;2.03001
1159;1986.66;559.832;2.03001
1160;2004.06;593.524;2.03001
1161;2013.82;577.654;2.03001
1162;1996.73;550.066;2.03001
1163;1959.5;571.795;2.03001
1164;1932.34;581.561;2.03001
1165;1957.06;581.561;2.03001
1166;1976.89;567.888;2.03001
1167;1979.34;552.019;2.03001
1168;1972.01;573.748;2.03001
1169;1939.97;581.561;2.04
1170;1900.29;546.159;2.04
1171;1900.29;571.795;2.04
1172;1944.85;611.347;2.04
1173;1967.13;571.795;2.04
1174;1976.89;571.795;2.04
1175;1972.01;563.738;2.04
1176;1944.85;581.561;2.04
1177;1922.57;573.748;2.04
1178;1949.73;589.618;2.04
1179;1994.29;548.112;2.04
1180;2013.82;575.701;2.04
1181;2021.45;593.524;2.04
1182;2004.06;536.149;2.04
1183;1964.38;569.842;2.05
1184;1942.41;571.795;2.05
1185;1964.38;583.514;2.05
1186;1984.22;563.738;2.05
1187;1986.66;561.785;2.05
1188;1979.34;561.785;2.05
1189;1947.29;595.477;2.05
1190;1907.62;563.738;2.05
1191;1907.62;553.972;2.05
1192;1949.73;611.347;2.05
1193;1969.57;571.795;2.05
1194;1979.34;567.888;2.05
1195;1974.45;565.935;2.05
1196;1947.29;579.608;2.05
1197;1925.01;581.561;2.06001
1198;1952.17;585.467;2.06001
1199;1996.73;553.972;2.06001
1200;2018.7;581.561;2.06001
1201;2023.89;589.618;2.06001
1202;2004.06;538.102;2.06001
1203;1967.13;569.842;2.06001
1204;1942.41;575.701;2.06001
1205;1964.38;581.561;2.06001
1206;1981.78;565.935;2.06001
1207;1986.66;559.832;2.06001
1208;1976.89;565.935;2.06001
1209;1944.85;589.618;2.06001
1210;1907.62;557.878;2.06001
1211;1907.62;559.832;2.07
1212;1949.73;605.243;2.07
1213;1972.01;569.842;2.07
1214;1981.78;563.738;2.07
1215;1976.89;563.738;2.07
1216;1952.17;575.701;2.07
1217;1922.57;589.618;2.07
1218;1954.62;579.608;2.07
1219;1999.17;555.925;2.07
1220;2018.7;585.467;2.07
1221;2026.33;583.514;2.07
1222;2008.94;546.159;2.07
1223;1972.01;571.795;2.07
1224;1947.29;579.608;2.07
1225;1967.13;579.608;2.07
1226;1984.22;567.888;2.08
1227;1989.1;553.972;2.08
1228;1981.78;571.795;2.08
1229;1947.29;585.467;2.08
1230;1905.18;552.019;2.08
1231;1907.62;567.888;2.08
1232;1949.73;599.384;2.08
1233;1972.01;571.795;2.08
1234;1981.78;561.785;2.08
1235;1979.34;565.935;2.08
1236;1952.17;575.701;2.08
1237;1925.01;591.571;2.08
1238;1957.06;573.748;2.08
1239;1999.17;561.785;2.08
1240;2016.26;593.524;2.09
1241;2026.33;575.701;2.09
1242;2006.5;552.019;2.09
1243;1969.57;569.842;2.09
1244;1944.85;579.608;2.09
1245;1967.13;577.654;2.09
1246;1986.66;567.888;2.09
1247;1989.1;548.112;2.09
1248;1979.34;577.654;2.09
1249;1947.29;581.561;2.09
1250;1907.62;569.842;2.09
1251;1907.62;546.159;2.09
1252;1952.17;613.3;2.09
1253;1974.45;573.748;2.09
1254;1981.78;569.842;2.10001
1255;1976.89;561.785;2.10001
1256;1949.73;577.654;2.10001
1257;1927.45;575.701;2.10001
1258;1959.5;591.571;2.10001
1259;2001.61;550.066;2.10001
1260;2018.7;577.654;2.10001
1261;2028.78;593.524;2.10001
1262;2008.94;534.196;2.10001
1263;1969.57;569.842;2.10001
1264;1949.73;571.795;2.10001
1265;1969.57;579.608;2.10001
1266;1989.1;563.738;2.10001
1267;1994.29;559.832;2.10001
1268;1984.22;559.832;2.11
1269;1949.73;591.571;2.11
1270;1910.06;563.738;2.11
1271;1910.06;553.972;2.11
1272;1954.62;611.347;2.11
1273;1974.45;571.795;2.11
1274;1984.22;567.888;2.11
1275;1979.34;561.785;2.11
1276;1952.17;575.701;2.11
1277;1927.45;583.514;2.11
1278;1959.5;583.514;2.11
1279;2004.06;553.972;2.11
1280;2023.89;581.561;2.11
1281;2031.22;587.42;2.11
1282;2011.38;540.056;2.12
1283;1976.89;571.795;2.12
1284;1954.62;573.748;2.12
1285;1974.45;577.654;2.12
1286;1991.54;565.935;2.12
1287;1996.73;553.972;2.12
1288;1986.66;565.935;2.12
1289;1954.62;589.618;2.12
1290;1915.25;555.925;2.12
1291;1917.69;559.832;2.12
1292;1957.06;601.337;2.12
1293;1981.78;569.842;2.12
1294;1989.1;563.738;2.12
1295;1986.66;563.738;2.12
1296;1959.5;575.701;2.13
1297;1932.34;587.42;2.13
1298;1964.38;577.654;2.13
1299;2011.38;555.925;2.13
1300;2026.33;589.618;2.13
1301;2033.66;579.608;2.13
1302;2011.38;546.159;2.13
1303;1976.89;569.842;2.13
1304;1954.62;579.608;2.13
1305;1976.89;579.608;2.13
1306;1996.73;567.888;2.13
1307;2001.61;550.066;2.13
1308;1991.54;571.795;2.13
1309;1959.5;581.561;2.13
1310;1917.69;552.019;2.13
1311;1917.69;567.888;2.14
1312;1964.38;597.43;2.14
1313;1984.22;571.795;2.14
1314;1991.54;559.832;2.14
1315;1986.66;563.738;2.14
1316;1961.94;575.701;2.14
1317;1934.78;591.571;2.14
1318;1967.13;571.795;2.14
1319;2008.94;559.832;2.14
1320;2026.33;595.477;2.14
1321;2033.66;569.842;2.14
1322;2013.82;553.972;2.14
1323;1979.34;569.842;2.14
1324;1954.62;579.608;2.14
1325;1979.34;573.748;2.15
1326;1996.73;567.888;2.15
1327;2006.5;546.159;2.15
1328;1994.29;577.654;2.15
1329;1959.5;587.42;2.15
1330;1920.13;553.972;2.15
1331;1920.13;561.785;2.15
1332;1967.13;601.337;2.15
1333;1984.22;569.842;2.15
1334;1994.29;561.785;2.15
1335;1989.1;563.738;2.15
1336;1964.38;575.701;2.15
1337;1939.97;585.467;2.15
1338;1972.01;577.654;2.15
1339;2013.82;557.878;2.16
1340;2033.66;591.571;2.16
1341;2038.54;575.701;2.16
1342;2021.45;544.206;2.16
1343;1984.22;567.888;2.16
1344;1959.5;577.654;2.16
1345;1986.66;579.608;2.16
1346;2004.06;565.935;2.16
1347;2006.5;550.066;2.16
1348;1999.17;573.748;2.16
1349;1964.38;583.514;2.16
1350;1922.57;548.112;2.16
1351;1925.01;565.935;2.16
1352;1969.57;597.43;2.16
1353;1989.1;569.842;2.16
1354;1999.17;561.785;2.17001
1355;1994.29;565.935;2.17001
1356;1969.57;573.748;2.17001
1357;1944.85;589.618;2.17001
1358;1976.89;569.842;2.17001
1359;2016.26;561.785;2.17001
1360;2038.54;595.477;2.17001
1361;2043.42;569.842;2.17001
1362;2023.89;552.019;2.17001
1363;1986.66;565.935;2.17001
1364;1961.94;581.561;2.17001
1365;1989.1;573.748;2.17001
1366;2008.94;567.888;2.17001
1367;2011.38;542.009;2.17001
1368;2004.06;577.654;2.18
1369;1967.13;593.524;2.18
1370;1927.45;567.888;2.18
1371;1929.9;550.066;2.18
1372;1972.01;611.347;2.18
1373;1989.1;571.795;2.18
1374;2001.61;567.888;2.18
1375;1994.29;561.785;2.18
1376;1967.13;577.654;2.18
1377;1944.85;577.654;2.18
1378;1976.89;583.514;2.18
1379;2023.89;550.066;2.18
1380;2040.98;577.654;2.18
1381;2045.87;587.42;2.18
1382;2028.78;536.149;2.18
1383;1989.1;569.842;2.19
1384;1967.13;571.795;2.19
1385;1991.54;579.608;2.19
1386;2008.94;561.785;2.19
1387;2013.82;559.832;2.19
1388;2004.06;561.785;2.19
1389;1969.57;591.571;2.19
1390;1927.45;561.785;2.19
1391;1929.9;555.925;2.19
1392;1979.34;605.243;2.19
1393;1996.73;571.795;2.19
1394;2006.5;563.738;2.19
1395;2001.61;559.832;2.19
1396;1974.45;575.701;2.19
1397;1949.73;583.514;2.2
1398;1984.22;581.561;2.2
1399;2026.33;552.019;2.2
1400;2045.87;583.514;2.2
1401;2053.5;579.608;2.2
1402;2033.66;542.009;2.2
1403;1996.73;567.888;2.2
1404;1972.01;575.701;2.2
1405;1996.73;579.608;2.2
1406;2011.38;565.935;2.2
1407;2016.26;552.019;2.2
1408;2006.5;563.738;2.2
1409;1969.57;585.467;2.2
1410;1929.9;552.019;2.21001
1411;1932.34;561.785;2.21001
1412;1976.89;599.384;2.21001
1413;1999.17;569.842;2.21001
1414;2006.5;561.785;2.21001
1415;2004.06;563.738;2.21001
1416;1974.45;573.748;2.21001
1417;1952.17;589.618;2.21001
1418;1984.22;573.748;2.21001
1419;2026.33;557.878;2.21001
1420;2043.42;589.618;2.21001
1421;2053.5;573.748;2.21001
1422;2033.66;548.112;2.21001
1423;1996.73;567.888;2.21001
1424;1969.57;577.654;2.22
1425;1994.29;579.608;2.22
1426;2008.94;567.888;2.22
1427;2013.82;548.112;2.22
1428;2006.5;571.795;2.22
1429;1969.57;581.561;2.22
1430;1927.45;546.159;2.22
1431;1934.78;569.842;2.22
1432;1981.78;593.524;2.22
1433;1999.17;571.795;2.22
1434;2008.94;559.832;2.22
1435;2001.61;567.888;2.22
1436;1974.45;571.795;2.22
1437;1949.73;593.524;2.23
1438;1984.22;565.935;2.23
1439;2028.78;561.785;2.23
1440;2048.61;593.524;2.23
1441;2053.5;565.935;2.23
1442;2033.66;552.019;2.23
1443;1996.73;565.935;2.23
1444;1974.45;577.654;2.23
1445;1999.17;569.842;2.23
1446;2016.26;567.888;2.23
1447;2021.45;559.832;2.23
1448;2011.38;555.925;2.23
1449;1976.89;591.571;2.23
1450;1937.22;561.785;2.24001
1451;1942.41;552.019;2.24001
1452;1984.22;607.196;2.24001
1453;2006.5;569.842;2.24001
1454;2013.82;563.738;2.24001
1455;2008.94;561.785;2.24001
1456;1979.34;575.701;2.24001
1457;1954.62;577.654;2.24001
1458;1994.29;585.467;2.24001
1459;2033.66;550.066;2.24001
1460;2051.05;579.608;2.24001
1461;2060.82;585.467;2.24001
1462;2040.98;536.149;2.24001
1463;2001.61;565.935;2.25
1464;1976.89;571.795;2.25
1465;2004.06;577.654;2.25
1466;2021.45;563.738;2.25
1467;2026.33;555.925;2.25
1468;2018.7;559.832;2.25
1469;1981.78;587.42;2.25
1470;1942.41;555.925;2.25
1471;1944.85;555.925;2.25
1472;1991.54;605.243;2.25
1473;2011.38;569.842;2.25
1474;2016.26;561.785;2.25
1475;2013.82;561.785;2.25
1476;1986.66;573.748;2.26
1477;1959.5;583.514;2.26
1478;1996.73;577.654;2.26
1479;2038.54;552.019;2.26
1480;2058.38;585.467;2.26
1481;2065.7;579.608;2.26
1482;2043.42;544.206;2.26
1483;2006.5;567.888;2.26
1484;1984.22;575.701;2.26
1485;2011.38;577.654;2.26
1486;2028.78;565.935;2.26
1487;2031.22;550.066;2.26
1488;2023.89;567.888;2.27
1489;1989.1;585.467;2.27
1490;1947.29;550.066;2.27
1491;1954.62;561.785;2.27
1492;1996.73;595.477;2.27
1493;2021.45;571.795;2.27
1494;2028.78;561.785;2.27
1495;2021.45;561.785;2.27
1496;1994.29;573.748;2.27
1497;1972.01;589.618;2.27
1498;2006.5;569.842;2.27
1499;2048.61;555.925;2.27
1500;2068.14;589.618;2.28001
1501;2073.03;569.842;2.28001
1502;2051.05;548.112;2.28001
1503;2016.26;567.888;2.28001
1504;1994.29;579.608;2.28001
1505;2018.7;573.748;2.28001
1506;2038.54;565.935;2.28001
1507;2040.98;548.112;2.28001
1508;2033.66;571.795;2.28001
1509;1996.73;577.654;2.28001
1510;1954.62;544.206;2.28001
1511;1961.94;569.842;2.28001
1512;2008.94;587.42;2.29
1513;2028.78;573.748;2.29
1514;2038.54;557.878;2.29
1515;2031.22;567.888;2.29
1516;2001.61;569.842;2.29
1517;1976.89;593.524;2.29
1518;2013.82;563.738;2.29
1519;2053.5;561.785;2.29
1520;2073.03;595.477;2.29
1521;2078.22;563.738;2.29
1522;2060.82;553.972;2.29
1523;2023.89;563.738;2.29
1524;1996.73;577.654;2.3
1525;2021.45;567.888;2.3
1526;2040.98;565.935;2.3
1527;2043.42;548.112;2.3
1528;2033.66;567.888;2.3
1529;1996.73;581.561;2.3
1530;1957.06;548.112;2.3
1531;1959.5;561.785;2.3
1532;2006.5;595.477;2.3
1533;2026.33;571.795;2.3
1534;2033.66;557.878;2.3
1535;2028.78;559.832;2.3
1536;1999.17;569.842;2.31001
1537;1976.89;589.618;2.31001
1538;2008.94;571.795;2.31001
1539;2053.5;557.878;2.31001
1540;2070.59;591.571;2.31001
1541;2075.77;569.842;2.31001
1542;2058.38;548.112;2.31001
1543;2018.7;563.738;2.31001
1544;1994.29;575.701;2.31001
1545;2021.45;575.701;2.31001
1546;2036.1;563.738;2.31001
1547;2043.42;544.206;2.31001
1548;2033.66;571.795;2.32
1549;1999.17;577.654;2.32
1550;1957.06;542.009;2.32
1551;1964.38;567.888;2.32
1552;2008.94;587.42;2.32
1553;2033.66;571.795;2.32
1554;2038.54;557.878;2.32
1555;2031.22;569.842;2.32
1556;2006.5;571.795;2.32
1557;1981.78;593.524;2.32
1558;2016.26;565.935;2.32
1559;2060.82;559.832;2.32
1560;2078.22;595.477;2.33
1561;2083.1;561.785;2.33
1562;2065.7;553.972;2.33
1563;2026.33;561.785;2.33
1564;2004.06;577.654;2.33
1565;2028.78;563.738;2.33
1566;2045.87;557.878;2.33
1567;2048.61;557.878;2.33
1568;2040.98;555.925;2.33
1569;2006.5;589.618;2.33
1570;1961.94;559.832;2.33
1571;1967.13;550.066;2.34
1572;2016.26;605.243;2.34
1573;2036.1;567.888;2.34
1574;2045.87;563.738;2.34
1575;2040.98;559.832;2.34
1576;2011.38;573.748;2.34
1577;1989.1;579.608;2.34
1578;2021.45;577.654;2.34
1579;2065.7;550.066;2.34
1580;2085.54;577.654;2.34
1581;2087.98;581.561;2.34
1582;2065.7;534.196;2.35001
1583;2031.22;567.888;2.35001
1584;2006.5;571.795;2.35001
1585;2031.22;575.701;2.35001
1586;2048.61;561.785;2.35001
1587;2053.5;550.066;2.35001
1588;2043.42;561.785;2.35001
1589;2008.94;583.514;2.35001
1590;1967.13;550.066;2.35001
1591;1972.01;555.925;2.35001
1592;2018.7;599.384;2.35001
1593;2038.54;567.888;2.35001
1594;2048.61;559.832;2.36
1595;2045.87;557.878;2.36
1596;2013.82;569.842;2.36
1597;1986.66;585.467;2.36
1598;2023.89;573.748;2.36
1599;2068.14;553.972;2.36
1600;2085.54;585.467;2.36
1601;2090.42;575.701;2.36
1602;2070.59;542.009;2.36
1603;2033.66;565.935;2.36
1604;2011.38;571.795;2.36
1605;2038.54;575.701;2.37
1606;2055.94;563.738;2.37
1607;2055.94;544.206;2.37
1608;2048.61;565.935;2.37
1609;2011.38;579.608;2.37
1610;1969.57;546.159;2.37
1611;1976.89;563.738;2.37
1612;2023.89;595.477;2.37
1613;2045.87;567.888;2.37
1614;2055.94;555.925;2.37
1615;2048.61;561.785;2.37
1616;2018.7;569.842;2.38
1617;1996.73;587.42;2.38
1618;2031.22;567.888;2.38
1619;2073.03;555.925;2.38
1620;2090.42;591.571;2.38
1621;2100.19;567.888;2.38
1622;2073.03;550.066;2.38
1623;2040.98;563.738;2.38
1624;2016.26;573.748;2.38
1625;2040.98;571.795;2.38
1626;2058.38;561.785;2.38
1627;2060.82;542.009;2.39
1628;2053.5;573.748;2.39
1629;2016.26;575.701;2.39
1630;1974.45;542.009;2.39
1631;1979.34;571.795;2.39
1632;2028.78;583.514;2.39
1633;2048.61;569.842;2.39
1634;2058.38;553.972;2.39
1635;2051.05;571.795;2.39
1636;2023.89;567.888;2.39
1637;1999.17;589.618;2.39
1638;2033.66;561.785;2.4
1639;2078.22;555.925;2.4
1640;2100.19;595.477;2.4
1641;2102.94;559.832;2.4
1642;2080.66;553.972;2.4
1643;2043.42;561.785;2.4
1644;2021.45;575.701;2.4
1645;2045.87;561.785;2.4
1646;2065.7;559.832;2.4
1647;2065.7;553.972;2.4
1648;2058.38;555.925;2.41
1649;2021.45;587.42;2.41
1650;1979.34;557.878;2.41
1651;1984.22;548.112;2.41
1652;2031.22;603.29;2.41
1653;2051.05;567.888;2.41
1654;2060.82;559.832;2.41
1655;2053.5;559.832;2.41
1656;2023.89;571.795;2.41
1657;1999.17;577.654;2.41
1658;2038.54;577.654;2.41
1659;2080.66;548.112;2.42001
1660;2100.19;579.608;2.42001
1661;2107.82;579.608;2.42001
1662;2085.54;538.102;2.42001
1663;2045.87;565.935;2.42001
1664;2021.45;569.842;2.42001
1665;2048.61;575.701;2.42001
1666;2068.14;561.785;2.42001
1667;2070.59;548.112;2.42001
1668;2063.26;561.785;2.42001
1669;2028.78;581.561;2.42001
1670;1984.22;550.066;2.43
1671;1989.1;555.925;2.43
1672;2036.1;595.477;2.43
1673;2055.94;563.738;2.43
1674;2063.26;557.878;2.43
1675;2055.94;559.832;2.43
1676;2028.78;569.842;2.43
1677;2004.06;581.561;2.43
1678;2043.42;573.748;2.43
1679;2083.1;552.019;2.43
1680;2105.38;585.467;2.44
1681;2110.26;571.795;2.44
1682;2087.98;540.056;2.44
1683;2053.5;563.738;2.44
1684;2026.33;571.795;2.44
1685;2055.94;575.701;2.44
1686;2070.59;561.785;2.44
1687;2075.77;544.206;2.44
1688;2068.14;567.888;2.44
