<WeldAnalyseData xmlns:i="http:www.w3.org/2001/XMLSchema-instance">
<WeldParameter>
<TimeStamp>DT#2024-01-25-11:49:18</TimeStamp>
<Generator>SG-22-10000</Generator>
<GenFreq>20</GenFreq>
<MaxForce>8000</MaxForce>
<MaxPower>10000</MaxPower>
<RunupPressure>1.5</RunupPressure>
<RunupDist>10</RunupDist>
<RunPress>0.8</RunPress>
<ShakeDelay>0.03</ShakeDelay>
<ShakeTime>0.3</ShakeTime>
<RunBackPress1>6</RunBackPress1>
<RunBackPress2>2</RunBackPress2>
<RunBackDist>1</RunBackDist>
<TrigValue>500</TrigValue>
<TrigModeUnit>W</TrigModeUnit>
<WeldModeUnit>Ws</WeldModeUnit>
<PressNr>0</PressNr>
<MaxLoss>1500</MaxLoss>
</WeldParameter>
<WeldSets>
<WeldSet>
<PressRiseTime>0</PressRiseTime>
<RunPressure>1</RunPressure>
<Amplitude>86</Amplitude>
<WeldMode>3270</WeldMode>
</WeldSet>
</WeldSets>
<WeldValue>
<WeldNr>3007</WeldNr>
<RecipeName>RickStyle</RecipeName>
<WeldTime>1660</WeldTime>
<DistDiff>2.22</DistDiff>
<DistAbs>77.96</DistAbs>
<Energy>3270.98</Energy>
<MaxPower>2171.3</MaxPower>
<CycleTime>5950</CycleTime>
<TrigForce>504.654</TrigForce>
<TrigDist>75.74</TrigDist>
<RunSpeed>68.4192</RunSpeed>
<MaxForce>619.16</MaxForce>
<LossPower>324.812</LossPower>
</WeldValue>
</WeldAnalyseData>
#CSV-START#
ms;Power[W];Force[N];Distance[mm]
1;0;0;0
2;0;504.654;0
3;0;504.654;0
4;0;504.654;0
5;0;506.607;0
6;0;508.56;0
7;0;506.607;0
8;0;482.925;0.0100021
9;0;433.607;0.0200043
10;0;401.868;0.0400009
11;0;372.326;0.0800018
12;35.6113;366.466;0.110001
13;107.025;324.961;0.150002
14;193.697;321.055;0.190002
15;269.993;309.091;0.240005
16;336.829;305.185;0.279999
17;405.801;291.269;0.330002
18;472.636;291.269;0.370003
19;536.725;283.456;0.420006
20;603.561;321.055;0.459999
21;660.325;309.091;0.490005
22;719.531;291.269;0.520004
23;805.898;350.597;0.550003
24;884.941;336.68;0.57
25;953.913;346.69;0.599998
26;1015.87;348.643;0.610001
27;1070.19;372.326;0.630005
28;1109.56;380.139;0.639999
29;1154.11;403.821;0.639999
30;1223.09;380.139;0.650002
31;1270.08;405.774;0.650002
32;1314.64;439.467;0.660004
33;1346.69;403.821;0.660004
34;1354.01;407.971;0.660004
35;1356.45;415.784;0.670006
36;1376.29;427.503;0.670006
37;1415.66;411.878;0.68
38;1450.45;419.691;0.690002
39;1480.05;403.821;0.690002
40;1494.7;437.513;0.700005
41;1492.26;433.607;0.700005
42;1489.82;399.915;0.709999
43;1536.82;447.279;0.709999
44;1586.26;443.373;0.720001
45;1620.74;441.42;0.720001
46;1643.02;423.597;0.730003
47;1655.23;449.232;0.730003
48;1652.79;441.42;0.740005
49;1670.18;467.055;0.75
50;1734.27;429.456;0.75
51;1781.27;441.42;0.760002
52;1813.31;477.065;0.760002
53;1830.71;427.503;0.770004
54;1823.08;439.467;0.779999
55;1808.43;441.42;0.779999
56;1818.2;459.243;0.790001
57;1857.87;443.373;0.800003
58;1887.47;453.383;0.800003
59;1904.56;437.513;0.810005
60;1899.68;480.972;0.810005
61;1872.52;467.055;0.82
62;1855.12;431.654;0.82
63;1897.24;488.784;0.830002
64;1946.68;475.112;0.830002
65;1973.84;477.065;0.840004
66;1988.49;461.196;0.840004
67;1983.61;484.878;0.849998
68;1963.77;475.112;0.849998
69;1968.96;500.748;0.860001
70;2023.28;461.196;0.860001
71;2065.09;475.112;0.870003
72;2084.93;510.514;0.870003
73;2089.81;457.289;0.870003
74;2065.09;479.019;0.880005
75;2033.05;479.019;0.880005
76;2035.49;496.597;0.889999
77;2065.09;477.065;0.889999
78;2082.49;486.831;0.889999
79;2092.25;469.008;0.900002
80;2072.42;516.373;0.900002
81;2033.05;494.644;0.900002
82;2005.89;465.102;0.910004
83;2037.93;524.43;0.910004
84;2082.49;502.701;0.920006
85;2104.77;502.701;0.920006
86;2107.21;490.738;0.920006
87;2094.7;514.42;0.93
88;2065.09;502.701;0.93
89;2065.09;524.43;0.93
90;2116.97;480.972;0.940002
91;2151.46;502.701;0.940002
92;2171.3;534.196;0.940002
93;2168.86;477.065;0.950005
94;2136.81;506.607;0.950005
95;2094.7;506.607;0.950005
96;2089.81;518.326;0.959999
97;2119.42;502.701;0.959999
98;2131.93;508.56;0.959999
99;2134.37;496.597;0.959999
100;2109.65;540.056;0.970001
101;2067.53;520.524;0.970001
102;2035.49;480.972;0.970001
103;2069.98;528.336;0.980003
104;2104.77;528.336;0.980003
105;2124.3;522.477;0.980003
106;2129.49;502.701;0.990005
107;2109.65;524.43;0.990005
108;2077.6;518.326;0.990005
109;2072.42;544.206;0.990005
110;2119.42;508.56;1
111;2153.9;512.467;1
112;2166.41;552.019;1
113;2163.97;504.654;1.01
114;2129.49;510.514;1.01
115;2084.93;510.514;1.01
116;2080.05;530.29;1.01
117;2107.21;510.514;1.02
118;2121.86;518.326;1.02
119;2121.86;496.597;1.02
120;2097.14;536.149;1.02
121;2055.33;528.336;1.03
122;2020.84;488.784;1.03
123;2055.33;544.206;1.03
124;2089.81;534.196;1.03
125;2107.21;534.196;1.04
126;2112.09;514.42;1.04
127;2097.14;538.102;1.04
128;2062.65;528.336;1.04
129;2057.77;553.972;1.05
130;2104.77;514.42;1.05
131;2139.25;524.43;1.05
132;2151.46;559.832;1.05
133;2144.14;506.607;1.06001
134;2112.09;522.477;1.06001
135;2069.98;522.477;1.06001
136;2065.09;538.102;1.06001
137;2089.81;518.326;1.07
138;2097.14;528.336;1.07
139;2102.32;506.607;1.07
140;2075.16;555.925;1.07
141;2030.61;534.196;1.08
142;1996.12;500.748;1.08
143;2028.16;555.925;1.08
144;2065.09;534.196;1.08
145;2080.05;538.102;1.09
146;2082.49;524.43;1.09
147;2065.09;544.206;1.09
148;2030.61;534.196;1.09
149;2028.16;557.878;1.09
150;2072.42;512.467;1.1
151;2107.21;530.29;1.1
152;2119.42;561.785;1.1
153;2114.53;508.56;1.1
154;2077.6;530.29;1.1
155;2040.37;528.336;1.11
156;2035.49;544.206;1.11
157;2062.65;524.43;1.11
158;2075.16;532.243;1.11
159;2072.42;518.326;1.11
160;2052.88;563.738;1.12
161;2005.89;538.102;1.12
162;1973.84;510.514;1.12
163;2005.89;567.888;1.12
164;2040.37;544.206;1.12
165;2057.77;540.056;1.12
166;2062.65;532.243;1.13
167;2042.81;552.019;1.13
168;2013.21;542.009;1.13
169;2005.89;559.832;1.13
170;2055.33;524.43;1.13
171;2084.93;536.149;1.14
172;2099.58;573.748;1.14
173;2092.25;522.477;1.14
174;2060.21;536.149;1.14
175;2020.84;536.149;1.14
176;2018.09;553.972;1.14
177;2042.81;534.196;1.15
178;2052.88;540.056;1.15
179;2052.88;520.524;1.15
180;2033.05;567.888;1.15
181;1988.49;548.112;1.15
182;1958.89;514.42;1.15
183;1988.49;569.842;1.15
184;2025.72;550.066;1.16
185;2040.37;550.066;1.16
186;2042.81;538.102;1.16
187;2025.72;555.925;1.16
188;1996.12;546.159;1.16
189;1990.93;567.888;1.16
190;2040.37;526.383;1.17001
191;2069.98;542.009;1.17001
192;2082.49;575.701;1.17001
193;2080.05;522.477;1.17001
194;2045.26;544.206;1.17001
195;2008.33;544.206;1.17001
196;2005.89;555.925;1.17001
197;2030.61;538.102;1.18
198;2040.37;546.159;1.18
199;2040.37;530.29;1.18
200;2018.09;575.701;1.18
201;1976.28;552.019;1.18
202;1944.24;522.477;1.18
203;1976.28;579.608;1.18
204;2008.33;553.972;1.19
205;2025.72;555.925;1.19
206;2033.05;540.056;1.19
207;2015.65;555.925;1.19
208;1981.17;553.972;1.19
209;1981.17;577.654;1.19
210;2025.72;546.159;1.19
211;2055.33;546.159;1.2
212;2069.98;583.514;1.2
213;2062.65;540.056;1.2
214;2033.05;540.056;1.2
215;1996.12;546.159;1.2
216;1990.93;563.738;1.2
217;2018.09;550.066;1.2
218;2030.61;550.066;1.21
219;2030.61;530.29;1.21
220;2008.33;565.935;1.21
221;1966.52;557.878;1.21
222;1934.17;522.477;1.21
223;1966.52;569.842;1.21
224;2001;565.935;1.21
225;2018.09;561.785;1.21
226;2018.09;542.009;1.22
227;2003.44;563.738;1.22
228;1971.4;555.925;1.22
229;1968.96;583.514;1.22
230;2015.65;544.206;1.22
231;2045.26;553.972;1.22
232;2060.21;587.42;1.22
233;2052.88;542.009;1.22
234;2020.84;548.112;1.23
235;1981.17;546.159;1.23
236;1981.17;565.935;1.23
237;2008.33;546.159;1.23
238;2015.65;553.972;1.23
239;2013.21;530.29;1.23
240;1996.12;573.748;1.23
241;1951.56;559.832;1.23
242;1921.96;526.383;1.24001
243;1954;575.701;1.24001
244;1986.05;565.935;1.24001
245;2001;565.935;1.24001
246;2005.89;550.066;1.24001
247;1988.49;569.842;1.24001
248;1956.45;557.878;1.24001
249;1958.89;583.514;1.24001
250;2003.44;546.159;1.25
251;2030.61;555.925;1.25
252;2042.81;593.524;1.25
253;2040.37;538.102;1.25
254;2008.33;553.972;1.25
255;1973.84;553.972;1.25
256;1966.52;571.795;1.25
257;1993.68;550.066;1.25
258;2003.44;561.785;1.26
259;2003.44;540.056;1.26
260;1978.72;585.467;1.26
261;1939.36;565.935;1.26
262;1907.01;532.243;1.26
263;1941.8;589.618;1.26
264;1976.28;567.888;1.26
265;1990.93;569.842;1.26
266;1993.68;553.972;1.26
267;1978.72;571.795;1.26
268;1946.68;563.738;1.27
269;1946.68;585.467;1.27
270;1990.93;544.206;1.27
271;2020.84;563.738;1.27
272;2033.05;595.477;1.27
273;2028.16;538.102;1.27
274;1998.56;548.112;1.27
275;1961.33;559.832;1.27
276;1956.45;577.654;1.27
277;1983.61;567.888;1.28
278;1990.93;563.738;1.28
279;1990.93;542.009;1.28
280;1968.96;575.701;1.28
281;1929.28;577.654;1.28
282;1899.68;538.102;1.28
283;1931.73;579.608;1.28
284;1966.52;583.514;1.28
285;1981.17;573.748;1.29
286;1983.61;557.878;1.29
287;1966.52;575.701;1.29
288;1936.61;571.795;1.29
289;1934.17;597.43;1.29
290;1983.61;563.738;1.29
291;2010.77;563.738;1.29
292;2020.84;601.337;1.29
293;2018.09;559.832;1.29
294;1988.49;561.785;1.29
295;1951.56;563.738;1.3
296;1949.12;583.514;1.3
297;1976.28;567.888;1.3
298;1983.61;569.842;1.3
299;1983.61;546.159;1.3
300;1963.77;585.467;1.3
301;1924.4;579.608;1.3
302;1897.24;540.056;1.3
303;1914.64;585.467;1.3
304;1956.45;583.514;1.31001
305;1971.4;579.608;1.31001
306;1976.28;561.785;1.31001
307;1968.96;585.467;1.31001
308;1936.61;575.701;1.31001
309;1924.4;603.29;1.31001
310;1966.52;565.935;1.31001
311;2003.44;569.842;1.31001
312;2018.09;607.196;1.31001
313;2020.84;557.878;1.32
314;1993.68;569.842;1.32
315;1956.45;569.842;1.32
316;1944.24;585.467;1.32
317;1968.96;565.935;1.32
318;1978.72;575.701;1.32
319;1981.17;553.972;1.32
320;1966.52;595.477;1.32
321;1926.84;581.561;1.32
322;1894.8;548.112;1.32
323;1912.19;599.384;1.33
324;1951.56;585.467;1.33
325;1968.96;583.514;1.33
326;1973.84;569.842;1.33
327;1963.77;591.571;1.33
328;1934.17;581.561;1.33
329;1924.4;605.243;1.33
330;1966.52;563.738;1.33
331;1998.56;575.701;1.33
332;2013.21;609.149;1.33
333;2015.65;557.878;1.34
334;1990.93;575.701;1.34
335;1951.56;573.748;1.34
336;1939.36;589.618;1.34
337;1963.77;569.842;1.34
338;1976.28;577.654;1.34
339;1978.72;559.832;1.34
340;1963.77;605.243;1.34
341;1926.84;583.514;1.34
342;1892.36;553.972;1.34
343;1909.45;597.43;1.34
344;1944.24;589.618;1.35
345;1961.33;585.467;1.35
346;1968.96;571.795;1.35
347;1958.89;593.524;1.35
348;1931.73;581.561;1.35
349;1917.08;609.149;1.35
350;1963.77;571.795;1.35
351;1996.12;577.654;1.35
352;2010.77;615.253;1.35
353;2010.77;565.935;1.35
354;1986.05;575.701;1.36
355;1949.12;573.748;1.36
356;1939.36;593.524;1.36
357;1963.77;571.795;1.36
358;1973.84;581.561;1.36
359;1976.28;559.832;1.36
360;1963.77;599.384;1.36
361;1924.4;587.42;1.36
362;1887.47;550.066;1.36
363;1909.45;607.196;1.36
364;1949.12;589.618;1.36
365;1966.52;587.42;1.37
366;1971.4;573.748;1.37
367;1963.77;595.477;1.37
368;1934.17;583.514;1.37
369;1921.96;607.196;1.37
370;1966.52;565.935;1.37
371;1998.56;581.561;1.37
372;2013.21;615.253;1.37
373;2015.65;559.832;1.37
374;1990.93;579.608;1.37
375;1951.56;575.701;1.37
376;1939.36;593.524;1.38
377;1966.52;573.748;1.38
378;1976.28;581.561;1.38
379;1978.72;559.832;1.38
380;1963.77;589.618;1.38
381;1926.84;595.477;1.38
382;1889.92;555.925;1.38
383;1907.01;587.42;1.38
384;1949.12;601.337;1.38
385;1966.52;585.467;1.38
386;1971.4;573.748;1.39
387;1963.77;583.514;1.39
388;1936.61;587.42;1.39
389;1921.96;607.196;1.39
390;1966.52;579.608;1.39
391;2001;575.701;1.39
392;2015.65;613.3;1.39
393;2018.09;577.654;1.39
394;1990.93;567.888;1.39
395;1951.56;579.608;1.39
396;1941.8;593.524;1.39
397;1968.96;583.514;1.39
398;1978.72;579.608;1.4
399;1981.17;561.785;1.4
400;1966.52;597.43;1.4
401;1929.28;591.571;1.4
402;1894.8;553.972;1.4
403;1909.45;595.477;1.4
404;1949.12;595.477;1.4
405;1963.77;589.618;1.4
406;1973.84;571.795;1.4
407;1963.77;593.524;1.4
408;1934.17;585.467;1.4
409;1921.96;611.347;1.41
410;1966.52;575.701;1.41
411;2001;579.608;1.41
412;2018.09;615.253;1.41
413;2018.09;567.888;1.41
414;1990.93;573.748;1.41
415;1954;575.701;1.41
416;1939.36;593.524;1.41
417;1966.52;575.701;1.41
418;1978.72;581.561;1.41
419;1978.72;557.878;1.41
420;1963.77;599.384;1.42001
421;1926.84;589.618;1.42001
422;1892.36;552.019;1.42001
423;1909.45;603.29;1.42001
424;1951.56;591.571;1.42001
425;1966.52;589.618;1.42001
426;1976.28;573.748;1.42001
427;1963.77;595.477;1.42001
428;1936.61;585.467;1.42001
429;1919.52;611.347;1.42001
430;1963.77;573.748;1.42001
431;1993.68;579.608;1.42001
432;2010.77;615.253;1.43
433;2015.65;565.935;1.43
434;1986.05;575.701;1.43
435;1949.12;575.701;1.43
436;1936.61;593.524;1.43
437;1963.77;573.748;1.43
438;1973.84;581.561;1.43
439;1976.28;559.832;1.43
440;1961.33;607.196;1.43
441;1924.4;589.618;1.43
442;1889.92;553.972;1.43
443;1907.01;605.243;1.43
444;1946.68;589.618;1.44
445;1961.33;589.618;1.44
446;1966.52;573.748;1.44
447;1958.89;579.608;1.44
448;1929.28;585.467;1.44
449;1919.52;605.243;1.44
450;1961.33;585.467;1.44
451;1993.68;575.701;1.44
452;2008.33;609.149;1.44
453;2010.77;581.561;1.44
454;1986.05;565.935;1.44
455;1949.12;581.561;1.44
456;1936.61;593.524;1.45
457;1963.77;591.571;1.45
458;1971.4;579.608;1.45
459;1973.84;561.785;1.45
460;1958.89;587.42;1.45
461;1921.96;591.571;1.45
462;1887.47;553.972;1.45
463;1907.01;589.618;1.45
464;1944.24;597.43;1.45
465;1961.33;587.42;1.45
466;1966.52;571.795;1.45
467;1956.45;585.467;1.45
468;1931.73;585.467;1.45
469;1917.08;611.347;1.46
470;1963.77;579.608;1.46
471;1996.12;575.701;1.46
472;2010.77;615.253;1.46
473;2010.77;573.748;1.46
474;1986.05;571.795;1.46
475;1951.56;577.654;1.46
476;1939.36;595.477;1.46
477;1963.77;583.514;1.46
478;1973.84;583.514;1.46
479;1976.28;557.878;1.46
480;1963.77;595.477;1.46
481;1924.4;589.618;1.46
482;1887.47;552.019;1.47
483;1909.45;597.43;1.47
484;1946.68;593.524;1.47
485;1963.77;587.42;1.47
486;1968.96;569.842;1.47
487;1958.89;593.524;1.47
488;1929.28;587.42;1.47
489;1917.08;611.347;1.47
490;1963.77;571.795;1.47
491;1996.12;577.654;1.47
492;2013.21;613.3;1.47
493;2015.65;567.888;1.47
494;1993.68;573.748;1.47
495;1954;575.701;1.48
496;1941.8;593.524;1.48
497;1966.52;575.701;1.48
498;1976.28;581.561;1.48
499;1978.72;559.832;1.48
500;1966.52;601.337;1.48
501;1926.84;589.618;1.48
502;1889.92;548.112;1.48
503;1909.45;601.337;1.48
504;1951.56;591.571;1.48
505;1966.52;593.524;1.48
506;1973.84;573.748;1.48
507;1963.77;597.43;1.48
508;1934.17;585.467;1.49001
509;1924.4;611.347;1.49001
510;1966.52;571.795;1.49001
511;2001;581.561;1.49001
512;2013.21;615.253;1.49001
513;2013.21;563.738;1.49001
514;1988.49;577.654;1.49001
515;1954;577.654;1.49001
516;1939.36;595.477;1.49001
517;1966.52;581.561;1.49001
518;1978.72;581.561;1.49001
519;1976.28;559.832;1.49001
520;1963.77;595.477;1.49001
521;1926.84;591.571;1.49001
522;1892.36;552.019;1.5
523;1912.19;599.384;1.5
524;1949.12;597.43;1.5
525;1963.77;593.524;1.5
526;1973.84;573.748;1.5
527;1961.33;595.477;1.5
528;1936.61;587.42;1.5
529;1921.96;611.347;1.5
530;1968.96;577.654;1.5
531;1996.12;579.608;1.5
532;2015.65;619.16;1.5
533;2015.65;569.842;1.5
534;1990.93;577.654;1.5
535;1951.56;577.654;1.5
536;1939.36;595.477;1.51
537;1966.52;573.748;1.51
538;1978.72;581.561;1.51
539;1981.17;559.832;1.51
540;1968.96;601.337;1.51
541;1926.84;587.42;1.51
542;1894.8;552.019;1.51
543;1914.64;605.243;1.51
544;1951.56;593.524;1.51
545;1966.52;593.524;1.51
546;1976.28;571.795;1.51
547;1963.77;599.384;1.51
548;1934.17;585.467;1.51
549;1924.4;611.347;1.51
550;1966.52;571.795;1.52
551;2001;571.795;1.52
552;2018.09;605.243;1.52
553;2018.09;587.42;1.52
554;1993.68;559.832;1.52
555;1956.45;585.467;1.52
556;1944.24;595.477;1.52
557;1968.96;591.571;1.52
558;1978.72;579.608;1.52
559;1983.61;563.738;1.52
560;1968.96;587.42;1.52
561;1929.28;595.477;1.52
562;1892.36;561.785;1.52
563;1914.64;587.42;1.52
564;1954;607.196;1.53
565;1968.96;585.467;1.53
566;1976.28;573.748;1.53
567;1966.52;581.561;1.53
568;1939.36;587.42;1.53
569;1926.84;609.149;1.53
570;1966.52;585.467;1.53
571;1998.56;575.701;1.53
572;2015.65;611.347;1.53
573;2018.09;577.654;1.53
574;1993.68;567.888;1.53
575;1954;579.608;1.53
576;1941.8;593.524;1.53
577;1968.96;587.42;1.53
578;1978.72;581.561;1.54
579;1978.72;559.832;1.54
580;1966.52;593.524;1.54
581;1926.84;593.524;1.54
582;1894.8;553.972;1.54
583;1909.45;593.524;1.54
584;1951.56;601.337;1.54
585;1966.52;585.467;1.54
586;1976.28;573.748;1.54
587;1966.52;589.618;1.54
588;1939.36;585.467;1.54
589;1924.4;609.149;1.54
590;1968.96;575.701;1.54
591;2001;577.654;1.54
592;2015.65;615.253;1.54
593;2018.09;575.701;1.55
594;1990.93;571.795;1.55
595;1954;577.654;1.55
596;1944.24;595.477;1.55
597;1968.96;577.654;1.55
598;1978.72;581.561;1.55
599;1981.17;559.832;1.55
600;1966.52;597.43;1.55
601;1929.28;589.618;1.55
602;1892.36;553.972;1.55
603;1909.45;599.384;1.55
604;1949.12;595.477;1.55
605;1963.77;591.571;1.55
606;1973.84;573.748;1.55
607;1961.33;593.524;1.55
608;1934.17;587.42;1.56001
609;1921.96;609.149;1.56001
610;1966.52;575.701;1.56001
611;1998.56;579.608;1.56001
612;2010.77;617.206;1.56001
613;2015.65;567.888;1.56001
614;1988.49;575.701;1.56001
615;1951.56;575.701;1.56001
616;1939.36;593.524;1.56001
617;1966.52;575.701;1.56001
618;1978.72;579.608;1.56001
619;1981.17;563.738;1.56001
620;1968.96;585.467;1.56001
621;1929.28;597.43;1.56001
622;1894.8;565.935;1.57
623;1917.08;579.608;1.57
624;1951.56;611.347;1.57
625;1966.52;581.561;1.57
626;1973.84;573.748;1.57
627;1963.77;577.654;1.57
628;1936.61;585.467;1.57
629;1924.4;603.29;1.57
630;1968.96;585.467;1.57
631;1993.68;569.842;1.57
632;2015.65;607.196;1.57
633;2020.84;583.514;1.57
634;2005.89;559.832;1.57
635;1968.96;581.561;1.57
636;1939.36;591.571;1.57
637;1958.89;589.618;1.58
638;1976.28;579.608;1.58
639;1981.17;561.785;1.58
640;1978.72;587.42;1.58
641;1946.68;591.571;1.58
642;1907.01;557.878;1.58
643;1899.68;587.42;1.58
644;1941.8;603.29;1.58
645;1966.52;583.514;1.58
646;1976.28;573.748;1.58
647;1971.4;583.514;1.58
648;1949.12;587.42;1.58
649;1921.96;609.149;1.58
650;1949.12;579.608;1.58
651;1993.68;575.701;1.58
652;2013.21;611.347;1.58
653;2023.28;577.654;1.59
654;2008.33;567.888;1.59
655;1971.4;579.608;1.59
656;1944.24;595.477;1.59
657;1958.89;583.514;1.59
658;1978.72;579.608;1.59
659;1981.17;559.832;1.59
660;1973.84;593.524;1.59
661;1944.24;589.618;1.59
662;1904.56;550.066;1.59
663;1899.68;593.524;1.59
664;1944.24;595.477;1.59
665;1963.77;587.42;1.59
666;1976.28;569.842;1.59
667;1973.84;589.618;1.59
668;1949.12;583.514;1.6
669;1919.52;607.196;1.6
670;1949.12;575.701;1.6
671;1990.93;577.654;1.6
672;2013.21;613.3;1.6
673;2023.28;567.888;1.6
674;2008.33;571.795;1.6
675;1973.84;573.748;1.6
676;1946.68;593.524;1.6
677;1961.33;575.701;1.6
678;1978.72;577.654;1.6
679;1983.61;557.878;1.6
680;1981.17;595.477;1.6
681;1949.12;589.618;1.6
682;1907.01;550.066;1.6
683;1902.12;597.43;1.6
684;1944.24;591.571;1.61
685;1966.52;589.618;1.61
686;1976.28;571.795;1.61
687;1973.84;593.524;1.61
688;1951.56;585.467;1.61
689;1924.4;607.196;1.61
690;1951.56;579.608;1.61
691;1998.56;573.748;1.61
692;2018.09;611.347;1.61
693;2025.72;575.701;1.61
694;2013.21;567.888;1.61
695;1976.28;577.654;1.61
696;1946.68;593.524;1.61
697;1966.52;581.561;1.61
698;1981.17;577.654;1.61
699;1986.05;557.878;1.61
700;1981.17;591.571;1.62
701;1949.12;589.618;1.62
702;1907.01;548.112;1.62
703;1904.56;593.524;1.62
704;1949.12;595.477;1.62
705;1971.4;587.42;1.62
706;1978.72;569.842;1.62
707;1976.28;589.618;1.62
708;1956.45;583.514;1.62
709;1926.84;607.196;1.62
710;1954;573.748;1.62
711;1998.56;575.701;1.62
712;2018.09;613.3;1.62
713;2025.72;567.888;1.62
714;2010.77;571.795;1.62
715;1973.84;573.748;1.62
716;1946.68;591.571;1.63
717;1963.77;573.748;1.63
718;1983.61;579.608;1.63
719;1986.05;555.925;1.63
720;1983.61;595.477;1.63
721;1946.68;587.42;1.63
722;1907.01;546.159;1.63
723;1904.56;575.701;1.63
724;1946.68;611.347;1.63
725;1968.96;579.608;1.63
726;1978.72;571.795;1.63
727;1978.72;575.701;1.63
728;1954;583.514;1.63
729;1929.28;597.43;1.63
730;1954;585.467;1.63
731;1998.56;567.888;1.63
732;2020.84;601.337;1.63
733;2028.16;583.514;1.64
734;2013.21;553.972;1.64
735;1978.72;579.608;1.64
736;1951.56;589.618;1.64
737;1968.96;587.42;1.64
738;1988.49;577.654;1.64
739;1990.93;561.785;1.64
740;1983.61;581.561;1.64
741;1954;595.477;1.64
742;1909.45;555.925;1.64
743;1907.01;581.561;1.64
744;1949.12;605.243;1.64
745;1973.84;579.608;1.64
746;1986.05;569.842;1.64
747;1981.17;575.701;1.64
748;1956.45;583.514;1.64
749;1934.17;601.337;1.64
750;1961.33;583.514;1.65
751;2001;569.842;1.65
752;2020.84;607.196;1.65
753;2030.61;577.654;1.65
754;2018.09;563.738;1.65
755;1981.17;579.608;1.65
756;1954;591.571;1.65
757;1968.96;587.42;1.65
758;1988.49;577.654;1.65
759;1993.68;557.878;1.65
760;1986.05;587.42;1.65
761;1956.45;593.524;1.65
762;1912.19;552.019;1.65
763;1907.01;585.467;1.65
764;1954;601.337;1.65
765;1976.28;583.514;1.65
766;1986.05;569.842;1.65
767;1983.61;581.561;1.66
768;1961.33;583.514;1.66
769;1936.61;607.196;1.66
770;1958.89;577.654;1.66
771;2003.44;571.795;1.66
772;2023.28;611.347;1.66
773;2030.61;571.795;1.66
774;2020.84;565.935;1.66
775;1983.61;573.748;1.66
776;1954;591.571;1.66
777;1971.4;581.561;1.66
778;1990.93;575.701;1.66
779;1993.68;555.925;1.66
780;1986.05;591.571;1.66
781;1954;587.42;1.66
782;1912.19;550.066;1.66
783;1909.45;593.524;1.66
784;1951.56;593.524;1.67001
785;1976.28;585.467;1.67001
786;1986.05;569.842;1.67001
787;1983.61;589.618;1.67001
788;1958.89;583.514;1.67001
789;1934.17;607.196;1.67001
790;1961.33;573.748;1.67001
791;2005.89;575.701;1.67001
792;2025.72;593.524;1.67001
793;2035.49;589.618;1.67001
794;2018.09;552.019;1.67001
795;1983.61;581.561;1.67001
796;1956.45;587.42;1.67001
797;1973.84;587.42;1.67001
798;1993.68;573.748;1.67001
799;1996.12;563.738;1.67001
800;1990.93;577.654;1.67001
801;1961.33;597.43;1.67001
802;1917.08;563.738;1.68
803;1914.64;575.701;1.68
804;1956.45;607.196;1.68
805;1978.72;579.608;1.68
806;1993.68;569.842;1.68
807;1986.05;575.701;1.68
808;1963.77;583.514;1.68
809;1939.36;601.337;1.68
810;1963.77;583.514;1.68
811;2008.33;567.888;1.68
812;2030.61;601.337;1.68
813;2037.93;585.467;1.68
814;2023.28;555.925;1.68
815;1988.49;577.654;1.68
816;1956.45;587.42;1.68
817;1978.72;587.42;1.68
818;1996.12;575.701;1.69
819;2001;557.878;1.69
820;1993.68;585.467;1.69
821;1961.33;589.618;1.69
822;1917.08;553.972;1.69
823;1914.64;581.561;1.69
824;1958.89;603.29;1.69
825;1978.72;581.561;1.69
826;1988.49;567.888;1.69
827;1988.49;577.654;1.69
828;1963.77;583.514;1.69
829;1939.36;605.243;1.69
830;1968.96;579.608;1.69
831;2008.33;571.795;1.69
832;2028.16;605.243;1.69
833;2037.93;577.654;1.69
834;2020.84;561.785;1.69
835;1981.17;575.701;1.7
836;1956.45;591.571;1.7
837;1973.84;585.467;1.7
838;1990.93;573.748;1.7
839;2001;553.972;1.7
840;1990.93;587.42;1.7
841;1958.89;589.618;1.7
842;1917.08;552.019;1.7
843;1914.64;587.42;1.7
844;1956.45;595.477;1.7
845;1978.72;583.514;1.7
846;1988.49;569.842;1.7
847;1986.05;581.561;1.7
848;1963.77;583.514;1.7
849;1936.61;607.196;1.7
850;1963.77;573.748;1.7
851;2010.77;571.795;1.7
852;2028.16;611.347;1.71
853;2037.93;569.842;1.71
854;2018.09;567.888;1.71
855;1983.61;573.748;1.71
856;1956.45;589.618;1.71
857;1978.72;575.701;1.71
858;1996.12;577.654;1.71
859;1998.56;553.972;1.71
860;1993.68;585.467;1.71
861;1958.89;591.571;1.71
862;1919.52;553.972;1.71
863;1917.08;579.608;1.71
864;1961.33;601.337;1.71
865;1981.17;581.561;1.71
866;1993.68;567.888;1.71
867;1990.93;573.748;1.71
868;1966.52;581.561;1.72
869;1939.36;605.243;1.72
870;1966.52;579.608;1.72
871;2010.77;571.795;1.72
872;2025.72;607.196;1.72
873;2035.49;575.701;1.72
874;2020.84;561.785;1.72
875;1986.05;575.701;1.72
876;1958.89;591.571;1.72
877;1976.28;583.514;1.72
878;1996.12;575.701;1.72
879;2001;555.925;1.72
880;1996.12;587.42;1.72
881;1961.33;587.42;1.72
882;1917.08;550.066;1.72
883;1914.64;587.42;1.72
884;1961.33;597.43;1.72
885;1981.17;585.467;1.72
886;1993.68;567.888;1.73
887;1988.49;581.561;1.73
888;1966.52;581.561;1.73
889;1941.8;605.243;1.73
890;1968.96;571.795;1.73
891;2010.77;571.795;1.73
892;2030.61;611.347;1.73
893;2040.37;569.842;1.73
894;2023.28;567.888;1.73
895;1986.05;577.654;1.73
896;1956.45;583.514;1.73
897;1978.72;587.42;1.73
898;1993.68;573.748;1.73
899;1998.56;565.935;1.73
900;1993.68;575.701;1.73
901;1958.89;599.384;1.73
902;1917.08;567.888;1.73
903;1919.52;571.795;1.74001
904;1961.33;613.3;1.74001
905;1983.61;581.561;1.74001
906;1993.68;571.795;1.74001
907;1988.49;573.748;1.74001
908;1968.96;583.514;1.74001
909;1941.8;593.524;1.74001
910;1968.96;585.467;1.74001
911;2013.21;565.935;1.74001
912;2030.61;595.477;1.74001
913;2040.37;587.42;1.74001
914;2023.28;553.972;1.74001
915;1986.05;577.654;1.74001
916;1961.33;587.42;1.74001
917;1981.17;585.467;1.74001
918;1996.12;573.748;1.74001
919;2001;559.832;1.74001
920;1993.68;577.654;1.75
921;1961.33;593.524;1.75
922;1917.08;559.832;1.75
923;1917.08;575.701;1.75
924;1961.33;605.243;1.75
925;1983.61;579.608;1.75
926;1996.12;567.888;1.75
927;1990.93;573.748;1.75
928;1971.4;581.561;1.75
929;1941.8;601.337;1.75
930;1971.4;581.561;1.75
931;2013.21;567.888;1.75
932;2030.61;601.337;1.75
933;2037.93;581.561;1.75
934;2023.28;555.925;1.75
935;1986.05;575.701;1.75
936;1958.89;589.618;1.75
937;1978.72;585.467;1.76
938;1996.12;575.701;1.76
939;2003.44;555.925;1.76
940;1996.12;585.467;1.76
941;1963.77;589.618;1.76
942;1919.52;552.019;1.76
943;1917.08;583.514;1.76
944;1961.33;601.337;1.76
945;1983.61;581.561;1.76
946;1996.12;567.888;1.76
947;1993.68;575.701;1.76
948;1966.52;583.514;1.76
949;1941.8;603.29;1.76
950;1968.96;575.701;1.76
951;2013.21;569.842;1.76
952;2030.61;607.196;1.76
953;2037.93;573.748;1.76
954;2023.28;563.738;1.77
955;1983.61;575.701;1.77
956;1961.33;591.571;1.77
957;1983.61;581.561;1.77
958;1998.56;575.701;1.77
959;2003.44;553.972;1.77
960;1996.12;589.618;1.77
961;1963.77;587.42;1.77
962;1919.52;550.066;1.77
963;1919.52;589.618;1.77
964;1963.77;617.206;1.77
965;1988.49;579.608;1.77
966;1996.12;575.701;1.77
967;1993.68;573.748;1.77
968;1971.4;585.467;1.77
969;1949.12;589.618;1.77
970;1976.28;589.618;1.77
971;2015.65;559.832;1.78
972;2037.93;587.42;1.78
973;2042.81;593.524;1.78
974;2028.16;548.112;1.78
975;1990.93;577.654;1.78
976;1963.77;583.514;1.78
977;1983.61;587.42;1.78
978;2001;573.748;1.78
979;2005.89;563.738;1.78
980;2001;573.748;1.78
981;1966.52;595.477;1.78
982;1926.84;565.935;1.78
983;1924.4;569.842;1.78
984;1966.52;609.149;1.78
985;1990.93;579.608;1.78
986;1998.56;569.842;1.78
987;1996.12;573.748;1.78
988;1968.96;583.514;1.79
989;1944.24;597.43;1.79
990;1973.84;585.467;1.79
991;2018.09;561.785;1.79
992;2035.49;597.43;1.79
993;2045.26;583.514;1.79
994;2025.72;553.972;1.79
995;1990.93;579.608;1.79
996;1966.52;587.42;1.79
997;1983.61;583.514;1.79
998;2005.89;573.748;1.79
999;2010.77;559.832;1.79
1000;2003.44;581.561;1.79
1001;1968.96;593.524;1.79
1002;1926.84;555.925;1.79
1003;1926.84;577.654;1.79
1004;1968.96;607.196;1.79
1005;1990.93;581.561;1.8
1006;2001;569.842;1.8
1007;1996.12;575.701;1.8
1008;1976.28;583.514;1.8
1009;1949.12;601.337;1.8
1010;1976.28;579.608;1.8
1011;2020.84;565.935;1.8
1012;2040.37;605.243;1.8
1013;2048;577.654;1.8
1014;2030.61;559.832;1.8
1015;1993.68;575.701;1.8
1016;1966.52;589.618;1.8
1017;1983.61;585.467;1.8
1018;2001;573.748;1.8
1019;2008.33;553.972;1.8
1020;2001;585.467;1.8
1021;1968.96;587.42;1.8
1022;1926.84;550.066;1.8
1023;1924.4;585.467;1.81001
1024;1971.4;597.43;1.81001
1025;1993.68;581.561;1.81001
1026;2003.44;565.935;1.81001
1027;1998.56;577.654;1.81001
1028;1973.84;581.561;1.81001
1029;1946.68;603.29;1.81001
1030;1978.72;571.795;1.81001
1031;2020.84;571.795;1.81001
1032;2040.37;597.43;1.81001
1033;2048;585.467;1.81001
1034;2030.61;553.972;1.81001
1035;1993.68;577.654;1.81001
1036;1971.4;585.467;1.81001
1037;1988.49;587.42;1.81001
1038;2005.89;575.701;1.81001
1039;2008.33;555.925;1.82
1040;2005.89;579.608;1.82
1041;1968.96;591.571;1.82
1042;1929.28;555.925;1.82
1043;1929.28;577.654;1.82
1044;1973.84;601.337;1.82
1045;1996.12;577.654;1.82
1046;2008.33;567.888;1.82
1047;2001;575.701;1.82
1048;1978.72;583.514;1.82
1049;1954;599.384;1.82
1050;1981.17;579.608;1.82
1051;2023.28;567.888;1.82
1052;2040.37;603.29;1.82
1053;2052.88;577.654;1.82
1054;2030.61;559.832;1.82
1055;1996.12;575.701;1.82
1056;1968.96;589.618;1.82
1057;1990.93;585.467;1.83
1058;2005.89;575.701;1.83
1059;2013.21;555.925;1.83
1060;2005.89;585.467;1.83
1061;1971.4;589.618;1.83
1062;1929.28;550.066;1.83
1063;1929.28;583.514;1.83
1064;1973.84;599.384;1.83
1065;1993.68;581.561;1.83
1066;2005.89;567.888;1.83
1067;2003.44;571.795;1.83
1068;1978.72;585.467;1.83
1069;1954;585.467;1.83
1070;1978.72;589.618;1.83
1071;2025.72;555.925;1.83
1072;2042.81;585.467;1.83
1073;2050.44;597.43;1.84
1074;2033.05;544.206;1.84
1075;1996.12;577.654;1.84
1076;1971.4;581.561;1.84
1077;1990.93;585.467;1.84
1078;2008.33;571.795;1.84
1079;2010.77;567.888;1.84
1080;2005.89;571.795;1.84
1081;1976.28;597.43;1.84
1082;1931.73;569.842;1.84
1083;1931.73;563.738;1.84
1084;1976.28;613.3;1.84
1085;1998.56;579.608;1.84
1086;2005.89;571.795;1.84
1087;2003.44;571.795;1.84
1088;1981.17;583.514;1.84
1089;1954;593.524;1.84
1090;1983.61;587.42;1.84
1091;2025.72;561.785;1.85
1092;2048;591.571;1.85
1093;2052.88;587.42;1.85
1094;2033.05;550.066;1.85
1095;1998.56;577.654;1.85
1096;1968.96;585.467;1.85
1097;1990.93;583.514;1.85
1098;2010.77;573.748;1.85
1099;2015.65;559.832;1.85
1100;2008.33;575.701;1.85
1101;1976.28;593.524;1.85
1102;1931.73;561.785;1.85
1103;1931.73;573.748;1.85
1104;1978.72;609.149;1.85
1105;1998.56;579.608;1.85
1106;2008.33;567.888;1.85
1107;2005.89;573.748;1.85
1108;1981.17;583.514;1.86
1109;1954;597.43;1.86
1110;1986.05;583.514;1.86
1111;2028.16;563.738;1.86
1112;2048;599.384;1.86
1113;2057.77;579.608;1.86
1114;2037.93;555.925;1.86
1115;2003.44;575.701;1.86
1116;1973.84;585.467;1.86
1117;1998.56;583.514;1.86
1118;2013.21;573.748;1.86
1119;2018.09;555.925;1.86
1120;2010.77;583.514;1.86
1121;1978.72;589.618;1.86
1122;1936.61;553.972;1.86
1123;1934.17;579.608;1.86
1124;1978.72;603.29;1.86
1125;2001;579.608;1.87
1126;2010.77;565.935;1.87
1127;2008.33;571.795;1.87
1128;1981.17;579.608;1.87
1129;1956.45;603.29;1.87
1130;1986.05;573.748;1.87
1131;2028.16;569.842;1.87
1132;2048;603.29;1.87
1133;2055.33;575.701;1.87
1134;2040.37;559.832;1.87
1135;2001;573.748;1.87
1136;1976.28;575.701;1.87
1137;1993.68;583.514;1.87
1138;2010.77;569.842;1.87
1139;2018.09;571.795;1.87
1140;2010.77;565.935;1.87
1141;1976.28;601.337;1.87
1142;1934.17;569.842;1.88
1143;1936.61;559.832;1.88
1144;1978.72;615.253;1.88
1145;2003.44;577.654;1.88
1146;2010.77;571.795;1.88
1147;2008.33;571.795;1.88
1148;1983.61;585.467;1.88
1149;1958.89;589.618;1.88
1150;1988.49;589.618;1.88
1151;2035.49;555.925;1.88
1152;2052.88;585.467;1.88
1153;2060.21;593.524;1.88
1154;2040.37;544.206;1.88
1155;2005.89;575.701;1.88
1156;1978.72;581.561;1.88
1157;2001;583.514;1.88
1158;2018.09;571.795;1.88
1159;2023.28;563.738;1.89
1160;2013.21;571.795;1.89
1161;1983.61;597.43;1.89
1162;1941.8;569.842;1.89
1163;1941.8;565.935;1.89
1164;1986.05;609.149;1.89
1165;2005.89;575.701;1.89
1166;2018.09;571.795;1.89
1167;2013.21;571.795;1.89
1168;1988.49;583.514;1.89
1169;1961.33;591.571;1.89
1170;1990.93;583.514;1.89
1171;2037.93;559.832;1.89
1172;2055.33;593.524;1.89
1173;2062.65;585.467;1.89
1174;2045.26;550.066;1.89
1175;2010.77;579.608;1.89
1176;1983.61;585.467;1.89
1177;2003.44;581.561;1.89
1178;2020.84;575.701;1.9
1179;2025.72;561.785;1.9
1180;2018.09;575.701;1.9
1181;1986.05;593.524;1.9
1182;1946.68;559.832;1.9
1183;1946.68;573.748;1.9
1184;1990.93;603.29;1.9
1185;2010.77;575.701;1.9
1186;2023.28;567.888;1.9
1187;2015.65;571.795;1.9
1188;1990.93;579.608;1.9
1189;1966.52;597.43;1.9
1190;1996.12;579.608;1.9
1191;2037.93;565.935;1.9
1192;2055.33;599.384;1.9
1193;2065.09;579.608;1.9
1194;2048;553.972;1.9
1195;2010.77;575.701;1.9
1196;1986.05;589.618;1.91
1197;2005.89;583.514;1.91
1198;2023.28;573.748;1.91
1199;2028.16;553.972;1.91
1200;2020.84;581.561;1.91
1201;1986.05;589.618;1.91
1202;1941.8;553.972;1.91
1203;1946.68;581.561;1.91
1204;1988.49;599.384;1.91
1205;2013.21;577.654;1.91
1206;2023.28;569.842;1.91
1207;2018.09;571.795;1.91
1208;1990.93;583.514;1.91
1209;1968.96;591.571;1.91
1210;1993.68;583.514;1.91
1211;2040.37;561.785;1.91
1212;2057.77;593.524;1.91
1213;2065.09;585.467;1.92001
1214;2048;548.112;1.92001
1215;2010.77;575.701;1.92001
1216;1986.05;585.467;1.92001
1217;2003.44;585.467;1.92001
1218;2023.28;571.795;1.92001
1219;2028.16;557.878;1.92001
1220;2018.09;577.654;1.92001
1221;1986.05;589.618;1.92001
1222;1944.24;555.925;1.92001
1223;1944.24;573.748;1.92001
1224;1988.49;605.243;1.92001
1225;2010.77;575.701;1.92001
1226;2020.84;567.888;1.92001
1227;2015.65;575.701;1.92001
1228;1988.49;579.608;1.92001
1229;1966.52;597.43;1.92001
1230;1996.12;577.654;1.92001
1231;2040.37;565.935;1.93
1232;2062.65;601.337;1.93
1233;2067.53;577.654;1.93
1234;2050.44;557.878;1.93
1235;2013.21;575.701;1.93
1236;1986.05;585.467;1.93
1237;2010.77;583.514;1.93
1238;2025.72;573.748;1.93
1239;2033.05;571.795;1.93
1240;2025.72;561.785;1.93
1241;1990.93;603.29;1.93
1242;1946.68;575.701;1.93
1243;1951.56;553.972;1.93
1244;1996.12;615.253;1.93
1245;2018.09;577.654;1.93
1246;2028.16;575.701;1.93
1247;2023.28;569.842;1.93
1248;1996.12;585.467;1.94
1249;1973.84;585.467;1.94
1250;2003.44;593.524;1.94
1251;2045.26;553.972;1.94
1252;2065.09;579.608;1.94
1253;2072.42;597.43;1.94
1254;2057.77;544.206;1.94
1255;2020.84;575.701;1.94
1256;1996.12;577.654;1.94
1257;2015.65;583.514;1.94
1258;2033.05;567.888;1.94
1259;2037.93;567.888;1.94
1260;2030.61;565.935;1.94
1261;1996.12;599.384;1.94
1262;1954;571.795;1.94
1263;1956.45;563.738;1.94
1264;2001;613.3;1.95
1265;2020.84;577.654;1.95
1266;2033.05;571.795;1.95
1267;2028.16;569.842;1.95
1268;2001;579.608;1.95
1269;1976.28;587.42;1.95
1270;1988.49;589.618;1.95
1271;2037.93;555.925;1.95
1272;2062.65;591.571;1.95
1273;2075.16;589.618;1.95
1274;2069.98;546.159;1.95
1275;2035.49;573.748;1.95
1276;2001;583.514;1.95
1277;2005.89;585.467;1.95
1278;2030.61;573.748;1.95
1279;2037.93;559.832;1.95
1280;2037.93;573.748;1.95
1281;2015.65;595.477;1.96
1282;1973.84;561.785;1.96
1283;1949.12;567.888;1.96
1284;1986.05;609.149;1.96
1285;2015.65;577.654;1.96
1286;2030.61;567.888;1.96
1287;2030.61;571.795;1.96
1288;2013.21;583.514;1.96
1289;1983.61;595.477;1.96
1290;1988.49;579.608;1.96
1291;2040.37;563.738;1.96
1292;2065.09;595.477;1.96
1293;2077.6;581.561;1.96
1294;2072.42;552.019;1.96
1295;2040.37;575.701;1.96
1296;2005.89;585.467;1.96
1297;2010.77;581.561;1.97
1298;2037.93;569.842;1.97
1299;2045.26;555.925;1.97
1300;2045.26;577.654;1.97
1301;2020.84;591.571;1.97
1302;1978.72;555.925;1.97
1303;1954;577.654;1.97
1304;1990.93;603.29;1.97
1305;2020.84;575.701;1.97
1306;2037.93;565.935;1.97
1307;2040.37;571.795;1.97
1308;2020.84;585.467;1.97
1309;1988.49;579.608;1.97
1310;1993.68;595.477;1.97
1311;2045.26;552.019;1.97
1312;2072.42;575.701;1.97
1313;2084.93;601.337;1.98
1314;2080.05;540.056;1.98
1315;2045.26;573.748;1.98
1316;2010.77;573.748;1.98
1317;2013.21;583.514;1.98
1318;2037.93;569.842;1.98
1319;2045.26;571.795;1.98
1320;2042.81;563.738;1.98
1321;2018.09;603.29;1.98
1322;1973.84;575.701;1.98
1323;1951.56;553.972;1.98
1324;1990.93;615.253;1.98
1325;2023.28;577.654;1.98
1326;2040.37;573.748;1.98
1327;2042.81;569.842;1.98
1328;2025.72;583.514;1.99001
1329;1993.68;583.514;1.99001
1330;1998.56;591.571;1.99001
1331;2048;553.972;1.99001
1332;2072.42;581.561;1.99001
1333;2084.93;595.477;1.99001
1334;2077.6;542.009;1.99001
1335;2045.26;575.701;1.99001
1336;2010.77;579.608;1.99001
1337;2015.65;581.561;1.99001
1338;2040.37;567.888;1.99001
1339;2050.44;565.935;1.99001
1340;2045.26;567.888;1.99001
1341;2020.84;597.43;1.99001
1342;1978.72;565.935;1.99001
1343;1954;561.785;1.99001
1344;1993.68;611.347;2
1345;2025.72;573.748;2
1346;2042.81;569.842;2
1347;2045.26;569.842;2
1348;2028.16;583.514;2
1349;1993.68;587.42;2
1350;2001;583.514;2
1351;2050.44;555.925;2
1352;2077.6;589.618;2
1353;2089.81;585.467;2
1354;2082.49;546.159;2
1355;2050.44;575.701;2
1356;2013.21;581.561;2
1357;2018.09;581.561;2
1358;2045.26;571.795;2
1359;2055.33;557.878;2.01
1360;2052.88;571.795;2.01
1361;2028.16;591.571;2.01
1362;1983.61;561.785;2.01
1363;1958.89;569.842;2.01
1364;1996.12;605.243;2.01
1365;2028.16;575.701;2.01
1366;2042.81;565.935;2.01
1367;2045.26;569.842;2.01
1368;2025.72;579.608;2.01
1369;1996.12;595.477;2.01
1370;1998.56;581.561;2.01
1371;2050.44;561.785;2.01
1372;2077.6;597.43;2.01
1373;2089.81;579.608;2.01
1374;2084.93;552.019;2.02
1375;2050.44;573.748;2.02
1376;2013.21;579.608;2.02
1377;2018.09;583.514;2.02
1378;2045.26;571.795;2.02
1379;2050.44;565.935;2.02
1380;2050.44;565.935;2.02
1381;2025.72;595.477;2.02
1382;1986.05;565.935;2.02
1383;1958.89;565.935;2.02
1384;1998.56;611.347;2.02
1385;2030.61;575.701;2.02
1386;2045.26;569.842;2.02
1387;2048;567.888;2.02
1388;2028.16;579.608;2.02
1389;1996.12;589.618;2.03
1390;2003.44;585.467;2.03
1391;2055.33;559.832;2.03
1392;2080.05;589.618;2.03
1393;2092.25;585.467;2.03
1394;2084.93;548.112;2.03
1395;2055.33;577.654;2.03
1396;2018.09;583.514;2.03
1397;2020.84;583.514;2.03
1398;2045.26;571.795;2.03
1399;2052.88;557.878;2.03
1400;2052.88;573.748;2.03
1401;2028.16;589.618;2.03
1402;1983.61;557.878;2.03
1403;1958.89;569.842;2.03
1404;2001;607.196;2.04
1405;2035.49;573.748;2.04
1406;2045.26;565.935;2.04
1407;2050.44;567.888;2.04
1408;2030.61;581.561;2.04
1409;2003.44;593.524;2.04
1410;2008.33;581.561;2.04
1411;2055.33;550.066;2.04
1412;2080.05;575.701;2.04
1413;2092.25;605.243;2.04
1414;2087.37;544.206;2.04
1415;2055.33;573.748;2.04
1416;2018.09;569.842;2.04
1417;2025.72;583.514;2.04
1418;2050.44;565.935;2.04
1419;2057.77;571.795;2.05
1420;2055.33;559.832;2.05
1421;2033.05;603.29;2.05
1422;1990.93;575.701;2.05
1423;1968.96;552.019;2.05
1424;2008.33;611.347;2.05
1425;2042.81;575.701;2.05
1426;2055.33;573.748;2.05
1427;2057.77;567.888;2.05
1428;2040.37;585.467;2.05
1429;2010.77;579.608;2.05
1430;2013.21;593.524;2.05
1431;2067.53;552.019;2.05
1432;2089.81;577.654;2.05
1433;2104.77;599.384;2.05
1434;2094.7;538.102;2.06001
1435;2062.65;573.748;2.06001
1436;2025.72;575.701;2.06001
1437;2033.05;581.561;2.06001
1438;2057.77;565.935;2.06001
1439;2067.53;567.888;2.06001
1440;2065.09;561.785;2.06001
1441;2042.81;601.337;2.06001
1442;1996.12;571.795;2.06001
1443;1973.84;555.925;2.06001
1444;2010.77;615.253;2.06001
1445;2045.26;577.654;2.06001
1446;2060.21;569.842;2.06001
1447;2065.09;569.842;2.06001
1448;2045.26;583.514;2.06001
1449;2010.77;581.561;2.07
1450;2020.84;589.618;2.07
1451;2072.42;553.972;2.07
1452;2094.7;583.514;2.07
1453;2109.65;591.571;2.07
1454;2102.32;542.009;2.07
1455;2067.53;575.701;2.07
1456;2033.05;579.608;2.07
1457;2040.37;581.561;2.07
1458;2065.09;567.888;2.07
1459;2075.16;561.785;2.07
1460;2072.42;567.888;2.07
1461;2045.26;595.477;2.07
1462;2003.44;561.785;2.07
1463;1981.17;563.738;2.08
1464;2023.28;611.347;2.08
1465;2055.33;573.748;2.08
1466;2069.98;567.888;2.08
1467;2075.16;567.888;2.08
1468;2055.33;581.561;2.08
1469;2025.72;589.618;2.08
1470;2030.61;581.561;2.08
1471;2080.05;559.832;2.08
1472;2104.77;589.618;2.08
1473;2116.97;583.514;2.08
1474;2109.65;546.159;2.08
1475;2075.16;573.748;2.08
1476;2037.93;583.514;2.08
1477;2045.26;581.561;2.08
1478;2075.16;569.842;2.09
1479;2077.6;555.925;2.09
1480;2077.6;555.925;2.09
1481;2055.33;603.29;2.09
1482;2008.33;577.654;2.09
1483;1986.05;544.206;2.09
1484;2025.72;609.149;2.09
1485;2057.77;579.608;2.09
1486;2075.16;577.654;2.09
1487;2075.16;563.738;2.09
1488;2057.77;585.467;2.09
1489;2025.72;577.654;2.09
1490;2033.05;597.43;2.09
1491;2082.49;552.019;2.09
1492;2109.65;575.701;2.09
1493;2121.86;601.337;2.1
1494;2114.53;544.206;2.1
1495;2082.49;575.701;2.1
1496;2045.26;573.748;2.1
1497;2048;585.467;2.1
1498;2077.6;563.738;2.1
1499;2084.93;571.795;2.1
1500;2082.49;555.925;2.1
1501;2060.21;603.29;2.1
1502;2015.65;573.748;2.1
1503;1990.93;553.972;2.1
1504;2033.05;611.347;2.1
1505;2065.09;577.654;2.1
1506;2080.05;575.701;2.1
1507;2082.49;569.842;2.11
1508;2060.21;585.467;2.11
1509;2033.05;579.608;2.11
1510;2040.37;591.571;2.11
1511;2087.37;552.019;2.11
1512;2114.53;579.608;2.11
1513;2126.74;595.477;2.11
1514;2119.42;536.149;2.11
1515;2084.93;573.748;2.11
1516;2048;575.701;2.11
1517;2052.88;581.561;2.11
1518;2080.05;565.935;2.11
1519;2089.81;563.738;2.11
1520;2087.37;563.738;2.11
1521;2062.65;597.43;2.11
1522;2020.84;569.842;2.12
1523;1993.68;555.925;2.12
1524;2037.93;611.347;2.12
1525;2067.53;573.748;2.12
1526;2080.05;567.888;2.12
1527;2084.93;567.888;2.12
1528;2065.09;579.608;2.12
1529;2035.49;583.514;2.12
1530;2040.37;585.467;2.12
1531;2094.7;553.972;2.12
1532;2119.42;585.467;2.12
1533;2134.37;587.42;2.12
1534;2124.3;540.056;2.12
1535;2089.81;571.795;2.12
1536;2052.88;579.608;2.12
1537;2057.77;581.561;2.13
1538;2087.37;567.888;2.13
1539;2094.7;561.785;2.13
1540;2092.25;571.795;2.13
1541;2067.53;593.524;2.13
1542;2028.16;561.785;2.13
1543;2001;563.738;2.13
1544;2042.81;609.149;2.13
1545;2077.6;573.748;2.13
1546;2089.81;565.935;2.13
1547;2094.7;569.842;2.13
1548;2075.16;577.654;2.13
1549;2042.81;577.654;2.13
1550;2048;591.571;2.13
1551;2099.58;552.019;2.13
1552;2126.74;577.654;2.14
1553;2136.81;595.477;2.14
1554;2129.49;538.102;2.14
1555;2094.7;573.748;2.14
1556;2057.77;573.748;2.14
1557;2065.09;583.514;2.14
1558;2092.25;565.935;2.14
1559;2099.58;563.738;2.14
1560;2099.58;563.738;2.14
1561;2072.42;597.43;2.14
1562;2028.16;567.888;2.14
1563;2005.89;557.878;2.14
1564;2048;613.3;2.14
1565;2082.49;573.748;2.14
1566;2097.14;571.795;2.15
1567;2097.14;565.935;2.15
1568;2080.05;579.608;2.15
1569;2048;583.514;2.15
1570;2052.88;585.467;2.15
1571;2102.32;552.019;2.15
1572;2129.49;585.467;2.15
1573;2141.69;587.42;2.15
1574;2131.93;542.009;2.15
1575;2099.58;573.748;2.15
1576;2062.65;581.561;2.15
1577;2067.53;581.561;2.15
1578;2094.7;567.888;2.15
1579;2099.58;559.832;2.15
1580;2102.32;569.842;2.15
1581;2077.6;595.477;2.15
1582;2035.49;557.878;2.16
1583;2008.33;542.009;2.16
1584;2052.88;599.384;2.16
1585;2084.93;579.608;2.16
1586;2097.14;575.701;2.16
1587;2102.32;565.935;2.16
1588;2080.05;585.467;2.16
1589;2050.44;571.795;2.16
1590;2057.77;595.477;2.16
1591;2107.21;552.019;2.16
1592;2134.37;571.795;2.16
1593;2146.58;603.29;2.16
1594;2139.25;544.206;2.16
1595;2104.77;569.842;2.16
1596;2065.09;567.888;2.17001
1597;2075.16;581.561;2.17001
1598;2102.32;561.785;2.17001
1599;2107.21;569.842;2.17001
1600;2107.21;555.925;2.17001
1601;2080.05;601.337;2.17001
1602;2035.49;575.701;2.17001
1603;2013.21;550.066;2.17001
1604;2057.77;605.243;2.17001
1605;2092.25;575.701;2.17001
1606;2104.77;575.701;2.17001
1607;2104.77;565.935;2.17001
1608;2084.93;583.514;2.17001
1609;2052.88;575.701;2.17001
1610;2062.65;591.571;2.18
1611;2114.53;550.066;2.18
1612;2141.69;575.701;2.18
1613;2153.9;599.384;2.18
1614;2144.14;538.102;2.18
1615;2109.65;569.842;2.18
1616;2069.98;573.748;2.18
1617;2080.05;579.608;2.18
1618;2107.21;561.785;2.18
1619;2112.09;567.888;2.18
1620;2112.09;559.832;2.18
1621;2087.37;597.43;2.18
1622;2042.81;571.795;2.18
1623;2020.84;553.972;2.19
1624;2065.09;611.347;2.19
1625;2097.14;571.795;2.19
1626;2112.09;571.795;2.19
1627;2116.97;565.935;2.19
1628;2092.25;583.514;2.19
1629;2062.65;579.608;2.19
1630;2067.53;587.42;2.19
1631;2121.86;553.972;2.19
1632;2149.02;579.608;2.19
1633;2159.09;593.524;2.19
1634;2151.46;536.149;2.19
1635;2116.97;573.748;2.19
1636;2077.6;575.701;2.2
1637;2084.93;579.608;2.2
1638;2112.09;565.935;2.2
1639;2121.86;559.832;2.2
1640;2119.42;563.738;2.2
1641;2092.25;595.477;2.2
1642;2048;563.738;2.2
1643;2028.16;559.832;2.2
1644;2069.98;611.347;2.2
1645;2104.77;573.748;2.2
1646;2119.42;569.842;2.2
1647;2121.86;567.888;2.2
1648;2097.14;581.561;2.2
1649;2065.09;585.467;2.2
1650;2075.16;581.561;2.21
1651;2126.74;553.972;2.21
1652;2151.46;567.888;2.21
1653;2163.97;605.243;2.21
1654;2153.9;548.112;2.21
1655;2119.42;567.888;2.21
1656;2080.05;565.935;2.21
1657;2092.25;581.561;2.21
1658;2119.42;559.832;2.21
1659;2124.3;571.795;2.21
1660;2126.74;550.066;2.21
