<WeldAnalyseData xmlns:i="http:www.w3.org/2001/XMLSchema-instance">
<WeldParameter>
<TimeStamp>DT#2024-01-25-14:28:02</TimeStamp>
<Generator>SG-22-10000</Generator>
<GenFreq>20</GenFreq>
<MaxForce>8000</MaxForce>
<MaxPower>10000</MaxPower>
<RunupPressure>1.5</RunupPressure>
<RunupDist>10</RunupDist>
<RunPress>0.8</RunPress>
<ShakeDelay>0.03</ShakeDelay>
<ShakeTime>0.3</ShakeTime>
<RunBackPress1>6</RunBackPress1>
<RunBackPress2>2</RunBackPress2>
<RunBackDist>1</RunBackDist>
<TrigValue>500</TrigValue>
<TrigModeUnit>W</TrigModeUnit>
<WeldModeUnit>Ws</WeldModeUnit>
<PressNr>0</PressNr>
<MaxLoss>1500</MaxLoss>
</WeldParameter>
<WeldSets>
<WeldSet>
<PressRiseTime>0</PressRiseTime>
<RunPressure>1</RunPressure>
<Amplitude>86</Amplitude>
<WeldMode>3270</WeldMode>
</WeldSet>
</WeldSets>
<WeldValue>
<WeldNr>3024</WeldNr>
<RecipeName>RickStyle</RecipeName>
<WeldTime>1670</WeldTime>
<DistDiff>2.29</DistDiff>
<DistAbs>77.98</DistAbs>
<Energy>3271.31</Energy>
<MaxPower>2210.28</MaxPower>
<CycleTime>5950</CycleTime>
<TrigForce>502.701</TrigForce>
<TrigDist>75.69</TrigDist>
<RunSpeed>68.6842</RunSpeed>
<MaxForce>625.019</MaxForce>
<LossPower>320.311</LossPower>
</WeldValue>
</WeldAnalyseData>
#CSV-START#
ms;Power[W];Force[N];Distance[mm]
1;0;0;0
2;0;504.654;0
3;0;504.654;0
4;0;504.654;0
5;0;502.701;0
6;0;504.654;0
7;0;504.654;0
8;0;482.925;0
9;0;429.456;0.0199966
10;0;407.971;0.0400009
11;0;376.232;0.0699997
12;30.0417;360.363;0.0999985
13;94.4357;338.633;0.139999
14;173.479;323.008;0.18
15;249.775;311.045;0.220001
16;314.169;311.045;0.259995
17;363.609;299.326;0.309998
18;425.256;295.419;0.349998
19;496.67;319.102;0.389999
20;565.947;311.045;0.43
21;632.477;312.998;0.459999
22;696.871;323.008;0.489998
23;763.401;332.774;0.519997
24;827.796;352.55;0.540001
25;906.839;352.55;0.559998
26;983.135;348.643;0.579994
27;1045.09;380.139;0.599998
28;1104.29;376.232;0.610001
29;1148.55;368.419;0.619995
30;1170.82;392.102;0.629997
31;1195.54;403.821;0.639999
32;1240.1;403.821;0.639999
33;1284.35;405.774;0.649994
34;1316.7;390.149;0.649994
35;1348.75;413.831;0.659996
36;1356.07;417.737;0.669998
37;1356.07;394.055;0.669998
38;1380.79;417.737;0.68
39;1440;449.232;0.689995
40;1482.11;417.737;0.699997
41;1514.16;419.691;0.699997
42;1538.88;413.831;0.709999
43;1546.2;429.456;0.709999
44;1548.64;429.456;0.720001
45;1595.64;439.467;0.729996
46;1649.96;405.774;0.729996
47;1689.33;433.607;0.739998
48;1721.38;447.279;0.75
49;1726.57;399.915;0.75
50;1716.49;433.607;0.759995
51;1714.05;435.56;0.769997
52;1748.54;441.42;0.769997
53;1783.33;431.654;0.779999
54;1810.49;429.456;0.790001
55;1825.14;429.456;0.790001
56;1810.49;465.102;0.799995
57;1788.21;437.513;0.809998
58;1800.42;435.56;0.82
59;1859.63;484.878;0.82
60;1894.42;455.336;0.829994
61;1919.14;451.186;0.829994
62;1926.46;451.186;0.839996
63;1916.7;465.102;0.839996
64;1904.18;480.972;0.849998
65;1943.86;472.915;0.849998
66;2000.62;451.186;0.860001
67;2035.11;484.878;0.860001
68;2054.94;480.972;0.869995
69;2047.32;445.326;0.869995
70;2017.71;475.112;0.869995
71;2000.62;480.972;0.879997
72;2030.22;484.878;0.879997
73;2059.83;472.915;0.889999
74;2074.48;461.196;0.889999
75;2072.04;479.019;0.899994
76;2047.32;494.644;0.899994
77;2007.95;463.149;0.899994
78;2012.83;479.019;0.909996
79;2069.59;510.514;0.909996
80;2096.76;488.784;0.919998
81;2114.15;479.019;0.919998
82;2111.71;482.925;0.93
83;2086.99;494.644;0.93
84;2064.71;514.42;0.93
85;2101.64;496.597;0.939995
86;2151.08;482.925;0.939995
87;2180.68;520.524;0.939995
88;2193.19;494.644;0.949997
89;2175.8;479.019;0.949997
90;2138.87;496.597;0.959999
91;2111.71;508.56;0.959999
92;2138.87;510.514;0.959999
93;2163.59;498.795;0.970001
94;2173.36;477.065;0.970001
95;2168.47;508.56;0.970001
96;2131.24;516.373;0.979996
97;2082.11;477.065;0.979996
98;2084.55;512.467;0.979996
99;2133.99;528.336;0.989998
100;2158.4;508.56;0.989998
101;2168.47;508.56;0.989998
102;2158.4;498.795;1
103;2128.8;516.373;1
104;2101.64;518.326;1
105;2136.43;524.43;1.00999
106;2180.68;484.878;1.00999
107;2200.52;518.326;1.00999
108;2210.28;530.29;1.02
109;2190.75;475.112;1.02
110;2146.2;510.514;1.02
111;2116.59;516.373;1.03
112;2143.75;518.326;1.03
113;2163.59;508.56;1.03
114;2170.92;500.748;1.03
115;2161.15;504.654;1.04
116;2121.48;536.149;1.04
117;2076.92;506.607;1.04
118;2074.48;502.701;1.05
119;2119.03;553.972;1.05
120;2141.31;520.524;1.05
121;2151.08;514.42;1.05
122;2141.31;512.467;1.06
123;2106.83;524.43;1.06
124;2076.92;536.149;1.06
125;2109.27;532.243;1.06
126;2155.96;504.654;1.07
127;2173.36;538.102;1.07
128;2183.12;532.243;1.07
129;2158.4;494.644;1.07999
130;2114.15;524.43;1.07999
131;2086.99;530.29;1.07999
132;2111.71;530.29;1.07999
133;2131.24;516.373;1.09
134;2136.43;504.654;1.09
135;2128.8;522.477;1.09
136;2089.43;542.009;1.09
137;2039.99;508.56;1.1
138;2039.99;520.524;1.1
139;2084.55;555.925;1.1
140;2104.08;528.336;1.1
141;2114.15;518.326;1.11
142;2104.08;522.477;1.11
143;2072.04;532.243;1.11
144;2047.32;548.112;1.11
145;2079.66;530.29;1.12
146;2123.92;516.373;1.12
147;2143.75;552.019;1.12
148;2151.08;534.196;1.12
149;2131.24;506.607;1.12
150;2086.99;526.383;1.13
151;2062.27;538.102;1.13
152;2086.99;538.102;1.13
153;2106.83;526.383;1.13
154;2111.71;508.56;1.14
155;2104.08;534.196;1.14
156;2064.71;544.206;1.14
157;2020.15;508.56;1.14
158;2020.15;534.196;1.14
159;2064.71;553.972;1.14999
160;2082.11;536.149;1.14999
161;2091.87;522.477;1.14999
162;2084.55;528.336;1.14999
163;2052.5;540.056;1.14999
164;2025.34;548.112;1.16
165;2059.83;544.206;1.16
166;2101.64;522.477;1.16
167;2123.92;553.972;1.16
168;2131.24;544.206;1.16
169;2114.15;510.514;1.16
170;2072.04;534.196;1.17
171;2042.43;544.206;1.17
172;2057.39;546.159;1.17
173;2082.11;534.196;1.17
174;2086.99;522.477;1.17
175;2084.55;538.102;1.18
176;2049.76;555.925;1.18
177;2003.06;522.477;1.18
178;1988.11;536.149;1.18
179;2032.67;565.935;1.18
180;2054.94;540.056;1.18
181;2069.59;532.243;1.18999
182;2064.71;534.196;1.18999
183;2035.11;542.009;1.18999
184;2005.5;567.888;1.18999
185;2027.78;546.159;1.18999
186;2074.48;530.29;1.18999
187;2099.2;563.738;1.2
188;2109.27;544.206;1.2
189;2091.87;522.477;1.2
190;2057.39;542.009;1.2
191;2025.34;552.019;1.2
192;2039.99;552.019;1.2
193;2064.71;534.196;1.2
194;2067.15;538.102;1.21
195;2062.27;528.336;1.21
196;2032.67;571.795;1.21
197;1985.67;542.009;1.21
198;1975.9;524.43;1.21
199;2020.15;587.42;1.21
200;2044.87;546.159;1.22
201;2057.39;544.206;1.22
202;2052.5;536.149;1.22
203;2025.34;553.972;1.22
204;1995.43;552.019;1.22
205;2015.27;561.785;1.22
206;2067.15;524.43;1.22
207;2091.87;553.972;1.23
208;2101.64;565.935;1.23
209;2084.55;514.42;1.23
210;2049.76;548.112;1.23
211;2017.71;552.019;1.23
212;2032.67;559.832;1.23
213;2054.94;542.009;1.23
214;2059.83;538.102;1.24
215;2054.94;540.056;1.24
216;2022.6;573.748;1.24
217;1978.34;540.056;1.24
218;1968.27;536.149;1.24
219;2007.95;583.514;1.24
220;2032.67;550.066;1.24
221;2042.43;544.206;1.25
222;2035.11;544.206;1.25
223;2010.39;555.925;1.25
224;1980.78;563.738;1.25
225;2005.5;561.785;1.25
226;2052.5;534.196;1.25
227;2072.04;565.935;1.25
228;2082.11;561.785;1.25999
229;2064.71;522.477;1.25999
230;2027.78;552.019;1.25999
231;2000.62;559.832;1.25999
232;2015.27;561.785;1.25999
233;2037.55;546.159;1.25999
234;2042.43;538.102;1.25999
235;2037.55;548.112;1.25999
236;2005.5;569.842;1.27
237;1960.95;538.102;1.27
238;1953.62;548.112;1.27
239;1995.43;581.561;1.27
240;2017.71;555.925;1.27
241;2030.22;548.112;1.27
242;2025.34;548.112;1.27
243;1995.43;559.832;1.28
244;1968.27;577.654;1.28
245;1990.55;559.832;1.28
246;2037.55;546.159;1.28
247;2059.83;579.608;1.28
248;2067.15;559.832;1.28
249;2052.5;536.149;1.28
250;2012.83;555.925;1.28
251;1985.67;565.935;1.29
252;2003.06;567.888;1.29
253;2025.34;555.925;1.29
254;2027.78;536.149;1.29
255;2025.34;542.009;1.29
256;1990.55;587.42;1.29
257;1948.74;559.832;1.29
258;1936.23;538.102;1.3
259;1980.78;599.384;1.3
260;2003.06;561.785;1.3
261;2012.83;559.832;1.3
262;2007.95;552.019;1.3
263;1983.23;569.842;1.3
264;1953.62;565.935;1.3
265;1975.9;579.608;1.3
266;2022.6;540.056;1.31
267;2044.87;567.888;1.31
268;2052.5;583.514;1.31
269;2039.99;526.383;1.31
270;2003.06;563.738;1.31
271;1973.46;565.935;1.31
272;1992.99;573.748;1.31
273;2012.83;557.878;1.31
274;2017.71;553.972;1.32
275;2010.39;553.972;1.32
276;1978.34;587.42;1.32
277;1936.23;557.878;1.32
278;1928.9;552.019;1.32
279;1973.46;603.29;1.32
280;2000.62;569.842;1.32
281;2007.95;561.785;1.32
282;2005.5;561.785;1.32999
283;1978.34;577.654;1.32999
284;1951.18;581.561;1.32999
285;1975.9;579.608;1.32999
286;2020.15;550.066;1.32999
287;2039.99;581.561;1.32999
288;2049.76;583.514;1.32999
289;2032.67;538.102;1.32999
290;1995.43;567.888;1.32999
291;1965.83;575.701;1.34
292;1988.11;581.561;1.34
293;2007.95;563.738;1.34
294;2012.83;553.972;1.34
295;2005.5;567.888;1.34
296;1973.46;587.42;1.34
297;1928.9;557.878;1.34
298;1924.02;561.785;1.34
299;1968.27;601.337;1.35
300;1992.99;571.795;1.35
301;2000.62;565.935;1.35
302;1995.43;567.888;1.35
303;1971.02;577.654;1.35
304;1943.86;591.571;1.35
305;1968.27;579.608;1.35
306;2012.83;561.785;1.35
307;2030.22;589.618;1.36
308;2037.55;583.514;1.36
309;2025.34;552.019;1.36
310;1988.11;577.654;1.36
311;1958.51;583.514;1.36
312;1978.34;585.467;1.36
313;1998.18;571.795;1.36
314;2003.06;553.972;1.36
315;1998.18;579.608;1.36
316;1965.83;587.42;1.37
317;1921.58;567.888;1.37
318;1913.95;561.785;1.37
319;1956.06;611.347;1.37
320;1980.78;579.608;1.37
321;1988.11;571.795;1.37
322;1983.23;569.842;1.37
323;1956.06;581.561;1.37
324;1931.34;591.571;1.37
325;1958.51;589.618;1.38
326;2003.06;559.832;1.38
327;2027.78;593.524;1.38
328;2032.67;589.618;1.38
329;2017.71;550.066;1.38
330;1978.34;579.608;1.38
331;1953.62;583.514;1.38
332;1971.02;587.42;1.38
333;1988.11;571.795;1.38
334;1995.43;561.785;1.39
335;1990.55;575.701;1.39
336;1956.06;593.524;1.39
337;1911.51;563.738;1.39
338;1909.07;573.748;1.39
339;1948.74;609.149;1.39
340;1971.02;581.561;1.39
341;1980.78;573.748;1.39
342;1975.9;571.795;1.39
343;1951.18;585.467;1.39
344;1921.58;601.337;1.39999
345;1951.18;581.561;1.39999
346;1995.43;565.935;1.39999
347;2017.71;601.337;1.39999
348;2030.22;605.243;1.39999
349;2015.27;546.159;1.39999
350;1975.9;577.654;1.39999
351;1951.18;579.608;1.39999
352;1968.27;593.524;1.39999
353;1985.67;571.795;1.41
354;1990.55;577.654;1.41
355;1983.23;565.935;1.41
356;1946.3;609.149;1.41
357;1906.62;577.654;1.41
358;1904.18;555.925;1.41
359;1948.74;623.066;1.41
360;1971.02;581.561;1.41
361;1978.34;581.561;1.41
362;1975.9;573.748;1.41
363;1960.95;587.42;1.42
364;1928.9;587.42;1.42
365;1931.34;599.384;1.42
366;1978.34;557.878;1.42
367;2005.5;587.42;1.42
368;2017.71;601.337;1.42
369;2015.27;548.112;1.42
370;1983.23;581.561;1.42
371;1951.18;583.514;1.42
372;1953.62;591.571;1.42
373;1978.34;573.748;1.43
374;1985.67;569.842;1.43
375;1983.23;571.795;1.43
376;1960.95;605.243;1.43
377;1921.58;575.701;1.43
378;1894.42;565.935;1.43
379;1928.9;621.113;1.43
380;1958.51;581.561;1.43
381;1971.02;577.654;1.43
382;1973.46;573.748;1.43
383;1956.06;587.42;1.43999
384;1924.02;595.477;1.43999
385;1928.9;593.524;1.43999
386;1975.9;565.935;1.43999
387;2005.5;593.524;1.43999
388;2020.15;595.477;1.43999
389;2015.27;555.925;1.43999
390;1983.23;581.561;1.43999
391;1948.74;591.571;1.43999
392;1948.74;591.571;1.43999
393;1975.9;577.654;1.43999
394;1985.67;567.888;1.45
395;1985.67;577.654;1.45
396;1963.39;599.384;1.45
397;1924.02;569.842;1.45
398;1896.86;575.701;1.45
399;1933.79;615.253;1.45
400;1963.39;583.514;1.45
401;1973.46;575.701;1.45
402;1978.34;577.654;1.45
403;1958.51;587.42;1.45
404;1924.02;599.384;1.45
405;1928.9;589.618;1.46
406;1978.34;571.795;1.46
407;2010.39;601.337;1.46
408;2020.15;589.618;1.46
409;2015.27;552.019;1.46
410;1983.23;581.561;1.46
411;1951.18;579.608;1.46
412;1951.18;597.43;1.46
413;1975.9;573.748;1.46
414;1983.23;579.608;1.46
415;1983.23;567.888;1.46
416;1960.95;609.149;1.47
417;1921.58;581.561;1.47
418;1891.98;557.878;1.47
419;1928.9;623.066;1.47
420;1958.51;585.467;1.47
421;1973.46;585.467;1.47
422;1975.9;573.748;1.47
423;1956.06;591.571;1.47
424;1924.02;587.42;1.47
425;1928.9;605.243;1.47
426;1978.34;559.832;1.47
427;2005.5;585.467;1.47
428;2020.15;605.243;1.48
429;2010.39;546.159;1.48
430;1978.34;583.514;1.48
431;1946.3;583.514;1.48
432;1946.3;595.477;1.48
433;1973.46;577.654;1.48
434;1983.23;573.748;1.48
435;1980.78;571.795;1.48
436;1958.51;607.196;1.48
437;1916.7;577.654;1.48
438;1889.53;563.738;1.48
439;1926.46;623.066;1.48
440;1956.06;583.514;1.49
441;1968.27;581.561;1.49
442;1971.02;577.654;1.49
443;1951.18;587.42;1.49
444;1919.14;591.571;1.49
445;1924.02;595.477;1.49
446;1973.46;563.738;1.49
447;2000.62;593.524;1.49
448;2012.83;599.384;1.49
449;2007.95;553.972;1.49
450;1973.46;583.514;1.49
451;1941.11;589.618;1.49
452;1946.3;593.524;1.5
453;1973.46;577.654;1.5
454;1978.34;569.842;1.5
455;1978.34;579.608;1.5
456;1953.62;601.337;1.5
457;1913.95;571.795;1.5
458;1889.53;573.748;1.5
459;1928.9;619.16;1.5
460;1956.06;585.467;1.5
461;1971.02;577.654;1.5
462;1973.46;579.608;1.5
463;1951.18;589.618;1.5
464;1921.58;601.337;1.5
465;1926.46;593.524;1.50999
466;1973.46;571.795;1.50999
467;2000.62;601.337;1.50999
468;2012.83;595.477;1.50999
469;2005.5;559.832;1.50999
470;1971.02;587.42;1.50999
471;1936.23;587.42;1.50999
472;1943.86;595.477;1.50999
473;1968.27;577.654;1.50999
474;1973.46;573.748;1.50999
475;1971.02;573.748;1.50999
476;1951.18;607.196;1.50999
477;1906.62;575.701;1.50999
478;1884.35;567.888;1.52
479;1921.58;621.113;1.52
480;1951.18;585.467;1.52
481;1963.39;579.608;1.52
482;1965.83;577.654;1.52
483;1943.86;589.618;1.52
484;1913.95;597.43;1.52
485;1921.58;595.477;1.52
486;1971.02;567.888;1.52
487;1998.18;595.477;1.52
488;2010.39;597.43;1.52
489;2003.06;555.925;1.52
490;1971.02;585.467;1.53
491;1936.23;589.618;1.53
492;1941.11;593.524;1.53
493;1965.83;577.654;1.53
494;1973.46;571.795;1.53
495;1973.46;581.561;1.53
496;1951.18;599.384;1.53
497;1909.07;571.795;1.53
498;1886.79;575.701;1.53
499;1926.46;615.253;1.53
500;1953.62;583.514;1.53
501;1963.39;577.654;1.53
502;1965.83;577.654;1.53
503;1946.3;593.524;1.54
504;1913.95;587.42;1.54
505;1921.58;609.149;1.54
506;1971.02;559.832;1.54
507;1998.18;583.514;1.54
508;2010.39;613.3;1.54
509;2003.06;552.019;1.54
510;1968.27;581.561;1.54
511;1936.23;583.514;1.54
512;1943.86;595.477;1.54
513;1968.27;573.748;1.54
514;1975.9;583.514;1.54
515;1973.46;567.888;1.54
516;1951.18;611.347;1.55
517;1911.51;585.467;1.55
518;1886.79;559.832;1.55
519;1926.46;625.019;1.55
520;1953.62;587.42;1.55
521;1965.83;585.467;1.55
522;1965.83;573.748;1.55
523;1943.86;591.571;1.55
524;1913.95;589.618;1.55
525;1921.58;603.29;1.55
526;1973.46;559.832;1.55
527;1998.18;589.618;1.55
528;2010.39;609.149;1.55
529;2003.06;550.066;1.55
530;1973.46;583.514;1.56
531;1936.23;585.467;1.56
532;1943.86;595.477;1.56
533;1971.02;577.654;1.56
534;1975.9;577.654;1.56
535;1973.46;571.795;1.56
536;1951.18;609.149;1.56
537;1909.07;579.608;1.56
538;1889.53;567.888;1.56
539;1921.58;625.019;1.56
540;1951.18;585.467;1.56
541;1965.83;581.561;1.56
542;1963.39;573.748;1.56
543;1943.86;591.571;1.57
544;1913.95;595.477;1.57
545;1926.46;597.43;1.57
546;1973.46;563.738;1.57
547;1998.18;595.477;1.57
548;2010.39;601.337;1.57
549;2000.62;552.019;1.57
550;1971.02;585.467;1.57
551;1933.79;591.571;1.57
552;1943.86;593.524;1.57
553;1968.27;579.608;1.57
554;1978.34;569.842;1.57
555;1975.9;579.608;1.57
556;1951.18;603.29;1.57
557;1911.51;573.748;1.57999
558;1889.53;571.795;1.57999
559;1926.46;617.206;1.57999
560;1956.06;585.467;1.57999
561;1965.83;579.608;1.57999
562;1963.39;577.654;1.57999
563;1943.86;587.42;1.57999
564;1913.95;601.337;1.57999
565;1926.46;611.347;1.57999
566;1975.9;559.832;1.57999
567;2003.06;583.514;1.57999
568;2015.27;615.253;1.57999
569;2007.95;553.972;1.57999
570;1971.02;581.561;1.57999
571;1938.67;579.608;1.59
572;1948.74;595.477;1.59
573;1968.27;571.795;1.59
574;1975.9;583.514;1.59
575;1973.46;565.935;1.59
576;1951.18;613.3;1.59
577;1909.07;587.42;1.59
578;1889.53;557.878;1.59
579;1926.46;621.113;1.59
580;1956.06;587.42;1.59
581;1971.02;585.467;1.59
582;1968.27;573.748;1.59
583;1948.74;593.524;1.59
584;1916.7;585.467;1.59
585;1931.34;605.243;1.6
586;1978.34;557.878;1.6
587;2003.06;583.514;1.6
588;2015.27;609.149;1.6
589;2005.5;546.159;1.6
590;1971.02;581.561;1.6
591;1938.67;583.514;1.6
592;1951.18;593.524;1.6
593;1973.46;579.608;1.6
594;1978.34;579.608;1.6
595;1978.34;569.842;1.6
596;1951.18;609.149;1.6
597;1911.51;583.514;1.6
598;1889.53;563.738;1.6
599;1926.46;623.066;1.61
600;1953.62;585.467;1.61
601;1968.27;581.561;1.61
602;1968.27;573.748;1.61
603;1946.3;589.618;1.61
604;1911.51;591.571;1.61
605;1926.46;599.384;1.61
606;1973.46;561.785;1.61
607;2000.62;589.618;1.61
608;2010.39;601.337;1.61
609;2003.06;550.066;1.61
610;1968.27;583.514;1.61
611;1936.23;585.467;1.61
612;1946.3;593.524;1.61
613;1971.02;579.608;1.62
614;1978.34;569.842;1.62
615;1973.46;575.701;1.62
616;1948.74;603.29;1.62
617;1909.07;573.748;1.62
618;1889.53;569.842;1.62
619;1928.9;617.206;1.62
620;1956.06;583.514;1.62
621;1971.02;577.654;1.62
622;1973.46;575.701;1.62
623;1951.18;587.42;1.62
624;1921.58;597.43;1.62
625;1931.34;593.524;1.62
626;1980.78;559.832;1.62
627;2005.5;585.467;1.63
628;2015.27;605.243;1.63
629;2007.95;548.112;1.63
630;1971.02;581.561;1.63
631;1938.67;581.561;1.63
632;1951.18;591.571;1.63
633;1973.46;575.701;1.63
634;1980.78;571.795;1.63
635;1978.34;569.842;1.63
636;1951.18;603.29;1.63
637;1911.51;577.654;1.63
638;1889.53;565.935;1.63
639;1928.9;623.066;1.63
640;1956.06;583.514;1.63
641;1971.02;579.608;1.63
642;1968.27;573.748;1.64
643;1948.74;587.42;1.64
644;1916.7;593.524;1.64
645;1933.79;595.477;1.64
646;1980.78;561.785;1.64
647;2003.06;593.524;1.64
648;2015.27;599.384;1.64
649;2007.95;550.066;1.64
650;1973.46;581.561;1.64
651;1941.11;587.42;1.64
652;1951.18;589.618;1.64
653;1975.9;577.654;1.64
654;1980.78;569.842;1.64
655;1978.34;575.701;1.64
656;1951.18;597.43;1.64
657;1911.51;569.842;1.64999
658;1891.98;550.066;1.64999
659;1931.34;615.253;1.64999
660;1956.06;587.42;1.64999
661;1968.27;587.42;1.64999
662;1968.27;569.842;1.64999
663;1946.3;593.524;1.64999
664;1916.7;583.514;1.64999
665;1931.34;603.29;1.64999
666;1980.78;557.878;1.64999
667;2003.06;579.608;1.64999
668;2015.27;613.3;1.64999
669;2003.06;552.019;1.64999
670;1971.02;577.654;1.64999
671;1938.67;577.654;1.66
672;1948.74;593.524;1.66
673;1975.9;571.795;1.66
674;1980.78;579.608;1.66
675;1978.34;559.832;1.66
676;1951.18;611.347;1.66
677;1911.51;581.561;1.66
678;1891.98;555.925;1.66
679;1933.79;615.253;1.66
680;1960.95;583.514;1.66
681;1971.02;581.561;1.66
682;1971.02;571.795;1.66
683;1948.74;591.571;1.66
684;1919.14;583.514;1.66
685;1933.79;601.337;1.66
686;1983.23;557.878;1.66
687;2005.5;579.608;1.67
688;2020.15;607.196;1.67
689;2010.39;544.206;1.67
690;1973.46;579.608;1.67
691;1943.86;579.608;1.67
692;1956.06;591.571;1.67
693;1975.9;573.748;1.67
694;1980.78;573.748;1.67
695;1978.34;565.935;1.67
696;1948.74;607.196;1.67
697;1911.51;575.701;1.67
698;1896.86;561.785;1.67
699;1936.23;619.16;1.67
700;1960.95;581.561;1.67
701;1971.02;577.654;1.67
702;1971.02;573.748;1.68
703;1948.74;587.42;1.68
704;1919.14;589.618;1.68
705;1933.79;595.477;1.68
706;1983.23;559.832;1.68
707;2005.5;589.618;1.68
708;2020.15;593.524;1.68
709;2007.95;548.112;1.68
710;1973.46;581.561;1.68
711;1938.67;581.561;1.68
712;1951.18;589.618;1.68
713;1975.9;577.654;1.68
714;1980.78;567.888;1.68
715;1973.46;571.795;1.68
716;1948.74;601.337;1.68
717;1906.62;567.888;1.68
718;1891.98;567.888;1.68999
719;1933.79;609.149;1.68999
720;1958.51;585.467;1.68999
721;1968.27;585.467;1.68999
722;1968.27;569.842;1.68999
723;1948.74;593.524;1.68999
724;1913.95;579.608;1.68999
725;1931.34;605.243;1.68999
726;1978.34;557.878;1.68999
727;2000.62;577.654;1.68999
728;2010.39;611.347;1.68999
729;2000.62;552.019;1.68999
730;1965.83;577.654;1.68999
731;1936.23;573.748;1.68999
732;1951.18;591.571;1.68999
733;1973.46;569.842;1.68999
734;1978.34;577.654;1.7
735;1978.34;559.832;1.7
736;1951.18;607.196;1.7
737;1906.62;583.514;1.7
738;1891.98;552.019;1.7
739;1936.23;615.253;1.7
740;1960.95;581.561;1.7
741;1971.02;583.514;1.7
742;1968.27;571.795;1.7
743;1948.74;589.618;1.7
744;1919.14;581.561;1.7
745;1936.23;601.337;1.7
746;1985.67;555.925;1.7
747;2007.95;577.654;1.7
748;2020.15;605.243;1.7
749;2007.95;546.159;1.7
750;1973.46;577.654;1.71
751;1941.11;579.608;1.71
752;1948.74;589.618;1.71
753;1978.34;571.795;1.71
754;1985.67;571.795;1.71
755;1988.11;563.738;1.71
756;1968.27;603.29;1.71
757;1928.9;575.701;1.71
758;1896.86;557.878;1.71
759;1924.02;621.113;1.71
760;1958.51;579.608;1.71
761;1973.46;579.608;1.71
762;1975.9;569.842;1.71
763;1963.39;585.467;1.71
764;1931.34;589.618;1.71
765;1924.02;595.477;1.71
766;1968.27;555.925;1.72
767;2000.62;585.467;1.72
768;2015.27;597.43;1.72
769;2015.27;546.159;1.72
770;1988.11;579.608;1.72
771;1948.74;581.561;1.72
772;1943.86;589.618;1.72
773;1971.02;573.748;1.72
774;1978.34;571.795;1.72
775;1980.78;569.842;1.72
776;1963.39;601.337;1.72
777;1921.58;571.795;1.72
778;1889.53;563.738;1.72
779;1916.7;617.206;1.72
780;1953.62;581.561;1.72
781;1968.27;581.561;1.72
782;1973.46;573.748;1.72
783;1960.95;589.618;1.73
784;1924.02;581.561;1.73
785;1921.58;599.384;1.73
786;1971.02;557.878;1.73
787;1998.18;581.561;1.73
788;2012.83;601.337;1.73
789;2010.39;546.159;1.73
790;1985.67;579.608;1.73
791;1946.3;579.608;1.73
792;1941.11;589.618;1.73
793;1971.02;573.748;1.73
794;1980.78;573.748;1.73
795;1983.23;563.738;1.73
796;1965.83;603.29;1.73
797;1924.02;575.701;1.73
798;1891.98;557.878;1.73
799;1916.7;617.206;1.74
800;1956.06;579.608;1.74
801;1968.27;577.654;1.74
802;1975.9;571.795;1.74
803;1958.51;587.42;1.74
804;1926.46;589.618;1.74
805;1924.02;593.524;1.74
806;1971.02;557.878;1.74
807;2003.06;587.42;1.74
808;2017.71;595.477;1.74
809;2012.83;548.112;1.74
810;1985.67;577.654;1.74
811;1948.74;573.748;1.74
812;1943.86;589.618;1.74
813;1971.02;569.842;1.74
814;1985.67;577.654;1.74
815;1983.23;553.972;1.75
816;1963.39;605.243;1.75
817;1926.46;583.514;1.75
818;1896.86;548.112;1.75
819;1921.58;605.243;1.75
820;1956.06;583.514;1.75
821;1971.02;583.514;1.75
822;1973.46;567.888;1.75
823;1958.51;589.618;1.75
824;1928.9;579.608;1.75
825;1921.58;603.29;1.75
826;1968.27;555.925;1.75
827;2000.62;577.654;1.75
828;2015.27;611.347;1.75
829;2012.83;550.066;1.75
830;1983.23;577.654;1.75
831;1946.3;571.795;1.75999
832;1943.86;589.618;1.75999
833;1971.02;569.842;1.75999
834;1980.78;577.654;1.75999
835;1980.78;557.878;1.75999
836;1960.95;609.149;1.75999
837;1919.14;581.561;1.75999
838;1891.98;552.019;1.75999
839;1919.14;613.3;1.75999
840;1953.62;583.514;1.75999
841;1971.02;583.514;1.75999
842;1975.9;569.842;1.75999
843;1960.95;589.618;1.75999
844;1928.9;581.561;1.75999
845;1924.02;599.384;1.75999
846;1971.02;553.972;1.75999
847;2003.06;579.608;1.75999
848;2015.27;601.337;1.77
849;2012.83;542.009;1.77
850;1983.23;579.608;1.77
851;1946.3;577.654;1.77
852;1946.3;589.618;1.77
853;1971.02;571.795;1.77
854;1980.78;573.748;1.77
855;1980.78;563.738;1.77
856;1963.39;603.29;1.77
857;1921.58;575.701;1.77
858;1891.98;557.878;1.77
859;1926.46;619.16;1.77
860;1963.39;581.561;1.77
861;1973.46;577.654;1.77
862;1980.78;571.795;1.77
863;1965.83;585.467;1.77
864;1933.79;587.42;1.78
865;1931.34;593.524;1.78
866;1978.34;555.925;1.78
867;2007.95;585.467;1.78
868;2022.6;597.43;1.78
869;2020.15;548.112;1.78
870;1990.55;579.608;1.78
871;1953.62;579.608;1.78
872;1953.62;589.618;1.78
873;1978.34;565.935;1.78
874;1988.11;577.654;1.78
875;1985.67;553.972;1.78
876;1965.83;603.29;1.78
877;1924.02;581.561;1.78
878;1896.86;548.112;1.78
879;1924.02;605.243;1.78
880;1956.06;581.561;1.78
881;1971.02;583.514;1.79
882;1973.46;567.888;1.79
883;1956.06;593.524;1.79
884;1926.46;579.608;1.79
885;1928.9;605.243;1.79
886;1975.9;553.972;1.79
887;2005.5;575.701;1.79
888;2017.71;609.149;1.79
889;2012.83;552.019;1.79
890;1985.67;575.701;1.79
891;1951.18;573.748;1.79
892;1946.3;589.618;1.79
893;1975.9;567.888;1.79
894;1983.23;575.701;1.79
895;1985.67;555.925;1.79
896;1963.39;607.196;1.79
897;1924.02;581.561;1.8
898;1894.42;550.066;1.8
899;1926.46;613.3;1.8
900;1960.95;581.561;1.8
901;1973.46;581.561;1.8
902;1975.9;569.842;1.8
903;1963.39;587.42;1.8
904;1931.34;579.608;1.8
905;1926.46;599.384;1.8
906;1975.9;552.019;1.8
907;2005.5;579.608;1.8
908;2017.71;605.243;1.8
909;2012.83;544.206;1.8
910;1985.67;579.608;1.8
911;1951.18;575.701;1.8
912;1948.74;587.42;1.8
913;1975.9;569.842;1.81
914;1985.67;575.701;1.81
915;1983.23;559.832;1.81
916;1963.39;603.29;1.81
917;1921.58;577.654;1.81
918;1894.42;553.972;1.81
919;1926.46;617.206;1.81
920;1958.51;579.608;1.81
921;1973.46;577.654;1.81
922;1975.9;569.842;1.81
923;1958.51;583.514;1.81
924;1933.79;585.467;1.81
925;1931.34;593.524;1.81
926;1980.78;553.972;1.81
927;2007.95;581.561;1.81
928;2022.6;599.384;1.81
929;2017.71;544.206;1.81
930;1988.11;577.654;1.82
931;1953.62;579.608;1.82
932;1953.62;587.42;1.82
933;1980.78;571.795;1.82
934;1988.11;567.888;1.82
935;1990.55;559.832;1.82
936;1971.02;607.196;1.82
937;1931.34;579.608;1.82
938;1901.74;553.972;1.82
939;1931.34;613.3;1.82
940;1963.39;579.608;1.82
941;1975.9;579.608;1.82
942;1978.34;569.842;1.82
943;1958.51;589.618;1.82
944;1926.46;581.561;1.82
945;1931.34;599.384;1.82
946;1978.34;552.019;1.82999
947;2007.95;577.654;1.82999
948;2020.15;603.29;1.82999
949;2017.71;542.009;1.82999
950;1988.11;577.654;1.82999
951;1951.18;575.701;1.82999
952;1951.18;589.618;1.82999
953;1980.78;571.795;1.82999
954;1988.11;569.842;1.82999
955;1983.23;561.785;1.82999
956;1965.83;605.243;1.82999
957;1921.58;575.701;1.82999
958;1896.86;557.878;1.82999
959;1926.46;619.16;1.82999
960;1960.95;579.608;1.82999
961;1973.46;577.654;1.82999
962;1975.9;567.888;1.82999
963;1958.51;583.514;1.84
964;1928.9;585.467;1.84
965;1928.9;595.477;1.84
966;1975.9;563.738;1.84
967;2005.5;573.748;1.84
968;2017.71;609.149;1.84
969;2012.83;555.925;1.84
970;1983.23;573.748;1.84
971;1943.86;571.795;1.84
972;1948.74;587.42;1.84
973;1975.9;563.738;1.84
974;1983.23;577.654;1.84
975;1983.23;553.972;1.84
976;1963.39;603.29;1.84
977;1921.58;581.561;1.84
978;1894.42;548.112;1.84
979;1928.9;603.29;1.85
980;1958.51;583.514;1.85
981;1971.02;583.514;1.85
982;1973.46;569.842;1.85
983;1956.06;587.42;1.85
984;1926.46;575.701;1.85
985;1928.9;603.29;1.85
986;1978.34;553.972;1.85
987;2007.95;575.701;1.85
988;2020.15;609.149;1.85
989;2017.71;550.066;1.85
990;1988.11;573.748;1.85
991;1951.18;571.795;1.85
992;1951.18;589.618;1.85
993;1978.34;567.888;1.85
994;1983.23;577.654;1.85
995;1983.23;557.878;1.85
996;1965.83;607.196;1.86
997;1921.58;581.561;1.86
998;1896.86;553.972;1.86
999;1928.9;613.3;1.86
1000;1958.51;579.608;1.86
1001;1971.02;579.608;1.86
1002;1973.46;567.888;1.86
1003;1953.62;589.618;1.86
1004;1921.58;579.608;1.86
1005;1926.46;599.384;1.86
1006;1973.46;553.972;1.86
1007;2003.06;577.654;1.86
1008;2015.27;603.29;1.86
1009;2012.83;540.056;1.86
1010;1980.78;575.701;1.86
1011;1946.3;575.701;1.86
1012;1948.74;587.42;1.87
1013;1975.9;569.842;1.87
1014;1985.67;571.795;1.87
1015;1985.67;563.738;1.87
1016;1963.39;605.243;1.87
1017;1921.58;575.701;1.87
1018;1896.86;553.972;1.87
1019;1928.9;617.206;1.87
1020;1958.51;579.608;1.87
1021;1973.46;577.654;1.87
1022;1975.9;569.842;1.87
1023;1958.51;587.42;1.87
1024;1926.46;583.514;1.87
1025;1928.9;593.524;1.87
1026;1980.78;553.972;1.87
1027;2007.95;571.795;1.87
1028;2020.15;609.149;1.87
1029;2012.83;561.785;1.88
1030;1983.23;571.795;1.88
1031;1946.3;571.795;1.88
1032;1948.74;589.618;1.88
1033;1975.9;563.738;1.88
1034;1985.67;577.654;1.88
1035;1983.23;553.972;1.88
1036;1960.95;601.337;1.88
1037;1921.58;581.561;1.88
1038;1896.86;546.159;1.88
1039;1928.9;601.337;1.88
1040;1960.95;583.514;1.88
1041;1973.46;585.467;1.88
1042;1975.9;567.888;1.88
1043;1960.95;591.571;1.88
1044;1926.46;577.654;1.88
1045;1933.79;603.29;1.89
1046;1980.78;559.832;1.89
1047;2007.95;573.748;1.89
1048;2020.15;605.243;1.89
1049;2015.27;550.066;1.89
1050;1983.23;573.748;1.89
1051;1948.74;573.748;1.89
1052;1953.62;589.618;1.89
1053;1978.34;567.888;1.89
1054;1988.11;577.654;1.89
1055;1985.67;555.925;1.89
1056;1960.95;603.29;1.89
1057;1921.58;581.561;1.89
1058;1899.3;550.066;1.89
1059;1933.79;607.196;1.89
1060;1958.51;579.608;1.89
1061;1973.46;583.514;1.89
1062;1975.9;565.935;1.89999
1063;1956.06;589.618;1.89999
1064;1926.46;579.608;1.89999
1065;1933.79;599.384;1.89999
1066;1980.78;552.019;1.89999
1067;2007.95;575.701;1.89999
1068;2017.71;605.243;1.89999
1069;2012.83;544.206;1.89999
1070;1980.78;575.701;1.89999
1071;1948.74;575.701;1.89999
1072;1953.62;585.467;1.89999
1073;1978.34;567.888;1.89999
1074;1988.11;571.795;1.89999
1075;1983.23;561.785;1.89999
1076;1963.39;605.243;1.89999
1077;1924.02;577.654;1.89999
1078;1899.3;553.972;1.89999
1079;1933.79;617.206;1.91
1080;1963.39;581.561;1.91
1081;1973.46;577.654;1.91
1082;1973.46;567.888;1.91
1083;1956.06;585.467;1.91
1084;1926.46;581.561;1.91
1085;1931.34;595.477;1.91
1086;1983.23;555.925;1.91
1087;2005.5;581.561;1.91
1088;2020.15;599.384;1.91
1089;2015.27;546.159;1.91
1090;1983.23;575.701;1.91
1091;1948.74;571.795;1.91
1092;1956.06;587.42;1.91
1093;1980.78;567.888;1.91
1094;1990.55;573.748;1.91
1095;1985.67;557.878;1.92
1096;1965.83;605.243;1.92
1097;1924.02;579.608;1.92
1098;1899.3;552.019;1.92
1099;1936.23;613.3;1.92
1100;1965.83;579.608;1.92
1101;1978.34;579.608;1.92
1102;1978.34;567.888;1.92
1103;1960.95;587.42;1.92
1104;1931.34;577.654;1.92
1105;1936.23;597.43;1.92
1106;1985.67;552.019;1.92
1107;2010.39;577.654;1.92
1108;2020.15;603.29;1.92
1109;2015.27;542.009;1.92
1110;1983.23;575.701;1.92
1111;1951.18;575.701;1.92
1112;1958.51;587.42;1.93
1113;1985.67;569.842;1.93
1114;1990.55;571.795;1.93
1115;1990.55;559.832;1.93
1116;1968.27;605.243;1.93
1117;1926.46;573.748;1.93
1118;1904.18;555.925;1.93
1119;1938.67;615.253;1.93
1120;1968.27;587.42;1.93
1121;1980.78;585.467;1.93
1122;1980.78;565.935;1.93
1123;1960.95;589.618;1.93
1124;1931.34;579.608;1.93
1125;1941.11;607.196;1.93
1126;1990.55;563.738;1.93
1127;2017.71;573.748;1.93
1128;2027.78;611.347;1.93
1129;2025.34;555.925;1.93999
1130;1988.11;571.795;1.93999
1131;1958.51;571.795;1.93999
1132;1963.39;587.42;1.93999
1133;1988.11;565.935;1.93999
1134;1995.43;577.654;1.93999
1135;1992.99;552.019;1.93999
1136;1971.02;603.29;1.93999
1137;1924.02;581.561;1.93999
1138;1909.07;544.206;1.93999
1139;1941.11;601.337;1.93999
1140;1971.02;583.514;1.93999
1141;1985.67;579.608;1.93999
1142;1985.67;567.888;1.93999
1143;1968.27;591.571;1.93999
1144;1938.67;575.701;1.93999
1145;1931.34;605.243;1.93999
1146;1980.78;553.972;1.93999
1147;2010.39;573.748;1.95
1148;2025.34;609.149;1.95
1149;2022.6;550.066;1.95
1150;1992.99;573.748;1.95
1151;1956.06;571.795;1.95
1152;1956.06;587.42;1.95
1153;1983.23;563.738;1.95
1154;1992.99;575.701;1.95
1155;1992.99;555.925;1.95
1156;1975.9;605.243;1.95
1157;1933.79;579.608;1.95
1158;1904.18;546.159;1.95
1159;1933.79;609.149;1.95
1160;1968.27;579.608;1.95
1161;1983.23;577.654;1.95
1162;1988.11;565.935;1.95
1163;1973.46;587.42;1.95
1164;1941.11;577.654;1.95
1165;1936.23;599.384;1.96
1166;1983.23;552.019;1.96
1167;2015.27;577.654;1.96
1168;2027.78;603.29;1.96
1169;2025.34;542.009;1.96
1170;2000.62;573.748;1.96
1171;1963.39;573.748;1.96
1172;1958.51;587.42;1.96
1173;1988.11;567.888;1.96
1174;2000.62;571.795;1.96
1175;1998.18;559.832;1.96
1176;1978.34;605.243;1.96
1177;1938.67;577.654;1.96
1178;1911.51;553.972;1.96
1179;1941.11;619.16;1.96
1180;1973.46;579.608;1.96
1181;1985.67;583.514;1.96
1182;1990.55;563.738;1.97
1183;1975.9;589.618;1.97
1184;1948.74;575.701;1.97
1185;1943.86;603.29;1.97
1186;1988.11;565.935;1.97
1187;2017.71;573.748;1.97
1188;2035.11;611.347;1.97
1189;2030.22;557.878;1.97
1190;2000.62;569.842;1.97
1191;1960.95;569.842;1.97
1192;1960.95;587.42;1.97
1193;1992.99;563.738;1.97
1194;2003.06;573.748;1.97
1195;2005.5;550.066;1.97
1196;1983.23;597.43;1.97
1197;1946.3;581.561;1.97
1198;1911.51;544.206;1.98
1199;1941.11;597.43;1.98
1200;1971.02;583.514;1.98
1201;1985.67;585.467;1.98
1202;1988.11;565.935;1.98
1203;1973.46;589.618;1.98
1204;1941.11;579.608;1.98
1205;1938.67;601.337;1.98
1206;1988.11;555.925;1.98
1207;2015.27;571.795;1.98
1208;2032.67;607.196;1.98
1209;2027.78;550.066;1.98
1210;1998.18;571.795;1.98
1211;1960.95;571.795;1.98
1212;1960.95;587.42;1.98
1213;1990.55;565.935;1.98
1214;2000.62;573.748;1.98
1215;2003.06;553.972;1.98
1216;1983.23;603.29;1.99
1217;1941.11;581.561;1.99
1218;1911.51;550.066;1.99
1219;1941.11;607.196;1.99
1220;1975.9;579.608;1.99
1221;1988.11;577.654;1.99
1222;1990.55;569.842;1.99
1223;1973.46;589.618;1.99
1224;1943.86;575.701;1.99
1225;1943.86;599.384;1.99
1226;1992.99;550.066;1.99
1227;2022.6;577.654;1.99
1228;2035.11;607.196;1.99
1229;2032.67;544.206;1.99
1230;2003.06;575.701;1.99
1231;1963.39;569.842;1.99
1232;1965.83;587.42;2
1233;1992.99;565.935;2
1234;2003.06;573.748;2
1235;2005.5;557.878;2
1236;1985.67;605.243;2
1237;1943.86;577.654;2
1238;1913.95;552.019;2
1239;1948.74;615.253;2
1240;1980.78;579.608;2
1241;1992.99;575.701;2
1242;2000.62;565.935;2
1243;1980.78;589.618;2
1244;1953.62;575.701;2
1245;1948.74;599.384;2
1246;1998.18;553.972;2
1247;2027.78;575.701;2
1248;2042.43;605.243;2
1249;2035.11;548.112;2.00999
1250;2007.95;573.748;2.00999
1251;1973.46;571.795;2.00999
1252;1971.02;589.618;2.00999
1253;2000.62;563.738;2.00999
1254;2007.95;575.701;2.00999
1255;2010.39;553.972;2.00999
1256;1988.11;605.243;2.00999
1257;1946.3;577.654;2.00999
1258;1921.58;548.112;2.00999
1259;1951.18;609.149;2.00999
1260;1983.23;577.654;2.00999
1261;1998.18;579.608;2.00999
1262;2000.62;567.888;2.00999
1263;1983.23;587.42;2.00999
1264;1953.62;579.608;2.02
1265;1951.18;597.43;2.02
1266;2003.06;550.066;2.02
1267;2030.22;575.701;2.02
1268;2042.43;605.243;2.02
1269;2037.55;542.009;2.02
1270;2010.39;575.701;2.02
1271;1971.02;573.748;2.02
1272;1973.46;585.467;2.02
1273;2000.62;565.935;2.02
1274;2010.39;573.748;2.02
1275;2010.39;552.019;2.02
1276;1990.55;589.618;2.02
1277;1948.74;581.561;2.02
1278;1921.58;546.159;2.02
1279;1953.62;591.571;2.02
1280;1985.67;587.42;2.02
1281;1998.18;585.467;2.03
1282;2000.62;563.738;2.03
1283;1983.23;587.42;2.03
1284;1948.74;577.654;2.03
1285;1951.18;601.337;2.03
1286;2003.06;563.738;2.03
1287;2032.67;571.795;2.03
1288;2047.32;609.149;2.03
1289;2042.43;555.925;2.03
1290;2010.39;571.795;2.03
1291;1975.9;569.842;2.03
1292;1978.34;589.618;2.03
1293;2005.5;565.935;2.03
1294;2012.83;573.748;2.03
1295;2015.27;550.066;2.03
1296;1990.55;599.384;2.04
1297;1951.18;583.514;2.04
1298;1921.58;544.206;2.04
1299;1956.06;599.384;2.04
1300;1990.55;583.514;2.04
1301;2003.06;581.561;2.04
1302;2007.95;565.935;2.04
1303;1990.55;591.571;2.04
1304;1956.06;577.654;2.04
1305;1960.95;601.337;2.04
1306;2007.95;555.925;2.04
1307;2037.55;575.701;2.04
1308;2049.76;609.149;2.04
1309;2042.43;550.066;2.04
1310;2010.39;573.748;2.04
1311;1975.9;569.842;2.04
1312;1978.34;587.42;2.05
1313;2007.95;561.785;2.05
1314;2012.83;573.748;2.05
1315;2015.27;553.972;2.05
1316;1992.99;603.29;2.05
1317;1953.62;581.561;2.05
1318;1924.02;546.159;2.05
1319;1958.51;609.149;2.05
1320;1992.99;581.561;2.05
1321;2000.62;577.654;2.05
1322;2005.5;565.935;2.05
1323;1988.11;587.42;2.05
1324;1956.06;577.654;2.05
1325;1958.51;599.384;2.05
1326;2010.39;550.066;2.05
1327;2042.43;573.748;2.06
1328;2052.5;605.243;2.06
1329;2049.76;542.009;2.06
1330;2017.71;571.795;2.06
1331;1985.67;571.795;2.06
1332;1988.11;587.42;2.06
1333;2015.27;565.935;2.06
1334;2022.6;571.795;2.06
1335;2022.6;548.112;2.06
1336;1998.18;587.42;2.06
1337;1956.06;581.561;2.06
1338;1931.34;544.206;2.06
1339;1968.27;589.618;2.06
1340;1998.18;587.42;2.06
1341;2007.95;583.514;2.06
1342;2017.71;563.738;2.07
1343;2007.95;587.42;2.07
1344;1980.78;579.608;2.07
1345;1958.51;603.29;2.07
1346;1998.18;565.935;2.07
1347;2037.55;573.748;2.07
1348;2052.5;609.149;2.07
1349;2054.94;557.878;2.07
1350;2032.67;571.795;2.07
1351;1992.99;571.795;2.07
1352;1978.34;589.618;2.07
1353;2007.95;565.935;2.07
1354;2025.34;573.748;2.07
1355;2027.78;550.066;2.07
1356;2012.83;595.477;2.07
1357;1978.34;579.608;2.07999
1358;1936.23;542.009;2.07999
1359;1948.74;597.43;2.07999
1360;1990.55;581.561;2.07999
1361;2007.95;581.561;2.07999
1362;2015.27;565.935;2.07999
1363;2005.5;589.618;2.07999
1364;1978.34;577.654;2.07999
1365;1958.51;603.29;2.07999
1366;1998.18;555.925;2.07999
1367;2037.55;573.748;2.07999
1368;2054.94;607.196;2.07999
1369;2057.39;553.972;2.07999
1370;2032.67;573.748;2.07999
1371;1995.43;571.795;2.07999
1372;1980.78;589.618;2.09
1373;2005.5;563.738;2.09
1374;2022.6;573.748;2.09
1375;2025.34;553.972;2.09
1376;2012.83;603.29;2.09
1377;1975.9;581.561;2.09
1378;1936.23;548.112;2.09
1379;1951.18;603.29;2.09
1380;1992.99;581.561;2.09
1381;2010.39;581.561;2.09
1382;2017.71;563.738;2.09
1383;2007.95;587.42;2.09
1384;1975.9;575.701;2.09
1385;1958.51;599.384;2.09
1386;2000.62;552.019;2.09
1387;2042.43;571.795;2.09
1388;2057.39;605.243;2.1
1389;2059.83;540.056;2.1
1390;2037.55;575.701;2.1
1391;2000.62;573.748;2.1
1392;1985.67;587.42;2.1
1393;2012.83;567.888;2.1
1394;2025.34;573.748;2.1
1395;2030.22;555.925;2.1
1396;2015.27;599.384;2.1
1397;1980.78;579.608;2.1
1398;1938.67;546.159;2.1
1399;1956.06;601.337;2.1
1400;1998.18;583.514;2.1
1401;2015.27;583.514;2.1
1402;2022.6;565.935;2.1
1403;2010.39;587.42;2.11
1404;1980.78;577.654;2.11
1405;1960.95;601.337;2.11
1406;2005.5;550.066;2.11
1407;2042.43;575.701;2.11
1408;2059.83;609.149;2.11
1409;2062.27;550.066;2.11
1410;2037.55;571.795;2.11
1411;1998.18;571.795;2.11
1412;1985.67;587.42;2.11
1413;2012.83;565.935;2.11
1414;2027.78;573.748;2.11
1415;2032.67;553.972;2.11
1416;2020.15;605.243;2.11
1417;1980.78;577.654;2.11
1418;1938.67;546.159;2.12
1419;1956.06;609.149;2.12
1420;1998.18;579.608;2.12
1421;2017.71;577.654;2.12
1422;2025.34;565.935;2.12
1423;2010.39;587.42;2.12
1424;1983.23;577.654;2.12
1425;1963.39;595.477;2.12
1426;2010.39;550.066;2.12
1427;2047.32;569.842;2.12
1428;2064.71;609.149;2.12
1429;2067.15;565.935;2.12
1430;2042.43;563.738;2.12
1431;2003.06;569.842;2.12
1432;1990.55;587.42;2.13
1433;2020.15;569.842;2.13
1434;2035.11;571.795;2.13
1435;2035.11;550.066;2.13
1436;2022.6;589.618;2.13
1437;1985.67;583.514;2.13
1438;1946.3;546.159;2.13
1439;1963.39;589.618;2.13
1440;2005.5;585.467;2.13
1441;2022.6;583.514;2.13
1442;2030.22;563.738;2.13
1443;2020.15;587.42;2.13
1444;1988.11;577.654;2.13
1445;1971.02;605.243;2.13
1446;2015.27;563.738;2.13
1447;2052.5;571.795;2.14
1448;2067.15;609.149;2.14
1449;2072.04;555.925;2.14
1450;2047.32;567.888;2.14
1451;2005.5;567.888;2.14
1452;1992.99;589.618;2.14
1453;2025.34;563.738;2.14
1454;2037.55;571.795;2.14
1455;2039.99;550.066;2.14
1456;2027.78;595.477;2.14
1457;1990.55;581.561;2.14
1458;1951.18;542.009;2.14
1459;1971.02;597.43;2.14
1460;2010.39;583.514;2.14
1461;2030.22;581.561;2.14
1462;2032.67;561.785;2.14
1463;2020.15;589.618;2.14999
1464;1990.55;575.701;2.14999
1465;1978.34;603.29;2.14999
1466;2022.6;553.972;2.14999
1467;2057.39;571.795;2.14999
1468;2076.92;611.347;2.14999
1469;2076.92;550.066;2.14999
1470;2054.94;571.795;2.14999
1471;2012.83;567.888;2.14999
1472;2000.62;587.42;2.14999
1473;2030.22;563.738;2.14999
1474;2042.43;573.748;2.14999
1475;2047.32;550.066;2.14999
1476;2035.11;603.29;2.14999
1477;1995.43;579.608;2.14999
1478;1958.51;544.206;2.16
1479;1978.34;607.196;2.16
1480;2017.71;579.608;2.16
1481;2037.55;577.654;2.16
1482;2044.87;565.935;2.16
1483;2032.67;585.467;2.16
1484;2003.06;577.654;2.16
1485;1985.67;599.384;2.16
1486;2032.67;550.066;2.16
1487;2067.15;573.748;2.16
1488;2082.11;605.243;2.16
1489;2084.55;567.888;2.16
1490;2057.39;563.738;2.16
1491;2020.15;567.888;2.16
1492;2007.95;587.42;2.16
1493;2037.55;571.795;2.17
1494;2052.5;569.842;2.17
1495;2052.5;548.112;2.17
1496;2037.55;587.42;2.17
1497;2000.62;581.561;2.17
1498;1958.51;546.159;2.17
1499;1980.78;587.42;2.17
1500;2020.15;587.42;2.17
1501;2039.99;581.561;2.17
1502;2044.87;561.785;2.17
1503;2030.22;587.42;2.17
1504;2000.62;577.654;2.17
1505;1983.23;603.29;2.17
1506;2035.11;563.738;2.17
1507;2069.59;569.842;2.17
1508;2084.55;609.149;2.17
1509;2089.43;559.832;2.18
1510;2062.27;565.935;2.18
1511;2025.34;567.888;2.18
1512;2012.83;587.42;2.18
1513;2042.43;563.738;2.18
1514;2054.94;573.748;2.18
1515;2057.39;546.159;2.18
1516;2044.87;593.524;2.18
1517;2000.62;581.561;2.18
1518;1963.39;542.009;2.18
1519;1988.11;595.477;2.18
1520;2030.22;583.514;2.18
1521;2047.32;583.514;2.18
1522;2052.5;563.738;2.18
1523;2039.99;587.42;2.18
1524;2010.39;577.654;2.18999
1525;1992.99;603.29;2.18999
1526;2037.55;557.878;2.18999
1527;2074.48;571.795;2.18999
1528;2089.43;607.196;2.18999
1529;2089.43;552.019;2.18999
1530;2064.71;569.842;2.18999
1531;2025.34;567.888;2.18999
1532;2012.83;587.42;2.18999
1533;2044.87;561.785;2.18999
1534;2059.83;573.748;2.18999
1535;2062.27;550.066;2.18999
1536;2047.32;601.337;2.18999
1537;2007.95;579.608;2.18999
1538;1968.27;546.159;2.18999
1539;1992.99;603.29;2.18999
1540;2032.67;583.514;2.2
1541;2047.32;579.608;2.2
1542;2052.5;565.935;2.2
1543;2039.99;587.42;2.2
1544;2007.95;575.701;2.2
1545;1995.43;601.337;2.2
1546;2047.32;548.112;2.2
1547;2079.66;575.701;2.2
1548;2096.76;605.243;2.2
1549;2096.76;544.206;2.2
1550;2069.59;569.842;2.2
1551;2032.67;567.888;2.2
1552;2025.34;585.467;2.2
1553;2049.76;563.738;2.2
1554;2062.27;573.748;2.2
1555;2062.27;550.066;2.2
1556;2049.76;599.384;2.21
1557;2007.95;581.561;2.21
1558;1971.02;542.009;2.21
1559;1995.43;599.384;2.21
1560;2037.55;583.514;2.21
1561;2054.94;581.561;2.21
1562;2059.83;563.738;2.21
1563;2047.32;585.467;2.21
1564;2012.83;575.701;2.21
1565;2003.06;601.337;2.21
1566;2049.76;553.972;2.21
1567;2084.55;569.842;2.21
1568;2099.2;605.243;2.21
1569;2101.64;550.066;2.21
1570;2074.48;571.795;2.21
1571;2035.11;569.842;2.22
1572;2030.22;587.42;2.22
1573;2059.83;563.738;2.22
1574;2069.59;573.748;2.22
1575;2072.04;552.019;2.22
1576;2057.39;603.29;2.22
1577;2015.27;577.654;2.22
1578;1978.34;548.112;2.22
1579;2005.5;607.196;2.22
1580;2044.87;577.654;2.22
1581;2059.83;579.608;2.22
1582;2069.59;565.935;2.22
1583;2054.94;577.654;2.22
1584;2022.6;577.654;2.22
1585;2012.83;599.384;2.23
1586;2062.27;569.842;2.23
1587;2094.31;567.888;2.23
1588;2109.27;605.243;2.23
1589;2109.27;565.935;2.23
1590;2082.11;563.738;2.23
1591;2042.43;567.888;2.23
1592;2032.67;587.42;2.23
1593;2062.27;569.842;2.23
1594;2074.48;573.748;2.23
1595;2079.66;548.112;2.23
1596;2059.83;585.467;2.23
1597;2017.71;581.561;2.23
1598;1983.23;544.206;2.23
1599;2010.39;587.42;2.23
1600;2049.76;585.467;2.24
1601;2067.15;581.561;2.24
1602;2069.59;561.785;2.24
1603;2054.94;585.467;2.24
1604;2022.6;575.701;2.24
1605;2010.39;601.337;2.24
1606;2062.27;565.935;2.24
1607;2096.76;569.842;2.24
1608;2109.27;609.149;2.24
1609;2109.27;557.878;2.24
1610;2076.92;565.935;2.24
1611;2039.99;567.888;2.24
1612;2035.11;587.42;2.24
1613;2067.15;561.785;2.24
1614;2076.92;571.795;2.25
1615;2079.66;548.112;2.25
1616;2064.71;595.477;2.25
1617;2020.15;579.608;2.25
1618;1988.11;540.056;2.25
1619;2012.83;595.477;2.25
1620;2052.5;579.608;2.25
1621;2067.15;579.608;2.25
1622;2072.04;561.785;2.25
1623;2057.39;585.467;2.25
1624;2025.34;575.701;2.25
1625;2017.71;601.337;2.25
1626;2067.15;553.972;2.25
1627;2101.64;569.842;2.25
1628;2116.59;607.196;2.25999
1629;2114.15;550.066;2.25999
1630;2086.99;571.795;2.25999
1631;2052.5;569.842;2.25999
1632;2042.43;585.467;2.25999
1633;2074.48;561.785;2.25999
1634;2086.99;573.748;2.25999
1635;2086.99;550.066;2.25999
1636;2069.59;605.243;2.25999
1637;2030.22;577.654;2.25999
1638;1990.55;542.009;2.25999
1639;2020.15;603.29;2.25999
1640;2059.83;577.654;2.25999
1641;2074.48;581.561;2.25999
1642;2082.11;561.785;2.27
1643;2067.15;573.748;2.27
1644;2032.67;575.701;2.27
1645;2022.6;597.43;2.27
1646;2072.04;571.795;2.27
1647;2109.27;565.935;2.27
1648;2123.92;603.29;2.27
1649;2123.92;567.888;2.27
1650;2091.87;559.832;2.27
1651;2054.94;567.888;2.27
1652;2049.76;585.467;2.27
1653;2079.66;571.795;2.27
1654;2089.43;571.795;2.27
1655;2091.87;546.159;2.28
1656;2074.48;583.514;2.28
1657;2030.22;581.561;2.28
1658;1995.43;544.206;2.28
1659;2027.78;585.467;2.28
1660;2067.15;587.42;2.28
1661;2082.11;581.561;2.28
1662;2086.99;563.738;2.28
1663;2072.04;583.514;2.28
1664;2037.55;577.654;2.28
1665;2030.22;603.29;2.28
1666;2079.66;565.935;2.28
1667;2114.15;569.842;2.28
1668;2131.24;605.243;2.28
1669;2128.8;557.878;2.29
1670;2096.76;563.738;2.29
