<WeldAnalyseData xmlns:i="http:www.w3.org/2001/XMLSchema-instance">
<WeldParameter>
<TimeStamp>DT#2024-01-25-14:43:01</TimeStamp>
<Generator>SG-22-10000</Generator>
<GenFreq>20</GenFreq>
<MaxForce>8000</MaxForce>
<MaxPower>10000</MaxPower>
<RunupPressure>1.5</RunupPressure>
<RunupDist>10</RunupDist>
<RunPress>0.8</RunPress>
<ShakeDelay>0.03</ShakeDelay>
<ShakeTime>0.3</ShakeTime>
<RunBackPress1>6</RunBackPress1>
<RunBackPress2>2</RunBackPress2>
<RunBackDist>1</RunBackDist>
<TrigValue>500</TrigValue>
<TrigModeUnit>W</TrigModeUnit>
<WeldModeUnit>Ws</WeldModeUnit>
<PressNr>0</PressNr>
<MaxLoss>1500</MaxLoss>
</WeldParameter>
<WeldSets>
<WeldSet>
<PressRiseTime>0</PressRiseTime>
<RunPressure>1</RunPressure>
<Amplitude>86</Amplitude>
<WeldMode>3270</WeldMode>
</WeldSet>
</WeldSets>
<WeldValue>
<WeldNr>3031</WeldNr>
<RecipeName>RickStyle</RecipeName>
<WeldTime>1698</WeldTime>
<DistDiff>2.38</DistDiff>
<DistAbs>78.02</DistAbs>
<Energy>3271.16</Energy>
<MaxPower>2156.99</MaxPower>
<CycleTime>6030</CycleTime>
<TrigForce>500.748</TrigForce>
<TrigDist>75.64</TrigDist>
<RunSpeed>68.4525</RunSpeed>
<MaxForce>619.16</MaxForce>
<LossPower>321.722</LossPower>
</WeldValue>
</WeldAnalyseData>
#CSV-START#
ms;Power[W];Force[N];Distance[mm]
1;0;0;0
2;0;498.795;0
3;0;500.748;0
4;0;504.654;0
5;0;502.701;0
6;0;504.654;0
7;0;500.748;0
8;0;482.925;0
9;0;433.607;0.0100021
10;0;415.784;0.0299988
11;0;386.242;0.0599976
12;38.7013;368.419;0.090004
13;107.673;350.597;0.120003
14;189.158;330.821;0.160004
15;255.993;321.055;0.199997
16;315.199;297.372;0.239998
17;369.522;312.998;0.279999
18;421.403;299.326;0.330002
19;473.285;279.55;0.370003
20;534.932;311.045;0.410004
21;606.651;309.091;0.449997
22;668.298;309.091;0.489998
23;734.828;305.185;0.529999
24;801.664;324.961;0.559998
25;855.987;324.961;0.580002
26;915.193;350.597;0.610001
27;994.236;323.008;0.629997
28;1055.88;348.643;0.650002
29;1115.09;388.195;0.669998
30;1162.09;350.597;0.68
31;1191.69;376.232;0.690002
32;1203.9;382.092;0.699997
33;1236.25;399.915;0.709999
34;1282.94;388.195;0.709999
35;1315.29;396.008;0.720001
36;1349.78;380.139;0.730003
37;1372.05;429.456;0.730003
38;1369.61;411.878;0.739998
39;1376.94;384.045;0.75
40;1421.19;439.467;0.75
41;1473.07;417.737;0.760002
42;1502.67;421.644;0.770004
43;1535.02;405.774;0.770004
44;1549.67;429.456;0.779999
45;1549.67;421.644;0.779999
46;1564.63;441.42;0.790001
47;1626.27;411.878;0.800003
48;1670.83;419.691;0.809998
49;1705.32;457.289;0.809998
50;1725.15;405.774;0.82
51;1722.41;421.644;0.830002
52;1705.32;423.597;0.840004
53;1719.97;441.42;0.840004
54;1762.08;421.644;0.849998
55;1789.24;433.607;0.860001
56;1813.96;411.878;0.870003
57;1813.96;461.196;0.870003
58;1799.01;447.279;0.879997
59;1779.48;411.878;0.889999
60;1813.96;472.915;0.889999
61;1868.29;457.289;0.900002
62;1900.33;461.196;0.910004
63;1920.17;443.373;0.910004
64;1922.61;470.962;0.919998
65;1907.65;459.243;0.919998
66;1905.21;488.784;0.93
67;1954.65;445.326;0.93
68;2001.65;467.055;0.940002
69;2026.37;504.654;0.940002
70;2033.7;441.42;0.949997
71;2016.3;469.008;0.949997
72;1981.81;467.055;0.959999
73;1972.05;486.831;0.959999
74;2008.98;465.102;0.970001
75;2033.7;472.915;0.970001
76;2045.9;457.289;0.970001
77;2038.58;484.878;0.980003
78;2004.09;490.738;0.980003
79;1969.61;457.289;0.989998
80;1994.02;490.738;0.989998
81;2043.46;504.654;0.989998
82;2065.74;492.691;1
83;2078.25;479.019;1
84;2068.18;494.644;1.01
85;2041.02;496.597;1.01
86;2031.25;520.524;1.01
87;2078.25;490.738;1.02
88;2117.62;488.784;1.02
89;2137.46;526.383;1.03
90;2139.9;488.784;1.03
91;2115.18;486.831;1.03
92;2075.51;492.691;1.04
93;2065.74;512.467;1.04
94;2095.34;498.795;1.04
95;2110.3;498.795;1.05
96;2117.62;479.019;1.05
97;2102.67;516.373;1.05
98;2065.74;512.467;1.06
99;2023.93;472.915;1.06
100;2048.34;522.477;1.06
101;2090.46;518.326;1.07
102;2107.86;514.42;1.07
103;2117.62;496.597;1.07
104;2102.67;520.524;1.08
105;2073.06;512.467;1.08
106;2053.53;536.149;1.08
107;2097.78;500.748;1.09
108;2132.58;504.654;1.09
109;2156.99;546.159;1.09
110;2156.99;494.644;1.09
111;2129.83;504.654;1.1
112;2090.46;504.654;1.1
113;2078.25;524.43;1.1
114;2105.41;500.748;1.11
115;2117.62;512.467;1.11
116;2122.5;488.784;1.11
117;2102.67;536.149;1.11
118;2058.42;520.524;1.12
119;2013.86;484.878;1.12
120;2036.14;542.009;1.12
121;2078.25;526.383;1.13
122;2090.46;524.43;1.13
123;2095.34;506.607;1.13
124;2078.25;534.196;1.13
125;2045.9;522.477;1.14
126;2028.81;550.066;1.14
127;2073.06;504.654;1.14
128;2105.41;518.326;1.14
129;2120.06;557.878;1.15
130;2120.06;496.597;1.15
131;2085.58;520.524;1.15
132;2045.9;518.326;1.15
133;2031.25;538.102;1.16
134;2058.42;512.467;1.16
135;2070.62;526.383;1.16
136;2070.62;504.654;1.16
137;2058.42;530.29;1.17
138;2016.3;538.102;1.17
139;1976.93;502.701;1.17
140;2001.65;530.29;1.17
141;2036.14;548.112;1.18
142;2053.53;530.29;1.18
143;2058.42;516.373;1.18
144;2045.9;532.243;1.18
145;2011.42;532.243;1.18
146;1999.21;553.972;1.19
147;2038.58;526.383;1.19
148;2068.18;522.477;1.19
149;2083.14;557.878;1.19
150;2080.69;522.477;1.19
151;2051.09;518.326;1.2
152;2008.98;526.383;1.2
153;1996.77;540.056;1.2
154;2026.37;526.383;1.2
155;2036.14;530.29;1.2
156;2041.02;510.514;1.21
157;2018.74;546.159;1.21
158;1979.37;540.056;1.21
159;1942.45;502.701;1.21
160;1972.05;544.206;1.21
161;2006.53;546.159;1.22
162;2023.93;540.056;1.22
163;2031.25;522.477;1.22
164;2013.86;546.159;1.22
165;1986.7;536.149;1.22
166;1972.05;561.785;1.23
167;2013.86;526.383;1.23
168;2043.46;530.29;1.23
169;2055.97;569.842;1.23
170;2055.97;520.524;1.23
171;2023.93;528.336;1.23
172;1981.81;532.243;1.24
173;1974.49;550.066;1.24
174;1999.21;528.336;1.24
175;2008.98;536.149;1.24
176;2011.42;516.373;1.24
177;1994.02;557.878;1.24
178;1952.21;544.206;1.25
179;1920.17;506.607;1.25
180;1942.45;565.935;1.25
181;1979.37;548.112;1.25
182;1994.02;550.066;1.25
183;2001.65;530.29;1.25
184;1986.7;553.972;1.25
185;1954.65;544.206;1.26
186;1942.45;569.842;1.26
187;1986.7;524.43;1.26
188;2016.3;540.056;1.26
189;2031.25;575.701;1.26
190;2028.81;518.326;1.26
191;1999.21;538.102;1.27
192;1959.54;538.102;1.27
193;1949.77;557.878;1.27
194;1976.93;532.243;1.27
195;1984.26;542.009;1.27
196;1986.7;520.524;1.27
197;1972.05;569.842;1.27
198;1929.93;548.112;1.28
199;1900.33;512.467;1.28
200;1925.05;561.785;1.28
201;1961.98;553.972;1.28
202;1974.49;552.019;1.28
203;1981.81;532.243;1.28
204;1966.86;557.878;1.29
205;1937.26;548.112;1.29
206;1922.61;573.748;1.29
207;1966.86;536.149;1.29
208;1996.77;542.009;1.29
209;2008.98;581.561;1.29
210;2008.98;530.29;1.29
211;1976.93;542.009;1.3
212;1937.26;542.009;1.3
213;1929.93;559.832;1.3
214;1954.65;538.102;1.3
215;1964.42;546.159;1.3
216;1966.86;524.43;1.3
217;1952.21;571.795;1.3
218;1910.1;553.972;1.31
219;1880.49;518.326;1.31
220;1910.1;575.701;1.31
221;1944.89;557.878;1.31
222;1957.09;557.878;1.31
223;1961.98;540.056;1.31
224;1947.33;565.935;1.31
225;1917.73;552.019;1.32
226;1910.1;579.608;1.32
227;1952.21;532.243;1.32
228;1979.37;550.066;1.32
229;1994.02;583.514;1.32
230;1991.58;552.019;1.32
231;1961.98;532.243;1.32
232;1922.61;550.066;1.32
233;1917.73;561.785;1.33
234;1942.45;557.878;1.33
235;1947.33;552.019;1.33
236;1954.65;530.29;1.33
237;1944.89;559.832;1.33
238;1912.54;563.738;1.33
239;1875.61;528.336;1.33
240;1875.61;559.832;1.33
241;1920.17;571.795;1.34
242;1934.82;555.925;1.34
243;1949.77;544.206;1.34
244;1942.45;561.785;1.34
245;1915.28;557.878;1.34
246;1893.01;579.608;1.34
247;1920.17;550.066;1.34
248;1959.54;548.112;1.35
249;1976.93;585.467;1.35
250;1981.81;548.112;1.35
251;1959.54;546.159;1.35
252;1922.61;550.066;1.35
253;1902.77;567.888;1.35
254;1917.73;550.066;1.35
255;1937.26;552.019;1.35
256;1939.7;534.196;1.36
257;1932.37;567.888;1.36
258;1900.33;565.935;1.36
259;1863.4;528.336;1.36
260;1865.84;571.795;1.36
261;1910.1;569.842;1.36
262;1927.49;565.935;1.36
263;1937.26;548.112;1.36
264;1929.93;571.795;1.37
265;1902.77;561.785;1.37
266;1885.38;587.42;1.37
267;1910.1;548.112;1.37
268;1949.77;555.925;1.37
269;1964.42;595.477;1.37
270;1969.61;542.009;1.37
271;1949.77;553.972;1.37
272;1912.54;555.925;1.37
273;1888.12;571.795;1.38
274;1907.65;550.066;1.38
275;1920.17;561.785;1.38
276;1927.49;538.102;1.38
277;1917.73;579.608;1.38
278;1888.12;567.888;1.38
279;1848.45;530.29;1.38
280;1855.77;587.42;1.38
281;1895.45;569.842;1.39
282;1915.28;571.795;1.39
283;1925.05;553.972;1.39
284;1922.61;577.654;1.39
285;1895.45;565.935;1.39
286;1873.17;593.524;1.39
287;1907.65;546.159;1.39
288;1942.45;563.738;1.39
289;1961.98;599.384;1.4
290;1966.86;538.102;1.4
291;1947.33;561.785;1.4
292;1910.1;561.785;1.4
293;1888.12;575.701;1.4
294;1910.1;573.748;1.4
295;1920.17;563.738;1.4
296;1927.49;548.112;1.4
297;1915.28;571.795;1.4
298;1882.93;579.608;1.41
299;1846.01;546.159;1.41
300;1850.89;571.795;1.41
301;1893.01;587.42;1.41
302;1910.1;569.842;1.41
303;1920.17;559.832;1.41
304;1912.54;571.795;1.41
305;1890.56;571.795;1.41
306;1870.73;595.477;1.42
307;1900.33;567.888;1.42
308;1934.82;561.785;1.42
309;1949.77;601.337;1.42
310;1954.65;563.738;1.42
311;1934.82;559.832;1.42
312;1900.33;567.888;1.42
313;1878.05;583.514;1.42
314;1900.33;565.935;1.42
315;1915.28;569.842;1.43
316;1920.17;548.112;1.43
317;1910.1;583.514;1.43
318;1880.49;579.608;1.43
319;1843.57;544.206;1.43
320;1853.33;587.42;1.43
321;1895.45;585.467;1.43
322;1912.54;579.608;1.43
323;1922.61;561.785;1.43
324;1915.28;587.42;1.43
325;1893.01;577.654;1.44
326;1870.73;603.29;1.44
327;1905.21;565.935;1.44
328;1937.26;571.795;1.44
329;1954.65;607.196;1.44
330;1959.54;561.785;1.44
331;1937.26;571.795;1.44
332;1902.77;571.795;1.44
333;1880.49;585.467;1.44
334;1902.77;565.935;1.45
335;1915.28;577.654;1.45
336;1920.17;550.066;1.45
337;1910.1;597.43;1.45
338;1875.61;581.561;1.45
339;1841.12;546.159;1.45
340;1850.89;599.384;1.45
341;1890.56;589.618;1.45
342;1907.65;585.467;1.45
343;1915.28;563.738;1.45
344;1910.1;589.618;1.46
345;1882.93;579.608;1.46
346;1868.29;607.196;1.46
347;1900.33;563.738;1.46
348;1932.37;577.654;1.46
349;1949.77;613.3;1.46
350;1957.09;555.925;1.46
351;1934.82;577.654;1.46
352;1902.77;573.748;1.46
353;1878.05;589.618;1.46
354;1902.77;571.795;1.47
355;1915.28;575.701;1.47
356;1917.73;553.972;1.47
357;1910.1;593.524;1.47
358;1878.05;587.42;1.47
359;1841.12;550.066;1.47
360;1855.77;597.43;1.47
361;1893.01;591.571;1.47
362;1910.1;589.618;1.47
363;1917.73;569.842;1.47
364;1915.28;593.524;1.48
365;1888.12;583.514;1.48
366;1868.29;609.149;1.48
367;1900.33;571.795;1.48
368;1934.82;579.608;1.48
369;1949.77;617.206;1.48
370;1954.65;563.738;1.48
371;1934.82;575.701;1.48
372;1897.89;575.701;1.48
373;1878.05;593.524;1.48
374;1902.77;569.842;1.49
375;1912.54;579.608;1.49
376;1917.73;557.878;1.49
377;1910.1;603.29;1.49
378;1875.61;587.42;1.49
379;1841.12;550.066;1.49
380;1850.89;609.149;1.49
381;1893.01;589.618;1.49
382;1907.65;589.618;1.49
383;1915.28;569.842;1.49
384;1910.1;595.477;1.49
385;1885.38;585.467;1.5
386;1865.84;601.337;1.5
387;1902.77;585.467;1.5
388;1937.26;569.842;1.5
389;1952.21;607.196;1.5
390;1957.09;583.514;1.5
391;1934.82;565.935;1.5
392;1895.45;581.561;1.5
393;1880.49;591.571;1.5
394;1900.33;587.42;1.5
395;1912.54;579.608;1.5
396;1917.73;559.832;1.51
397;1907.65;589.618;1.51
398;1875.61;591.571;1.51
399;1836.24;553.972;1.51
400;1850.89;589.618;1.51
401;1893.01;599.384;1.51
402;1910.1;583.514;1.51
403;1917.73;573.748;1.51
404;1912.54;587.42;1.51
405;1890.56;583.514;1.51
406;1868.29;607.196;1.51
407;1905.21;579.608;1.51
408;1937.26;573.748;1.52
409;1954.65;611.347;1.52
410;1954.65;573.748;1.52
411;1934.82;573.748;1.52
412;1897.89;575.701;1.52
413;1882.93;595.477;1.52
414;1905.21;575.701;1.52
415;1917.73;579.608;1.52
416;1922.61;557.878;1.52
417;1910.1;597.43;1.52
418;1880.49;591.571;1.52
419;1843.57;553.972;1.52
420;1858.21;599.384;1.53
421;1897.89;595.477;1.53
422;1912.54;587.42;1.53
423;1922.61;571.795;1.53
424;1912.54;595.477;1.53
425;1888.12;585.467;1.53
426;1870.73;613.3;1.53
427;1907.65;573.748;1.53
428;1939.7;579.608;1.53
429;1952.21;617.206;1.53
430;1954.65;565.935;1.53
431;1929.93;575.701;1.53
432;1897.89;577.654;1.54
433;1880.49;597.43;1.54
434;1905.21;571.795;1.54
435;1915.28;581.561;1.54
436;1920.17;559.832;1.54
437;1910.1;603.29;1.54
438;1878.05;589.618;1.54
439;1843.57;552.019;1.54
440;1858.21;607.196;1.54
441;1897.89;587.42;1.54
442;1915.28;591.571;1.54
443;1922.61;575.701;1.54
444;1917.73;597.43;1.54
445;1890.56;585.467;1.55
446;1873.17;609.149;1.55
447;1910.1;587.42;1.55
448;1942.45;573.748;1.55
449;1957.09;605.243;1.55
450;1961.98;587.42;1.55
451;1934.82;565.935;1.55
452;1900.33;581.561;1.55
453;1885.38;593.524;1.55
454;1910.1;591.571;1.55
455;1920.17;579.608;1.55
456;1925.05;561.785;1.55
457;1912.54;587.42;1.55
458;1880.49;593.524;1.56
459;1843.57;557.878;1.56
460;1860.96;589.618;1.56
461;1900.33;603.29;1.56
462;1917.73;587.42;1.56
463;1922.61;575.701;1.56
464;1917.73;587.42;1.56
465;1890.56;585.467;1.56
466;1875.61;607.196;1.56
467;1912.54;581.561;1.56
468;1944.89;577.654;1.56
469;1959.54;613.3;1.56
470;1961.98;577.654;1.56
471;1934.82;571.795;1.56
472;1900.33;579.608;1.57
473;1888.12;593.524;1.57
474;1910.1;577.654;1.57
475;1922.61;581.561;1.57
476;1925.05;559.832;1.57
477;1915.28;595.477;1.57
478;1878.05;593.524;1.57
479;1843.57;552.019;1.57
480;1860.96;597.43;1.57
481;1902.77;593.524;1.57
482;1917.73;589.618;1.57
483;1922.61;573.748;1.57
484;1917.73;597.43;1.58
485;1890.56;587.42;1.58
486;1878.05;611.347;1.58
487;1912.54;577.654;1.58
488;1944.89;581.561;1.58
489;1959.54;617.206;1.58
490;1961.98;567.888;1.58
491;1937.26;577.654;1.58
492;1900.33;579.608;1.58
493;1888.12;593.524;1.58
494;1910.1;573.748;1.58
495;1925.05;581.561;1.58
496;1925.05;561.785;1.58
497;1915.28;601.337;1.58
498;1880.49;589.618;1.59
499;1848.45;552.019;1.59
500;1868.29;607.196;1.59
501;1905.21;591.571;1.59
502;1920.17;589.618;1.59
503;1929.93;571.795;1.59
504;1917.73;597.43;1.59
505;1893.01;585.467;1.59
506;1880.49;611.347;1.59
507;1917.73;569.842;1.59
508;1947.33;581.561;1.59
509;1961.98;615.253;1.59
510;1964.42;571.795;1.59
511;1939.7;577.654;1.59
512;1902.77;581.561;1.6
513;1888.12;595.477;1.6
514;1915.28;575.701;1.6
515;1922.61;581.561;1.6
516;1932.37;561.785;1.6
517;1912.54;595.477;1.6
518;1882.93;591.571;1.6
519;1846.01;552.019;1.6
520;1870.73;603.29;1.6
521;1907.65;593.524;1.6
522;1920.17;591.571;1.6
523;1929.93;573.748;1.6
524;1922.61;597.43;1.6
525;1895.45;587.42;1.6
526;1882.93;611.347;1.61
527;1920.17;573.748;1.61
528;1949.77;581.561;1.61
529;1961.98;617.206;1.61
530;1964.42;563.738;1.61
531;1939.7;581.561;1.61
532;1902.77;579.608;1.61
533;1893.01;597.43;1.61
534;1917.73;571.795;1.61
535;1925.05;585.467;1.61
536;1929.93;563.738;1.61
537;1920.17;607.196;1.61
538;1882.93;591.571;1.61
539;1848.45;552.019;1.61
540;1873.17;583.514;1.62
541;1910.1;611.347;1.62
542;1925.05;585.467;1.62
543;1932.37;575.701;1.62
544;1920.17;579.608;1.62
545;1893.01;587.42;1.62
546;1880.49;605.243;1.62
547;1922.61;589.618;1.62
548;1954.65;577.654;1.62
549;1966.86;609.149;1.62
550;1969.61;583.514;1.62
551;1942.45;569.842;1.62
552;1907.65;585.467;1.62
553;1895.45;593.524;1.62
554;1922.61;589.618;1.63
555;1929.93;581.561;1.63
556;1932.37;565.935;1.63
557;1920.17;589.618;1.63
558;1885.38;595.477;1.63
559;1853.33;561.785;1.63
560;1878.05;593.524;1.63
561;1912.54;603.29;1.63
562;1927.49;591.571;1.63
563;1934.82;575.701;1.63
564;1925.05;591.571;1.63
565;1900.33;587.42;1.63
566;1888.12;611.347;1.63
567;1929.93;581.561;1.63
568;1957.09;581.561;1.64
569;1969.61;617.206;1.64
570;1972.05;577.654;1.64
571;1944.89;575.701;1.64
572;1910.1;581.561;1.64
573;1897.89;597.43;1.64
574;1925.05;579.608;1.64
575;1934.82;583.514;1.64
576;1934.82;563.738;1.64
577;1920.17;599.384;1.64
578;1885.38;591.571;1.64
579;1853.33;555.925;1.64
580;1878.05;601.337;1.64
581;1915.28;597.43;1.64
582;1929.93;591.571;1.64
583;1937.26;573.748;1.65
584;1934.82;599.384;1.65
585;1910.1;589.618;1.65
586;1888.12;613.3;1.65
587;1910.1;577.654;1.65
588;1952.21;579.608;1.65
589;1969.61;619.16;1.65
590;1976.93;565.935;1.65
591;1959.54;579.608;1.65
592;1925.05;579.608;1.65
593;1897.89;601.337;1.65
594;1917.73;573.748;1.65
595;1934.82;583.514;1.65
596;1937.26;561.785;1.65
597;1934.82;605.243;1.66
598;1905.21;589.618;1.66
599;1865.84;553.972;1.66
600;1865.84;609.149;1.66
601;1910.1;593.524;1.66
602;1927.49;593.524;1.66
603;1937.26;579.608;1.66
604;1932.37;579.608;1.66
605;1912.54;587.42;1.66
606;1888.12;603.29;1.66
607;1912.54;589.618;1.66
608;1954.65;577.654;1.66
609;1972.05;609.149;1.66
610;1979.37;587.42;1.66
611;1964.42;569.842;1.66
612;1927.49;585.467;1.67
613;1900.33;595.477;1.67
614;1920.17;591.571;1.67
615;1934.82;581.561;1.67
616;1939.7;563.738;1.67
617;1934.82;589.618;1.67
618;1905.21;593.524;1.67
619;1868.29;561.785;1.67
620;1870.73;591.571;1.67
621;1912.54;601.337;1.67
622;1932.37;587.42;1.67
623;1944.89;575.701;1.67
624;1939.7;589.618;1.67
625;1917.73;585.467;1.67
626;1895.45;609.149;1.68
627;1922.61;581.561;1.68
628;1961.98;577.654;1.68
629;1979.37;615.253;1.68
630;1986.7;577.654;1.68
631;1966.86;573.748;1.68
632;1929.93;579.608;1.68
633;1907.65;593.524;1.68
634;1925.05;577.654;1.68
635;1942.45;583.514;1.68
636;1944.89;557.878;1.68
637;1939.7;597.43;1.68
638;1907.65;591.571;1.68
639;1870.73;553.972;1.68
640;1870.73;599.384;1.68
641;1915.28;595.477;1.69
642;1934.82;589.618;1.69
643;1944.89;571.795;1.69
644;1942.45;595.477;1.69
645;1917.73;585.467;1.69
646;1897.89;609.149;1.69
647;1922.61;575.701;1.69
648;1959.54;579.608;1.69
649;1981.81;617.206;1.69
650;1984.26;565.935;1.69
651;1966.86;577.654;1.69
652;1929.93;579.608;1.69
653;1902.77;597.43;1.69
654;1927.49;573.748;1.69
655;1942.45;581.561;1.7
656;1947.33;557.878;1.7
657;1937.26;601.337;1.7
658;1907.65;589.618;1.7
659;1870.73;552.019;1.7
660;1875.61;605.243;1.7
661;1917.73;589.618;1.7
662;1937.26;591.571;1.7
663;1947.33;573.748;1.7
664;1942.45;597.43;1.7
665;1920.17;587.42;1.7
666;1897.89;607.196;1.7
667;1922.61;579.608;1.7
668;1961.98;579.608;1.7
669;1976.93;613.3;1.7
670;1984.26;571.795;1.71
671;1964.42;573.748;1.71
672;1927.49;577.654;1.71
673;1905.21;593.524;1.71
674;1925.05;573.748;1.71
675;1942.45;581.561;1.71
676;1949.77;557.878;1.71
677;1942.45;597.43;1.71
678;1910.1;587.42;1.71
679;1873.17;550.066;1.71
680;1878.05;601.337;1.71
681;1922.61;591.571;1.71
682;1939.7;589.618;1.71
683;1949.77;571.795;1.71
684;1947.33;597.43;1.71
685;1922.61;585.467;1.72
686;1900.33;607.196;1.72
687;1929.93;571.795;1.72
688;1966.86;579.608;1.72
689;1984.26;619.16;1.72
690;1991.58;563.738;1.72
691;1972.05;577.654;1.72
692;1932.37;575.701;1.72
693;1910.1;595.477;1.72
694;1932.37;569.842;1.72
695;1947.33;581.561;1.72
696;1952.21;563.738;1.72
697;1939.7;583.514;1.72
698;1910.1;597.43;1.72
699;1870.73;561.785;1.72
700;1880.49;581.561;1.73
701;1920.17;609.149;1.73
702;1939.7;583.514;1.73
703;1952.21;573.748;1.73
704;1947.33;575.701;1.73
705;1922.61;583.514;1.73
706;1900.33;603.29;1.73
707;1932.37;585.467;1.73
708;1966.86;571.795;1.73
709;1981.81;609.149;1.73
710;1989.14;581.561;1.73
711;1966.86;567.888;1.73
712;1929.93;579.608;1.73
713;1907.65;591.571;1.73
714;1932.37;587.42;1.73
715;1947.33;577.654;1.73
716;1952.21;561.785;1.74
717;1939.7;587.42;1.74
718;1910.1;591.571;1.74
719;1873.17;553.972;1.74
720;1880.49;591.571;1.74
721;1925.05;597.43;1.74
722;1942.45;587.42;1.74
723;1954.65;569.842;1.74
724;1949.77;587.42;1.74
725;1920.17;585.467;1.74
726;1902.77;607.196;1.74
727;1934.82;579.608;1.74
728;1969.61;577.654;1.74
729;1986.7;613.3;1.74
730;1991.58;571.795;1.74
731;1969.61;571.795;1.74
732;1934.82;579.608;1.75
733;1912.54;593.524;1.75
734;1934.82;577.654;1.75
735;1949.77;581.561;1.75
736;1952.21;557.878;1.75
737;1942.45;593.524;1.75
738;1910.1;587.42;1.75
739;1873.17;552.019;1.75
740;1882.93;601.337;1.75
741;1925.05;593.524;1.75
742;1942.45;587.42;1.75
743;1952.21;571.795;1.75
744;1947.33;597.43;1.75
745;1920.17;583.514;1.75
746;1900.33;611.347;1.75
747;1934.82;573.748;1.75
748;1972.05;579.608;1.76
749;1986.7;617.206;1.76
750;1991.58;563.738;1.76
751;1974.49;577.654;1.76
752;1934.82;577.654;1.76
753;1912.54;593.524;1.76
754;1934.82;571.795;1.76
755;1949.77;581.561;1.76
756;1957.09;557.878;1.76
757;1944.89;581.561;1.76
758;1912.54;595.477;1.76
759;1875.61;561.785;1.76
760;1888.12;575.701;1.76
761;1925.05;607.196;1.76
762;1942.45;583.514;1.76
763;1954.65;573.748;1.77
764;1949.77;577.654;1.77
765;1922.61;587.42;1.77
766;1902.77;601.337;1.77
767;1939.7;585.467;1.77
768;1972.05;573.748;1.77
769;1989.14;607.196;1.77
770;1991.58;583.514;1.77
771;1972.05;565.935;1.77
772;1932.37;579.608;1.77
773;1912.54;591.571;1.77
774;1934.82;585.467;1.77
775;1949.77;577.654;1.77
776;1954.65;561.785;1.77
777;1942.45;587.42;1.77
778;1912.54;591.571;1.77
779;1873.17;555.925;1.78
780;1888.12;587.42;1.78
781;1929.93;601.337;1.78
782;1947.33;585.467;1.78
783;1957.09;573.748;1.78
784;1949.77;585.467;1.78
785;1927.49;585.467;1.78
786;1905.21;607.196;1.78
787;1939.7;579.608;1.78
788;1976.93;577.654;1.78
789;1989.14;613.3;1.78
790;1991.58;571.795;1.78
791;1972.05;569.842;1.78
792;1932.37;577.654;1.78
793;1912.54;593.524;1.78
794;1939.7;575.701;1.78
795;1952.21;579.608;1.79
796;1954.65;557.878;1.79
797;1947.33;593.524;1.79
798;1910.1;591.571;1.79
799;1875.61;552.019;1.79
800;1888.12;597.43;1.79
801;1929.93;595.477;1.79
802;1944.89;585.467;1.79
803;1949.77;571.795;1.79
804;1947.33;593.524;1.79
805;1920.17;583.514;1.79
806;1905.21;611.347;1.79
807;1939.7;575.701;1.79
808;1974.49;579.608;1.79
809;1991.58;617.206;1.79
810;1996.77;563.738;1.8
811;1972.05;575.701;1.8
812;1934.82;573.748;1.8
813;1920.17;593.524;1.8
814;1942.45;571.795;1.8
815;1957.09;579.608;1.8
816;1957.09;557.878;1.8
817;1949.77;603.29;1.8
818;1912.54;587.42;1.8
819;1878.05;552.019;1.8
820;1893.01;589.618;1.8
821;1932.37;597.43;1.8
822;1949.77;583.514;1.8
823;1959.54;569.842;1.8
824;1947.33;591.571;1.8
825;1925.05;585.467;1.8
826;1907.65;607.196;1.81
827;1944.89;575.701;1.81
828;1976.93;575.701;1.81
829;1994.02;615.253;1.81
830;1996.77;567.888;1.81
831;1972.05;571.795;1.81
832;1934.82;577.654;1.81
833;1917.73;593.524;1.81
834;1939.7;571.795;1.81
835;1954.65;579.608;1.81
836;1954.65;555.925;1.81
837;1947.33;595.477;1.81
838;1910.1;587.42;1.81
839;1875.61;550.066;1.81
840;1893.01;601.337;1.81
841;1932.37;589.618;1.82
842;1949.77;589.618;1.82
843;1959.54;571.795;1.82
844;1952.21;595.477;1.82
845;1925.05;583.514;1.82
846;1907.65;609.149;1.82
847;1944.89;569.842;1.82
848;1976.93;579.608;1.82
849;1991.58;617.206;1.82
850;1996.77;587.42;1.82
851;1969.61;557.878;1.82
852;1934.82;581.561;1.82
853;1917.73;587.42;1.82
854;1939.7;591.571;1.82
855;1954.65;579.608;1.82
856;1954.65;563.738;1.82
857;1947.33;581.561;1.83
858;1910.1;593.524;1.83
859;1878.05;559.832;1.83
860;1895.45;581.561;1.83
861;1932.37;605.243;1.83
862;1949.77;579.608;1.83
863;1959.54;571.795;1.83
864;1947.33;579.608;1.83
865;1920.17;581.561;1.83
866;1905.21;601.337;1.83
867;1942.45;585.467;1.83
868;1976.93;573.748;1.83
869;1991.58;609.149;1.83
870;1994.02;579.608;1.83
871;1969.61;565.935;1.83
872;1934.82;579.608;1.83
873;1917.73;589.618;1.84
874;1942.45;581.561;1.84
875;1952.21;579.608;1.84
876;1959.54;559.832;1.84
877;1944.89;589.618;1.84
878;1907.65;591.571;1.84
879;1875.61;553.972;1.84
880;1895.45;589.618;1.84
881;1932.37;597.43;1.84
882;1949.77;585.467;1.84
883;1959.54;569.842;1.84
884;1949.77;587.42;1.84
885;1922.61;585.467;1.84
886;1907.65;609.149;1.84
887;1944.89;575.701;1.84
888;1979.37;575.701;1.85
889;1991.58;613.3;1.85
890;1994.02;571.795;1.85
891;1972.05;569.842;1.85
892;1932.37;577.654;1.85
893;1920.17;591.571;1.85
894;1944.89;573.748;1.85
895;1954.65;577.654;1.85
896;1957.09;555.925;1.85
897;1947.33;593.524;1.85
898;1910.1;587.42;1.85
899;1875.61;550.066;1.85
900;1897.89;599.384;1.85
901;1932.37;593.524;1.85
902;1952.21;587.42;1.85
903;1959.54;569.842;1.86
904;1947.33;593.524;1.86
905;1920.17;579.608;1.86
906;1907.65;607.196;1.86
907;1944.89;569.842;1.86
908;1979.37;575.701;1.86
909;1991.58;613.3;1.86
910;1994.02;561.785;1.86
911;1969.61;575.701;1.86
912;1932.37;579.608;1.86
913;1917.73;589.618;1.86
914;1942.45;589.618;1.86
915;1954.65;575.701;1.86
916;1959.54;563.738;1.86
917;1949.77;579.608;1.86
918;1910.1;593.524;1.86
919;1875.61;557.878;1.87
920;1900.33;577.654;1.87
921;1939.7;607.196;1.87
922;1952.21;581.561;1.87
923;1957.09;571.795;1.87
924;1952.21;575.701;1.87
925;1922.61;585.467;1.87
926;1910.1;601.337;1.87
927;1949.77;585.467;1.87
928;1979.37;571.795;1.87
929;1994.02;607.196;1.87
930;1994.02;581.561;1.87
931;1969.61;563.738;1.87
932;1932.37;577.654;1.87
933;1920.17;591.571;1.87
934;1947.33;585.467;1.88
935;1959.54;577.654;1.88
936;1959.54;559.832;1.88
937;1947.33;585.467;1.88
938;1910.1;591.571;1.88
939;1880.49;555.925;1.88
940;1890.56;587.42;1.88
941;1929.93;597.43;1.88
942;1949.77;583.514;1.88
943;1957.09;571.795;1.88
944;1952.21;585.467;1.88
945;1925.05;585.467;1.88
946;1907.65;605.243;1.88
947;1937.26;577.654;1.88
948;1974.49;573.748;1.88
949;1989.14;611.347;1.88
950;1994.02;571.795;1.89
951;1974.49;569.842;1.89
952;1937.26;575.701;1.89
953;1917.73;593.524;1.89
954;1939.7;573.748;1.89
955;1954.65;577.654;1.89
956;1957.09;555.925;1.89
957;1947.33;595.477;1.89
958;1915.28;587.42;1.89
959;1878.05;550.066;1.89
960;1888.12;593.524;1.89
961;1929.93;593.524;1.89
962;1947.33;587.42;1.89
963;1957.09;569.842;1.89
964;1952.21;595.477;1.89
965;1925.05;583.514;1.89
966;1907.65;611.347;1.9
967;1942.45;571.795;1.9
968;1974.49;575.701;1.9
969;1991.58;615.253;1.9
970;1994.02;563.738;1.9
971;1976.93;573.748;1.9
972;1937.26;573.748;1.9
973;1920.17;591.571;1.9
974;1942.45;577.654;1.9
975;1952.21;577.654;1.9
976;1957.09;557.878;1.9
977;1947.33;589.618;1.9
978;1915.28;589.618;1.9
979;1878.05;548.112;1.9
980;1890.56;591.571;1.9
981;1929.93;595.477;1.91
982;1947.33;585.467;1.91
983;1954.65;567.888;1.91
984;1952.21;589.618;1.91
985;1927.49;583.514;1.91
986;1907.65;605.243;1.91
987;1939.7;575.701;1.91
988;1974.49;575.701;1.91
989;1991.58;615.253;1.91
990;1996.77;567.888;1.91
991;1974.49;571.795;1.91
992;1934.82;573.748;1.91
993;1917.73;593.524;1.91
994;1942.45;569.842;1.91
995;1954.65;575.701;1.91
996;1959.54;555.925;1.91
997;1952.21;595.477;1.92
998;1915.28;585.467;1.92
999;1880.49;550.066;1.92
1000;1893.01;599.384;1.92
1001;1934.82;589.618;1.92
1002;1949.77;587.42;1.92
1003;1959.54;569.842;1.92
1004;1952.21;573.748;1.92
1005;1925.05;585.467;1.92
1006;1910.1;597.43;1.92
1007;1944.89;587.42;1.92
1008;1979.37;567.888;1.92
1009;1996.77;599.384;1.92
1010;1999.21;589.618;1.92
1011;1976.93;555.925;1.92
1012;1939.7;579.608;1.93
1013;1920.17;587.42;1.93
1014;1947.33;589.618;1.93
1015;1959.54;573.748;1.93
1016;1961.98;561.785;1.93
1017;1952.21;579.608;1.93
1018;1917.73;593.524;1.93
1019;1880.49;559.832;1.93
1020;1895.45;577.654;1.93
1021;1937.26;603.29;1.93
1022;1952.21;581.561;1.93
1023;1961.98;571.795;1.93
1024;1957.09;577.654;1.93
1025;1929.93;583.514;1.93
1026;1912.54;601.337;1.93
1027;1947.33;579.608;1.93
1028;1981.81;569.842;1.94
1029;1994.02;607.196;1.94
1030;1999.21;577.654;1.94
1031;1976.93;565.935;1.94
1032;1939.7;577.654;1.94
1033;1920.17;589.618;1.94
1034;1947.33;581.561;1.94
1035;1959.54;575.701;1.94
1036;1964.42;559.832;1.94
1037;1954.65;585.467;1.94
1038;1920.17;589.618;1.94
1039;1882.93;553.972;1.94
1040;1900.33;587.42;1.94
1041;1939.7;595.477;1.94
1042;1954.65;585.467;1.94
1043;1964.42;569.842;1.94
1044;1954.65;589.618;1.95
1045;1929.93;581.561;1.95
1046;1912.54;607.196;1.95
1047;1949.77;573.748;1.95
1048;1981.81;571.795;1.95
1049;1999.21;611.347;1.95
1050;2001.65;567.888;1.95
1051;1979.37;569.842;1.95
1052;1944.89;573.748;1.95
1053;1927.49;591.571;1.95
1054;1954.65;569.842;1.95
1055;1964.42;577.654;1.95
1056;1966.86;553.972;1.95
1057;1954.65;593.524;1.95
1058;1920.17;587.42;1.95
1059;1882.93;550.066;1.96
1060;1902.77;597.43;1.96
1061;1942.45;589.618;1.96
1062;1959.54;585.467;1.96
1063;1966.86;567.888;1.96
1064;1959.54;593.524;1.96
1065;1929.93;579.608;1.96
1066;1915.28;593.524;1.96
1067;1952.21;587.42;1.96
1068;1984.26;565.935;1.96
1069;1999.21;597.43;1.96
1070;2004.09;589.618;1.96
1071;1979.37;553.972;1.96
1072;1942.45;579.608;1.96
1073;1922.61;587.42;1.96
1074;1949.77;585.467;1.96
1075;1964.42;575.701;1.97
1076;1966.86;559.832;1.97
1077;1954.65;579.608;1.97
1078;1920.17;591.571;1.97
1079;1885.38;557.878;1.97
1080;1905.21;577.654;1.97
1081;1944.89;605.243;1.97
1082;1961.98;579.608;1.97
1083;1969.61;571.795;1.97
1084;1961.98;571.795;1.97
1085;1934.82;581.561;1.97
1086;1920.17;599.384;1.97
1087;1957.09;581.561;1.97
1088;1989.14;569.842;1.97
1089;2004.09;605.243;1.97
1090;2008.98;579.608;1.98
1091;1981.81;563.738;1.98
1092;1944.89;575.701;1.98
1093;1932.37;587.42;1.98
1094;1954.65;583.514;1.98
1095;1966.86;575.701;1.98
1096;1969.61;555.925;1.98
1097;1957.09;585.467;1.98
1098;1922.61;587.42;1.98
1099;1888.12;552.019;1.98
1100;1910.1;587.42;1.98
1101;1947.33;595.477;1.98
1102;1959.54;583.514;1.98
1103;1966.86;567.888;1.98
1104;1959.54;587.42;1.98
1105;1932.37;583.514;1.98
1106;1915.28;603.29;1.98
1107;1957.09;575.701;1.99
1108;1991.58;573.748;1.99
1109;2004.09;609.149;1.99
1110;2008.98;567.888;1.99
1111;1981.81;569.842;1.99
1112;1944.89;571.795;1.99
1113;1932.37;589.618;1.99
1114;1959.54;571.795;1.99
1115;1969.61;577.654;1.99
1116;1972.05;553.972;1.99
1117;1961.98;591.571;1.99
1118;1925.05;587.42;1.99
1119;1893.01;548.112;1.99
1120;1893.01;597.43;1.99
1121;1937.26;589.618;1.99
1122;1959.54;585.467;1.99
1123;1972.05;567.888;1.99
1124;1972.05;593.524;2
1125;1949.77;583.514;2
1126;1922.61;607.196;2
1127;1942.45;571.795;2
1128;1986.7;569.842;2
1129;2004.09;607.196;2
1130;2011.42;573.748;2
1131;1999.21;565.935;2
1132;1959.54;575.701;2
1133;1932.37;589.618;2
1134;1947.33;577.654;2
1135;1969.61;575.701;2
1136;1974.49;555.925;2
1137;1969.61;589.618;2
1138;1942.45;587.42;2
1139;1900.33;548.112;2
1140;1895.45;589.618;2
1141;1939.7;593.524;2.01
1142;1959.54;581.561;2.01
1143;1974.49;569.842;2.01
1144;1969.61;591.571;2.01
1145;1949.77;581.561;2.01
1146;1922.61;605.243;2.01
1147;1944.89;573.748;2.01
1148;1986.7;571.795;2.01
1149;2006.53;611.347;2.01
1150;2013.86;565.935;2.01
1151;1999.21;571.795;2.01
1152;1961.98;573.748;2.01
1153;1932.37;587.42;2.01
1154;1949.77;569.842;2.01
1155;1969.61;575.701;2.01
1156;1976.93;555.925;2.01
1157;1972.05;595.477;2.02
1158;1942.45;585.467;2.02
1159;1902.77;565.935;2.02
1160;1897.89;571.795;2.02
1161;1939.7;609.149;2.02
1162;1961.98;579.608;2.02
1163;1974.49;571.795;2.02
1164;1972.05;571.795;2.02
1165;1949.77;581.561;2.02
1166;1922.61;593.524;2.02
1167;1947.33;585.467;2.02
1168;1989.14;565.935;2.02
1169;2006.53;597.43;2.02
1170;2016.3;585.467;2.02
1171;2001.65;557.878;2.02
1172;1964.42;577.654;2.02
1173;1934.82;585.467;2.03
1174;1952.21;589.618;2.03
1175;1974.49;573.748;2.03
1176;1979.37;559.832;2.03
1177;1972.05;581.561;2.03
1178;1942.45;591.571;2.03
1179;1905.21;555.925;2.03
1180;1900.33;579.608;2.03
1181;1944.89;603.29;2.03
1182;1969.61;581.561;2.03
1183;1974.49;569.842;2.03
1184;1974.49;575.701;2.03
1185;1952.21;579.608;2.03
1186;1927.49;601.337;2.03
1187;1952.21;579.608;2.03
1188;1991.58;569.842;2.03
1189;2011.42;605.243;2.04
1190;2018.74;573.748;2.04
1191;2004.09;565.935;2.04
1192;1964.42;577.654;2.04
1193;1937.26;587.42;2.04
1194;1957.09;579.608;2.04
1195;1974.49;577.654;2.04
1196;1979.37;553.972;2.04
1197;1974.49;587.42;2.04
1198;1944.89;587.42;2.04
1199;1905.21;550.066;2.04
1200;1902.77;587.42;2.04
1201;1944.89;593.524;2.04
1202;1969.61;583.514;2.04
1203;1976.93;567.888;2.04
1204;1974.49;587.42;2.04
1205;1954.65;579.608;2.05
1206;1927.49;605.243;2.05
1207;1952.21;575.701;2.05
1208;1991.58;573.748;2.05
1209;2008.98;611.347;2.05
1210;2018.74;567.888;2.05
1211;1999.21;567.888;2.05
1212;1964.42;573.748;2.05
1213;1937.26;589.618;2.05
1214;1954.65;567.888;2.05
1215;1974.49;577.654;2.05
1216;1981.81;552.019;2.05
1217;1974.49;593.524;2.05
1218;1944.89;583.514;2.05
1219;1905.21;548.112;2.05
1220;1905.21;599.384;2.05
1221;1949.77;611.347;2.06
1222;1972.05;579.608;2.06
1223;1979.37;571.795;2.06
1224;1979.37;573.748;2.06
1225;1952.21;583.514;2.06
1226;1929.93;593.524;2.06
1227;1954.65;585.467;2.06
1228;1994.02;565.935;2.06
1229;2011.42;595.477;2.06
1230;2021.18;585.467;2.06
1231;2004.09;553.972;2.06
1232;1966.86;579.608;2.06
1233;1939.7;585.467;2.06
1234;1959.54;587.42;2.06
1235;1976.93;573.748;2.06
1236;1981.81;559.832;2.06
1237;1976.93;581.561;2.07
1238;1944.89;589.618;2.07
1239;1907.65;555.925;2.07
1240;1905.21;575.701;2.07
1241;1949.77;601.337;2.07
1242;1972.05;579.608;2.07
1243;1981.81;569.842;2.07
1244;1979.37;573.748;2.07
1245;1954.65;581.561;2.07
1246;1929.93;599.384;2.07
1247;1957.09;581.561;2.07
1248;1999.21;569.842;2.07
1249;2016.3;603.29;2.07
1250;2023.93;575.701;2.07
1251;2004.09;561.785;2.07
1252;1972.05;577.654;2.07
1253;1947.33;589.618;2.08
1254;1964.42;579.608;2.08
1255;1981.81;571.795;2.08
1256;1989.14;555.925;2.08
1257;1981.81;585.467;2.08
1258;1949.77;587.42;2.08
1259;1910.1;550.066;2.08
1260;1915.28;587.42;2.08
1261;1957.09;595.477;2.08
1262;1976.93;581.561;2.08
1263;1986.7;569.842;2.08
1264;1981.81;585.467;2.08
1265;1957.09;579.608;2.08
1266;1932.37;603.29;2.08
1267;1959.54;573.748;2.08
1268;1999.21;569.842;2.09
1269;2016.3;611.347;2.09
1270;2021.18;567.888;2.09
1271;2004.09;569.842;2.09
1272;1966.86;573.748;2.09
1273;1942.45;591.571;2.09
1274;1964.42;571.795;2.09
1275;1981.81;573.748;2.09
1276;1986.7;553.972;2.09
1277;1981.81;591.571;2.09
1278;1947.33;583.514;2.09
1279;1910.1;548.112;2.09
1280;1910.1;595.477;2.09
1281;1957.09;589.618;2.09
1282;1979.37;579.608;2.09
1283;1989.14;569.842;2.1
1284;1984.26;583.514;2.1
1285;1957.09;581.561;2.1
1286;1934.82;601.337;2.1
1287;1964.42;577.654;2.1
1288;2004.09;571.795;2.1
1289;2018.74;607.196;2.1
1290;2028.81;571.795;2.1
1291;2008.98;567.888;2.1
1292;1972.05;573.748;2.1
1293;1944.89;589.618;2.1
1294;1966.86;577.654;2.1
1295;1981.81;575.701;2.1
1296;1989.14;555.925;2.1
1297;1979.37;589.618;2.1
1298;1947.33;587.42;2.11
1299;1910.1;548.112;2.11
1300;1912.54;591.571;2.11
1301;1957.09;591.571;2.11
1302;1976.93;585.467;2.11
1303;1984.26;567.888;2.11
1304;1981.81;589.618;2.11
1305;1957.09;581.561;2.11
1306;1934.82;603.29;2.11
1307;1964.42;569.842;2.11
1308;2004.09;573.748;2.11
1309;2018.74;615.253;2.11
1310;2023.93;563.738;2.11
1311;2006.53;569.842;2.11
1312;1966.86;571.795;2.11
1313;1947.33;581.561;2.12
1314;1969.61;587.42;2.12
1315;1984.26;571.795;2.12
1316;1986.7;563.738;2.12
1317;1981.81;573.748;2.12
1318;1949.77;593.524;2.12
1319;1910.1;559.832;2.12
1320;1917.73;569.842;2.12
1321;1959.54;607.196;2.12
1322;1979.37;577.654;2.12
1323;1991.58;571.795;2.12
1324;1984.26;569.842;2.12
1325;1959.54;581.561;2.12
1326;1934.82;593.524;2.12
1327;1966.86;583.514;2.12
1328;2006.53;565.935;2.13
1329;2018.74;599.384;2.13
1330;2026.37;583.514;2.13
1331;2004.09;555.925;2.13
1332;1966.86;575.701;2.13
1333;1942.45;587.42;2.13
1334;1966.86;585.467;2.13
1335;1981.81;573.748;2.13
1336;1986.7;559.832;2.13
1337;1979.37;581.561;2.13
1338;1947.33;587.42;2.13
1339;1907.65;555.925;2.13
1340;1917.73;579.608;2.13
1341;1961.98;599.384;2.13
1342;1979.37;579.608;2.13
1343;1986.7;569.842;2.14
1344;1984.26;577.654;2.14
1345;1957.09;579.608;2.14
1346;1934.82;599.384;2.14
1347;1969.61;577.654;2.14
1348;2006.53;571.795;2.14
1349;2026.37;605.243;2.14
1350;2031.25;571.795;2.14
1351;2008.98;563.738;2.14
1352;1972.05;571.795;2.14
1353;1949.77;585.467;2.14
1354;1972.05;577.654;2.14
1355;1989.14;575.701;2.14
1356;1991.58;552.019;2.14
1357;1984.26;585.467;2.14
1358;1947.33;585.467;2.15
1359;1910.1;548.112;2.15
1360;1922.61;591.571;2.15
1361;1961.98;591.571;2.15
1362;1981.81;583.514;2.15
1363;1989.14;567.888;2.15
1364;1984.26;589.618;2.15
1365;1961.98;581.561;2.15
1366;1937.26;603.29;2.15
1367;1972.05;571.795;2.15
1368;2008.98;573.748;2.15
1369;2026.37;611.347;2.15
1370;2031.25;561.785;2.15
1371;2008.98;567.888;2.15
1372;1972.05;571.795;2.15
1373;1949.77;589.618;2.16
1374;1974.49;587.42;2.16
1375;1994.02;571.795;2.16
1376;1999.21;565.935;2.16
1377;1989.14;571.795;2.16
1378;1954.65;593.524;2.16
1379;1917.73;563.738;2.16
1380;1927.49;567.888;2.16
1381;1969.61;609.149;2.16
1382;1989.14;579.608;2.16
1383;1999.21;571.795;2.16
1384;1991.58;569.842;2.16
1385;1961.98;579.608;2.16
1386;1939.7;595.477;2.16
1387;1974.49;583.514;2.16
1388;2013.86;565.935;2.17
1389;2026.37;595.477;2.17
1390;2031.25;583.514;2.17
1391;2008.98;555.925;2.17
1392;1972.05;577.654;2.17
1393;1952.21;585.467;2.17
1394;1976.93;585.467;2.17
1395;1991.58;573.748;2.17
1396;1999.21;559.832;2.17
1397;1984.26;579.608;2.17
1398;1952.21;589.618;2.17
1399;1915.28;555.925;2.17
1400;1927.49;577.654;2.17
1401;1972.05;599.384;2.17
1402;1989.14;579.608;2.17
1403;1999.21;567.888;2.18
1404;1994.02;575.701;2.18
1405;1961.98;577.654;2.18
1406;1944.89;599.384;2.18
1407;1979.37;577.654;2.18
1408;2016.3;567.888;2.18
1409;2031.25;607.196;2.18
1410;2036.14;573.748;2.18
1411;2013.86;561.785;2.18
1412;1976.93;575.701;2.18
1413;1957.09;585.467;2.18
1414;1981.81;577.654;2.18
1415;1994.02;573.748;2.18
1416;2001.65;553.972;2.18
1417;1991.58;585.467;2.18
1418;1957.09;585.467;2.19
1419;1917.73;550.066;2.19
1420;1929.93;589.618;2.19
1421;1974.49;593.524;2.19
1422;1991.58;581.561;2.19
1423;2001.65;565.935;2.19
1424;1994.02;587.42;2.19
1425;1966.86;579.608;2.19
1426;1947.33;603.29;2.19
1427;1984.26;569.842;2.19
1428;2018.74;573.748;2.19
1429;2036.14;609.149;2.19
1430;2041.02;565.935;2.19
1431;2013.86;565.935;2.19
1432;1976.93;571.795;2.19
1433;1961.98;587.42;2.2
1434;1984.26;567.888;2.2
1435;2001.65;573.748;2.2
1436;2004.09;555.925;2.2
1437;1996.77;581.561;2.2
1438;1959.54;587.42;2.2
1439;1920.17;550.066;2.2
1440;1937.26;583.514;2.2
1441;1981.81;597.43;2.2
1442;1999.21;579.608;2.2
1443;2008.98;567.888;2.2
1444;1999.21;579.608;2.2
1445;1974.49;579.608;2.2
1446;1952.21;601.337;2.2
1447;1986.7;575.701;2.2
1448;2026.37;569.842;2.21
1449;2038.58;607.196;2.21
1450;2041.02;571.795;2.21
1451;2016.3;565.935;2.21
1452;1981.81;571.795;2.21
1453;1961.98;589.618;2.21
1454;1986.7;571.795;2.21
1455;1999.21;575.701;2.21
1456;2004.09;555.925;2.21
1457;1994.02;587.42;2.21
1458;1954.65;583.514;2.21
1459;1920.17;546.159;2.21
1460;1934.82;593.524;2.21
1461;1981.81;591.571;2.21
1462;1999.21;583.514;2.21
1463;2006.53;565.935;2.22
1464;1999.21;589.618;2.22
1465;1972.05;577.654;2.22
1466;1954.65;589.618;2.22
1467;1991.58;589.618;2.22
1468;2028.81;559.832;2.22
1469;2043.46;591.571;2.22
1470;2045.9;591.571;2.22
1471;2023.93;548.112;2.22
1472;1984.26;577.654;2.22
1473;1964.42;581.561;2.22
1474;1991.58;585.467;2.22
1475;2006.53;571.795;2.22
1476;2008.98;561.785;2.22
1477;1999.21;571.795;2.22
1478;1961.98;591.571;2.23
1479;1927.49;561.785;2.23
1480;1942.45;569.842;2.23
1481;1986.7;603.29;2.23
1482;2004.09;577.654;2.23
1483;2011.42;571.795;2.23
1484;2004.09;571.795;2.23
1485;1986.7;581.561;2.23
1486;1957.09;595.477;2.23
1487;1974.49;585.467;2.23
1488;2021.18;565.935;2.23
1489;2043.46;599.384;2.23
1490;2053.53;581.561;2.23
1491;2038.58;555.925;2.23
1492;2004.09;575.701;2.23
1493;1969.61;587.42;2.24
1494;1989.14;587.42;2.24
1495;2006.53;573.748;2.24
1496;2013.86;555.925;2.24
1497;2013.86;579.608;2.24
1498;1984.26;587.42;2.24
1499;1942.45;550.066;2.24
1500;1934.82;579.608;2.24
1501;1981.81;597.43;2.24
1502;2008.98;579.608;2.24
1503;2018.74;565.935;2.24
1504;2018.74;577.654;2.24
1505;1996.77;579.608;2.24
1506;1969.61;599.384;2.24
1507;1984.26;577.654;2.24
1508;2031.25;569.842;2.24
1509;2051.09;605.243;2.25
1510;2060.86;567.888;2.25
1511;2045.9;561.785;2.25
1512;2006.53;571.795;2.25
1513;1976.93;585.467;2.25
1514;1991.58;573.748;2.25
1515;2011.42;571.795;2.25
1516;2018.74;553.972;2.25
1517;2013.86;585.467;2.25
1518;1984.26;583.514;2.25
1519;1944.89;544.206;2.25
1520;1937.26;589.618;2.25
1521;1986.7;591.571;2.25
1522;2011.42;581.561;2.25
1523;2023.93;565.935;2.25
1524;2021.18;587.42;2.26
1525;1999.21;577.654;2.26
1526;1972.05;601.337;2.26
1527;1991.58;569.842;2.26
1528;2038.58;561.785;2.26
1529;2053.53;589.618;2.26
1530;2065.74;587.42;2.26
1531;2051.09;548.112;2.26
1532;2016.3;577.654;2.26
1533;1981.81;583.514;2.26
1534;2001.65;583.514;2.26
1535;2021.18;571.795;2.26
1536;2026.37;561.785;2.26
1537;2023.93;571.795;2.26
1538;1994.02;593.524;2.26
1539;1954.65;561.785;2.27
1540;1944.89;567.888;2.27
1541;1991.58;609.149;2.27
1542;2018.74;577.654;2.27
1543;2028.81;567.888;2.27
1544;2028.81;569.842;2.27
1545;2001.65;581.561;2.27
1546;1974.49;591.571;2.27
1547;1996.77;583.514;2.27
1548;2041.02;565.935;2.27
1549;2063.3;597.43;2.27
1550;2068.18;579.608;2.27
1551;2053.53;555.925;2.27
1552;2016.3;575.701;2.27
1553;1989.14;585.467;2.27
1554;2006.53;585.467;2.28
1555;2026.37;571.795;2.28
1556;2033.7;555.925;2.28
1557;2028.81;579.608;2.28
1558;1999.21;589.618;2.28
1559;1959.54;552.019;2.28
1560;1954.65;577.654;2.28
1561;2001.65;597.43;2.28
1562;2023.93;577.654;2.28
1563;2033.7;567.888;2.28
1564;2033.7;573.748;2.28
1565;2011.42;579.608;2.28
1566;1984.26;597.43;2.28
1567;2004.09;577.654;2.28
1568;2048.34;567.888;2.29
1569;2065.74;605.243;2.29
1570;2075.51;571.795;2.29
1571;2063.3;561.785;2.29
1572;2023.93;571.795;2.29
1573;1994.02;585.467;2.29
1574;2013.86;573.748;2.29
1575;2036.14;573.748;2.29
1576;2038.58;552.019;2.29
1577;2033.7;585.467;2.29
1578;2001.65;583.514;2.29
1579;1959.54;546.159;2.29
1580;1954.65;585.467;2.29
1581;2004.09;591.571;2.29
1582;2031.25;579.608;2.3
1583;2041.02;563.738;2.3
1584;2038.58;583.514;2.3
1585;2013.86;581.561;2.3
1586;1984.26;603.29;2.3
1587;2008.98;569.842;2.3
1588;2055.97;571.795;2.3
1589;2073.06;609.149;2.3
1590;2080.69;575.701;2.3
1591;2063.3;557.878;2.3
1592;2026.37;571.795;2.3
1593;1999.21;585.467;2.3
1594;2018.74;579.608;2.3
1595;2038.58;571.795;2.3
1596;2043.46;553.972;2.31
1597;2038.58;579.608;2.31
1598;2011.42;585.467;2.31
1599;1966.86;552.019;2.31
1600;1966.86;583.514;2.31
1601;2011.42;595.477;2.31
1602;2033.7;577.654;2.31
1603;2043.46;563.738;2.31
1604;2043.46;581.561;2.31
1605;2016.3;577.654;2.31
1606;1986.7;599.384;2.31
1607;2013.86;571.795;2.31
1608;2058.42;565.935;2.31
1609;2075.51;605.243;2.31
1610;2085.58;567.888;2.32
1611;2068.18;565.935;2.32
1612;2031.25;569.842;2.32
1613;2004.09;587.42;2.32
1614;2023.93;567.888;2.32
1615;2045.9;571.795;2.32
1616;2051.09;552.019;2.32
1617;2045.9;587.42;2.32
1618;2013.86;583.514;2.32
1619;1969.61;548.112;2.32
1620;1972.05;593.524;2.32
1621;2021.18;611.347;2.32
1622;2041.02;575.701;2.32
1623;2055.97;569.842;2.33
1624;2048.34;569.842;2.33
1625;2026.37;581.561;2.33
1626;1996.77;587.42;2.33
1627;2023.93;587.42;2.33
1628;2068.18;557.878;2.33
1629;2085.58;591.571;2.33
1630;2090.46;585.467;2.33
1631;2073.06;548.112;2.33
1632;2033.7;575.701;2.33
1633;2008.98;581.561;2.33
1634;2031.25;583.514;2.33
1635;2051.09;567.888;2.33
1636;2053.53;559.832;2.33
1637;2051.09;573.748;2.34
1638;2018.74;589.618;2.34
1639;1976.93;557.878;2.34
1640;1979.37;567.888;2.34
1641;2023.93;603.29;2.34
1642;2045.9;577.654;2.34
1643;2055.97;565.935;2.34
1644;2053.53;569.842;2.34
1645;2028.81;579.608;2.34
1646;1999.21;595.477;2.34
1647;2028.81;579.608;2.34
1648;2073.06;565.935;2.34
1649;2092.9;599.384;2.34
1650;2097.78;575.701;2.35
1651;2078.25;555.925;2.35
1652;2043.46;573.748;2.35
1653;2016.3;583.514;2.35
1654;2038.58;581.561;2.35
1655;2058.42;571.795;2.35
1656;2063.3;555.925;2.35
1657;2055.97;579.608;2.35
1658;2021.18;585.467;2.35
1659;1981.81;550.066;2.35
1660;1981.81;579.608;2.35
1661;2028.81;597.43;2.35
1662;2053.53;577.654;2.35
1663;2063.3;563.738;2.36
1664;2058.42;577.654;2.36
1665;2031.25;577.654;2.36
1666;2006.53;599.384;2.36
1667;2036.14;575.701;2.36
1668;2078.25;567.888;2.36
1669;2095.34;605.243;2.36
1670;2100.23;567.888;2.36
1671;2083.14;563.738;2.36
1672;2045.9;569.842;2.36
1673;2018.74;587.42;2.36
1674;2041.02;569.842;2.36
1675;2060.86;571.795;2.36
1676;2068.18;550.066;2.37
1677;2060.86;585.467;2.37
1678;2031.25;581.561;2.37
1679;1984.26;544.206;2.37
1680;1989.14;591.571;2.37
1681;2038.58;585.467;2.37
1682;2058.42;579.608;2.37
1683;2068.18;569.842;2.37
1684;2065.74;567.888;2.37
1685;2036.14;579.608;2.37
1686;2013.86;587.42;2.37
1687;2041.02;585.467;2.37
1688;2085.58;557.878;2.37
1689;2102.67;591.571;2.38
1690;2107.86;587.42;2.38
1691;2088.02;546.159;2.38
1692;2051.09;573.748;2.38
1693;2026.37;581.561;2.38
1694;2051.09;583.514;2.38
1695;2068.18;567.888;2.38
1696;2073.06;555.925;2.38
1697;2063.3;571.795;2.38
1698;2031.25;589.618;2.38
