<WeldAnalyseData xmlns:i="http:www.w3.org/2001/XMLSchema-instance">
<WeldParameter>
<TimeStamp>DT#2024-01-25-15:26:12</TimeStamp>
<Generator>SG-22-10000</Generator>
<GenFreq>20</GenFreq>
<MaxForce>8000</MaxForce>
<MaxPower>10000</MaxPower>
<RunupPressure>1.5</RunupPressure>
<RunupDist>10</RunupDist>
<RunPress>0.8</RunPress>
<ShakeDelay>0.03</ShakeDelay>
<ShakeTime>0.3</ShakeTime>
<RunBackPress1>6</RunBackPress1>
<RunBackPress2>2</RunBackPress2>
<RunBackDist>1</RunBackDist>
<TrigValue>500</TrigValue>
<TrigModeUnit>W</TrigModeUnit>
<WeldModeUnit>Ws</WeldModeUnit>
<PressNr>0</PressNr>
<MaxLoss>1500</MaxLoss>
</WeldParameter>
<WeldSets>
<WeldSet>
<PressRiseTime>0</PressRiseTime>
<RunPressure>1</RunPressure>
<Amplitude>86</Amplitude>
<WeldMode>3270</WeldMode>
</WeldSet>
</WeldSets>
<WeldValue>
<WeldNr>3043</WeldNr>
<RecipeName>RickStyle</RecipeName>
<WeldTime>1689</WeldTime>
<DistDiff>2.49001</DistDiff>
<DistAbs>78.05</DistAbs>
<Energy>3270.92</Energy>
<MaxPower>2153.48</MaxPower>
<CycleTime>6080</CycleTime>
<TrigForce>500.748</TrigForce>
<TrigDist>75.56</TrigDist>
<RunSpeed>67.2841</RunSpeed>
<MaxForce>623.066</MaxForce>
<LossPower>322.79</LossPower>
</WeldValue>
</WeldAnalyseData>
#CSV-START#
ms;Power[W];Force[N];Distance[mm]
1;0;0;0
2;0;500.748;0
3;0;502.701;0.0100021
4;0;502.701;0.0100021
5;0;502.701;0.0100021
6;0;506.607;0.0100021
7;0;502.701;0.0100021
8;0;486.831;0.0100021
9;0;427.503;0.0200043
10;0;405.774;0.0400009
11;0;374.279;0.0699997
12;20.2376;352.55;0.100006
13;77.002;330.821;0.139999
14;153.603;307.138;0.18
15;225.322;303.232;0.220001
16;284.528;285.409;0.270004
17;331.526;263.68;0.32
18;393.174;271.737;0.370003
19;467.029;275.643;0.420006
20;536.306;273.69;0.470001
21;600.394;273.69;0.520004
22;664.789;289.315;0.560005
23;731.319;295.419;0.600006
24;792.966;319.102;0.630005
25;874.451;307.138;0.660004
26;951.052;319.102;0.68
27;1013;356.456;0.700005
28;1074.65;336.68;0.720001
29;1114.02;350.597;0.740005
30;1136.3;368.419;0.75
31;1165.9;388.195;0.760002
32;1215.34;380.139;0.760002
33;1252.27;392.102;0.770004
34;1281.87;376.232;0.770004
35;1306.59;411.878;0.779999
36;1314.22;405.774;0.779999
37;1311.48;380.139;0.790001
38;1343.83;427.503;0.790001
39;1392.96;417.737;0.800003
40;1427.75;421.644;0.810005
41;1454.91;405.774;0.810005
42;1474.44;429.456;0.82
43;1477.19;421.644;0.82
44;1484.52;445.326;0.830002
45;1531.51;417.737;0.830002
46;1578.21;413.831;0.840004
47;1607.81;447.279;0.850006
48;1634.97;413.831;0.860001
49;1642.6;411.878;0.860001
50;1634.97;419.691;0.870003
51;1632.53;433.607;0.880005
52;1672.2;419.691;0.889999
53;1704.25;427.503;0.900002
54;1728.97;407.971;0.900002
55;1738.73;439.467;0.910004
56;1724.09;439.467;0.920006
57;1704.25;409.925;0.93
58;1728.97;451.186;0.940002
59;1778.41;453.383;0.950005
60;1810.45;451.186;0.950005
61;1829.99;433.607;0.959999
62;1835.17;459.243;0.970001
63;1825.1;451.186;0.970001
64;1817.78;477.065;0.980003
65;1864.78;445.326;0.990005
66;1909.03;455.336;0.990005
67;1938.63;494.644;1
68;1953.58;447.279;1
69;1943.82;459.243;1.01
70;1916.66;461.196;1.01
71;1906.59;480.972;1.02
72;1938.63;459.243;1.02
73;1963.35;472.915;1.02
74;1975.86;449.232;1.03
75;1978.31;494.644;1.03
76;1948.7;490.738;1.04
77;1916.66;459.243;1.04
78;1933.75;472.915;1.05
79;1983.19;508.56;1.05
80;2007.91;482.925;1.06001
81;2025.3;475.112;1.06001
82;2020.12;477.065;1.06001
83;1995.7;488.784;1.07
84;1983.19;508.56;1.07
85;2027.75;494.644;1.08
86;2067.11;479.019;1.08
87;2091.83;514.42;1.08
88;2101.6;494.644;1.09
89;2079.63;475.112;1.09
90;2044.84;494.644;1.09
91;2030.19;506.607;1.10001
92;2059.79;504.654;1.10001
93;2079.63;494.644;1.11
94;2089.39;477.065;1.11
95;2079.63;504.654;1.11
96;2044.84;512.467;1.11
97;2007.91;477.065;1.12
98;2022.86;508.56;1.12
99;2067.11;526.383;1.12
100;2089.39;508.56;1.13
101;2096.72;498.795;1.13
102;2091.83;508.56;1.13
103;2062.23;510.514;1.14
104;2039.95;532.243;1.14
105;2079.63;504.654;1.14
106;2119;500.748;1.15
107;2138.83;542.009;1.15
108;2141.27;500.748;1.15
109;2119;496.597;1.16
110;2074.44;506.607;1.16
111;2057.35;522.477;1.16
112;2084.51;506.607;1.17001
113;2099.16;506.607;1.17001
114;2106.79;486.831;1.17001
115;2091.83;520.524;1.18
116;2052.47;520.524;1.18
117;2012.79;480.972;1.18
118;2025.3;526.383;1.18
119;2067.11;526.383;1.19
120;2089.39;522.477;1.19
121;2094.28;508.56;1.19
122;2084.51;528.336;1.2
123;2057.35;520.524;1.2
124;2050.02;544.206;1.2
125;2091.83;510.514;1.2
126;2136.39;512.467;1.21
127;2153.48;553.972;1.21
128;2148.6;504.654;1.21
129;2121.44;512.467;1.21
130;2077.19;516.373;1.22
131;2057.35;532.243;1.22
132;2082.07;508.56;1.22
133;2094.28;520.524;1.22
134;2099.16;496.597;1.23
135;2082.07;540.056;1.23
136;2042.39;526.383;1.23
137;2000.58;506.607;1.24001
138;2010.35;514.42;1.24001
139;2050.02;552.019;1.24001
140;2067.11;524.43;1.24001
141;2074.44;518.326;1.25
142;2059.79;520.524;1.25
143;2027.75;530.29;1.25
144;2005.47;542.009;1.25
145;2044.84;532.243;1.26
146;2079.63;512.467;1.26
147;2096.72;546.159;1.26
148;2096.72;528.336;1.26
149;2069.56;504.654;1.27
150;2032.63;526.383;1.27
151;2015.23;536.149;1.27
152;2039.95;534.196;1.27
153;2054.91;524.43;1.27
154;2057.35;506.607;1.28
155;2044.84;532.243;1.28
156;2005.47;542.009;1.28
157;1965.79;508.56;1.28
158;1978.31;530.29;1.28
159;2020.12;553.972;1.29
160;2037.51;534.196;1.29
161;2044.84;522.477;1.29
162;2032.63;528.336;1.29
163;2000.58;534.196;1.29
164;1980.75;553.972;1.3
165;2020.12;530.29;1.3
166;2054.91;524.43;1.3
167;2072;561.785;1.3
168;2074.44;530.29;1.3
169;2047.28;518.326;1.31001
170;2010.35;530.29;1.31001
171;1992.95;548.112;1.31001
172;2020.12;536.149;1.31001
173;2032.63;530.29;1.31001
174;2037.51;510.514;1.31001
175;2022.86;546.159;1.32
176;1983.19;546.159;1.32
177;1948.7;510.514;1.32
178;1958.47;548.112;1.32
179;1998.14;553.972;1.32
180;2012.79;546.159;1.32
181;2020.12;530.29;1.33
182;2010.35;546.159;1.33
183;1978.31;542.009;1.33
184;1960.91;565.935;1.33
185;2003.03;534.196;1.33
186;2037.51;534.196;1.33
187;2052.47;573.748;1.34
188;2057.35;530.29;1.34
189;2030.19;528.336;1.34
190;1992.95;534.196;1.34
191;1978.31;552.019;1.34
192;2000.58;530.29;1.34
193;2017.67;540.056;1.34
194;2020.12;516.373;1.35001
195;2005.47;557.878;1.35001
196;1965.79;548.112;1.35001
197;1928.86;512.467;1.35001
198;1943.82;546.159;1.35001
199;1980.75;561.785;1.35001
200;1998.14;548.112;1.36
201;2003.03;532.243;1.36
202;1990.51;546.159;1.36
203;1965.79;548.112;1.36
204;1941.38;567.888;1.36
205;1973.42;542.009;1.36
206;2010.35;538.102;1.36
207;2030.19;575.701;1.37
208;2035.07;540.056;1.37
209;2012.79;532.243;1.37
210;1978.31;542.009;1.37
211;1953.58;555.925;1.37
212;1975.86;546.159;1.37
213;1990.51;542.009;1.38
214;1995.7;522.477;1.38
215;1988.07;557.878;1.38
216;1953.58;553.972;1.38
217;1911.47;520.524;1.38
218;1914.22;559.832;1.38
219;1953.58;561.785;1.38
220;1973.42;553.972;1.39
221;1983.19;538.102;1.39
222;1978.31;561.785;1.39
223;1948.7;550.066;1.39
224;1926.42;573.748;1.39
225;1958.47;540.056;1.39
226;1998.14;546.159;1.39
227;2015.23;581.561;1.4
228;2022.86;534.196;1.4
229;2003.03;522.477;1.4
230;1965.79;552.019;1.4
231;1946.26;555.925;1.4
232;1970.98;559.832;1.4
233;1985.63;546.159;1.4
234;1995.7;534.196;1.4
235;1985.63;548.112;1.41
236;1951.14;567.888;1.41
237;1911.47;536.149;1.41
238;1911.47;546.159;1.41
239;1953.58;579.608;1.41
240;1970.98;552.019;1.41
241;1980.75;546.159;1.41
242;1970.98;550.066;1.42001
243;1943.82;557.878;1.42001
244;1919.1;573.748;1.42001
245;1951.14;557.878;1.42001
246;1990.51;538.102;1.42001
247;2005.47;573.748;1.42001
248;2010.35;555.925;1.42001
249;1992.95;536.149;1.42001
250;1953.58;550.066;1.43
251;1933.75;563.738;1.43
252;1956.03;561.785;1.43
253;1970.98;553.972;1.43
254;1973.42;536.149;1.43
255;1970.98;557.878;1.43
256;1933.75;567.888;1.43
257;1896.82;536.149;1.44
258;1904.15;555.925;1.44
259;1938.63;577.654;1.44
260;1956.03;559.832;1.44
261;1965.79;546.159;1.44
262;1956.03;552.019;1.44
263;1931.31;559.832;1.44
264;1909.03;579.608;1.44
265;1938.63;555.925;1.45
266;1978.31;550.066;1.45
267;1995.7;585.467;1.45
268;2000.58;553.972;1.45
269;1980.75;544.206;1.45
270;1943.82;553.972;1.45
271;1923.98;569.842;1.45
272;1946.26;557.878;1.45
273;1960.91;557.878;1.46
274;1968.54;538.102;1.46
275;1958.47;569.842;1.46
276;1926.42;567.888;1.46
277;1887.05;534.196;1.46
278;1894.38;571.795;1.46
279;1931.31;575.701;1.46
280;1948.7;569.842;1.46
281;1960.91;552.019;1.46
282;1951.14;569.842;1.47
283;1923.98;563.738;1.47
284;1904.15;589.618;1.47
285;1938.63;555.925;1.47
286;1973.42;557.878;1.47
287;1988.07;597.43;1.47
288;1995.7;552.019;1.47
289;1975.86;555.925;1.47
290;1938.63;557.878;1.48
291;1919.1;569.842;1.48
292;1943.82;575.701;1.48
293;1958.47;559.832;1.48
294;1963.35;550.066;1.48
295;1956.03;561.785;1.48
296;1919.1;583.514;1.48
297;1884.31;553.972;1.48
298;1891.94;559.832;1.49001
299;1928.86;597.43;1.49001
300;1946.26;569.842;1.49001
301;1951.14;561.785;1.49001
302;1946.26;561.785;1.49001
303;1916.66;573.748;1.49001
304;1896.82;587.42;1.49001
305;1931.31;575.701;1.49001
306;1965.79;555.925;1.5
307;1983.19;587.42;1.5
308;1990.51;577.654;1.5
309;1965.79;546.159;1.5
310;1933.75;569.842;1.5
311;1911.47;575.701;1.5
312;1938.63;577.654;1.5
313;1953.58;565.935;1.5
314;1953.58;553.972;1.5
315;1948.7;571.795;1.51
316;1911.47;583.514;1.51
317;1874.54;552.019;1.51
318;1884.31;571.795;1.51
319;1921.54;597.43;1.51
320;1938.63;571.795;1.51
321;1946.26;563.738;1.51
322;1938.63;569.842;1.51
323;1911.47;575.701;1.51
324;1894.38;595.477;1.52
325;1926.42;573.748;1.52
326;1960.91;565.935;1.52
327;1978.31;601.337;1.52
328;1980.75;573.748;1.52
329;1963.35;559.832;1.52
330;1928.86;573.748;1.52
331;1909.03;585.467;1.52
332;1933.75;579.608;1.52
333;1946.26;571.795;1.53
334;1953.58;552.019;1.53
335;1943.82;583.514;1.53
336;1909.03;587.42;1.53
337;1872.1;552.019;1.53
338;1884.31;583.514;1.53
339;1921.54;595.477;1.53
340;1936.19;581.561;1.53
341;1946.26;567.888;1.53
342;1938.63;583.514;1.54
343;1909.03;579.608;1.54
344;1891.94;601.337;1.54
345;1926.42;571.795;1.54
346;1958.47;571.795;1.54
347;1973.42;607.196;1.54
348;1980.75;567.888;1.54
349;1958.47;565.935;1.54
350;1919.1;571.795;1.54
351;1906.59;591.571;1.55
352;1931.31;585.467;1.55
353;1946.26;573.748;1.55
354;1948.7;555.925;1.55
355;1936.19;581.561;1.55
356;1909.03;591.571;1.55
357;1872.1;555.925;1.55
358;1879.43;577.654;1.55
359;1919.1;599.384;1.55
360;1936.19;581.561;1.55
361;1943.82;569.842;1.56001
362;1933.75;577.654;1.56001
363;1906.59;581.561;1.56001
364;1889.5;601.337;1.56001
365;1923.98;577.654;1.56001
366;1956.03;571.795;1.56001
367;1973.42;605.243;1.56001
368;1980.75;571.795;1.56001
369;1956.03;563.738;1.56001
370;1933.75;577.654;1.56001
371;1904.15;589.618;1.57
372;1919.1;579.608;1.57
373;1941.38;575.701;1.57
374;1946.26;555.925;1.57
375;1941.38;587.42;1.57
376;1919.1;587.42;1.57
377;1879.43;552.019;1.57
378;1867.22;587.42;1.57
379;1906.59;593.524;1.57
380;1928.86;585.467;1.57
381;1938.63;567.888;1.58
382;1938.63;587.42;1.58
383;1916.66;583.514;1.58
384;1889.5;591.571;1.58
385;1901.7;593.524;1.58
386;1946.26;559.832;1.58
387;1965.79;591.571;1.58
388;1975.86;595.477;1.58
389;1965.79;553.972;1.58
390;1931.31;579.608;1.58
391;1901.7;583.514;1.59
392;1916.66;587.42;1.59
393;1941.38;577.654;1.59
394;1941.38;565.935;1.59
395;1943.82;573.748;1.59
396;1914.22;595.477;1.59
397;1876.98;565.935;1.59
398;1867.22;571.795;1.59
399;1904.15;611.347;1.59
400;1926.42;581.561;1.59
401;1938.63;571.795;1.60001
402;1938.63;573.748;1.60001
403;1914.22;583.514;1.60001
404;1889.5;597.43;1.60001
405;1906.59;585.467;1.60001
406;1948.7;567.888;1.60001
407;1965.79;599.384;1.60001
408;1978.31;587.42;1.60001
409;1965.79;555.925;1.60001
410;1933.75;579.608;1.60001
411;1906.59;589.618;1.60001
412;1919.1;589.618;1.61
413;1938.63;575.701;1.61
414;1943.82;561.785;1.61
415;1943.82;581.561;1.61
416;1914.22;595.477;1.61
417;1876.98;561.785;1.61
418;1864.78;579.608;1.61
419;1901.7;603.29;1.61
420;1921.54;581.561;1.61
421;1933.75;573.748;1.61
422;1933.75;577.654;1.61
423;1909.03;583.514;1.62
424;1884.31;601.337;1.62
425;1901.7;581.561;1.62
426;1946.26;571.795;1.62
427;1965.79;607.196;1.62
428;1975.86;579.608;1.62
429;1963.35;563.738;1.62
430;1931.31;575.701;1.62
431;1904.15;589.618;1.62
432;1916.66;583.514;1.62
433;1938.63;577.654;1.62
434;1943.82;557.878;1.62
435;1941.38;589.618;1.63
436;1914.22;589.618;1.63
437;1876.98;555.925;1.63
438;1862.33;585.467;1.63
439;1901.7;595.477;1.63
440;1923.98;585.467;1.63
441;1933.75;571.795;1.63
442;1936.19;585.467;1.63
443;1911.47;583.514;1.63
444;1887.05;607.196;1.63
445;1904.15;595.477;1.63
446;1948.7;561.785;1.63
447;1968.54;589.618;1.64
448;1978.31;597.43;1.64
449;1965.79;552.019;1.64
450;1933.75;579.608;1.64
451;1906.59;585.467;1.64
452;1919.1;591.571;1.64
453;1938.63;575.701;1.64
454;1943.82;567.888;1.64
455;1941.38;575.701;1.64
456;1914.22;601.337;1.64
457;1876.98;573.748;1.64
458;1864.78;565.935;1.64
459;1909.03;615.253;1.65
460;1926.42;581.561;1.65
461;1936.19;575.701;1.65
462;1938.63;575.701;1.65
463;1919.1;585.467;1.65
464;1889.5;595.477;1.65
465;1909.03;593.524;1.65
466;1948.7;567.888;1.65
467;1970.98;599.384;1.65
468;1980.75;591.571;1.65
469;1968.54;555.925;1.65
470;1933.75;579.608;1.65
471;1906.59;587.42;1.66
472;1923.98;587.42;1.66
473;1941.38;579.608;1.66
474;1948.7;565.935;1.66
475;1946.26;583.514;1.66
476;1916.66;595.477;1.66
477;1876.98;561.785;1.66
478;1867.22;577.654;1.66
479;1909.03;605.243;1.66
480;1931.31;581.561;1.66
481;1941.38;573.748;1.66
482;1941.38;575.701;1.66
483;1916.66;583.514;1.66
484;1891.94;601.337;1.67001
485;1909.03;583.514;1.67001
486;1951.14;571.795;1.67001
487;1973.42;603.29;1.67001
488;1978.31;583.514;1.67001
489;1970.98;563.738;1.67001
490;1936.19;579.608;1.67001
491;1909.03;589.618;1.67001
492;1923.98;585.467;1.67001
493;1943.82;579.608;1.67001
494;1948.7;559.832;1.67001
495;1946.26;585.467;1.67001
496;1916.66;591.571;1.67001
497;1876.98;553.972;1.68
498;1869.66;585.467;1.68
499;1911.47;601.337;1.68
500;1931.31;585.467;1.68
501;1941.38;571.795;1.68
502;1941.38;583.514;1.68
503;1916.66;585.467;1.68
504;1891.94;607.196;1.68
505;1911.47;579.608;1.68
506;1958.47;573.748;1.68
507;1975.86;601.337;1.68
508;1985.63;589.618;1.68
509;1970.98;559.832;1.68
510;1938.63;581.561;1.69
511;1911.47;589.618;1.69
512;1928.86;591.571;1.69
513;1948.7;577.654;1.69
514;1951.14;563.738;1.69
515;1948.7;583.514;1.69
516;1921.54;597.43;1.69
517;1879.43;559.832;1.69
518;1874.54;581.561;1.69
519;1914.22;605.243;1.69
520;1933.75;583.514;1.69
521;1943.82;573.748;1.69
522;1941.38;577.654;1.69
523;1919.1;585.467;1.69
524;1894.38;605.243;1.7
525;1916.66;583.514;1.7
526;1956.03;573.748;1.7
527;1975.86;609.149;1.7
528;1988.07;581.561;1.7
529;1973.42;565.935;1.7
530;1938.63;579.608;1.7
531;1909.03;593.524;1.7
532;1928.86;587.42;1.7
533;1948.7;579.608;1.7
534;1953.58;559.832;1.7
535;1948.7;589.618;1.7
536;1921.54;591.571;1.7
537;1881.87;579.608;1.71
538;1876.98;565.935;1.71
539;1914.22;619.16;1.71
540;1936.19;585.467;1.71
541;1946.26;579.608;1.71
542;1943.82;575.701;1.71
543;1921.54;589.618;1.71
544;1894.38;593.524;1.71
545;1919.1;599.384;1.71
546;1958.47;561.785;1.71
547;1978.31;589.618;1.71
548;1988.07;601.337;1.71
549;1975.86;553.972;1.71
550;1941.38;583.514;1.72
551;1914.22;585.467;1.72
552;1931.31;589.618;1.72
553;1948.7;577.654;1.72
554;1956.03;569.842;1.72
555;1951.14;577.654;1.72
556;1921.54;601.337;1.72
557;1881.87;571.795;1.72
558;1876.98;569.842;1.72
559;1916.66;615.253;1.72
560;1938.63;583.514;1.72
561;1946.26;577.654;1.72
562;1943.82;577.654;1.72
563;1919.1;587.42;1.72
564;1894.38;599.384;1.73
565;1919.1;591.571;1.73
566;1960.91;569.842;1.73
567;1980.75;599.384;1.73
568;1988.07;591.571;1.73
569;1973.42;557.878;1.73
570;1938.63;581.561;1.73
571;1914.22;591.571;1.73
572;1931.31;589.618;1.73
573;1948.7;579.608;1.73
574;1956.03;565.935;1.73
575;1953.58;581.561;1.73
576;1919.1;597.43;1.73
577;1881.87;565.935;1.73
578;1879.43;579.608;1.74001
579;1919.1;609.149;1.74001
580;1936.19;583.514;1.74001
581;1946.26;573.748;1.74001
582;1943.82;577.654;1.74001
583;1921.54;585.467;1.74001
584;1899.26;603.29;1.74001
585;1921.54;585.467;1.74001
586;1963.35;569.842;1.74001
587;1978.31;605.243;1.74001
588;1990.51;585.467;1.74001
589;1973.42;565.935;1.74001
590;1938.63;579.608;1.74001
591;1911.47;591.571;1.75
592;1933.75;585.467;1.75
593;1951.14;579.608;1.75
594;1956.03;559.832;1.75
595;1953.58;587.42;1.75
596;1923.98;593.524;1.75
597;1881.87;559.832;1.75
598;1881.87;587.42;1.75
599;1919.1;623.066;1.75
600;1936.19;585.467;1.75
601;1948.7;579.608;1.75
602;1946.26;573.748;1.75
603;1921.54;587.42;1.75
604;1896.82;587.42;1.75
605;1921.54;595.477;1.76
606;1963.35;561.785;1.76
607;1983.19;587.42;1.76
608;1990.51;601.337;1.76
609;1975.86;548.112;1.76
610;1941.38;581.561;1.76
611;1916.66;583.514;1.76
612;1936.19;591.571;1.76
613;1953.58;575.701;1.76
614;1958.47;569.842;1.76
615;1951.14;571.795;1.76
616;1921.54;601.337;1.76
617;1884.31;575.701;1.76
618;1881.87;567.888;1.76
619;1921.54;615.253;1.77
620;1941.38;583.514;1.77
621;1951.14;577.654;1.77
622;1946.26;573.748;1.77
623;1921.54;585.467;1.77
624;1896.82;593.524;1.77
625;1921.54;591.571;1.77
626;1965.79;563.738;1.77
627;1983.19;597.43;1.77
628;1990.51;593.524;1.77
629;1973.42;553.972;1.77
630;1938.63;579.608;1.77
631;1911.47;585.467;1.77
632;1933.75;587.42;1.77
633;1951.14;575.701;1.78
634;1953.58;563.738;1.78
635;1953.58;577.654;1.78
636;1921.54;595.477;1.78
637;1881.87;565.935;1.78
638;1881.87;573.748;1.78
639;1921.54;609.149;1.78
640;1938.63;581.561;1.78
641;1948.7;571.795;1.78
642;1943.82;573.748;1.78
643;1919.1;583.514;1.78
644;1894.38;597.43;1.78
645;1923.98;583.514;1.78
646;1963.35;567.888;1.78
647;1980.75;601.337;1.79
648;1990.51;583.514;1.79
649;1975.86;561.785;1.79
650;1938.63;579.608;1.79
651;1914.22;589.618;1.79
652;1936.19;587.42;1.79
653;1953.58;577.654;1.79
654;1958.47;557.878;1.79
655;1953.58;583.514;1.79
656;1923.98;591.571;1.79
657;1884.31;555.925;1.79
658;1879.43;581.561;1.79
659;1921.54;601.337;1.79
660;1938.63;583.514;1.79
661;1948.7;573.748;1.79
662;1948.7;573.748;1.8
663;1923.98;581.561;1.8
664;1896.82;593.524;1.8
665;1926.42;587.42;1.8
666;1965.79;563.738;1.8
667;1983.19;595.477;1.8
668;1990.51;589.618;1.8
669;1975.86;555.925;1.8
670;1938.63;577.654;1.8
671;1916.66;585.467;1.8
672;1936.19;587.42;1.8
673;1951.14;573.748;1.8
674;1958.47;559.832;1.8
675;1951.14;577.654;1.8
676;1921.54;593.524;1.8
677;1881.87;561.785;1.81001
678;1884.31;573.748;1.81001
679;1923.98;605.243;1.81001
680;1941.38;579.608;1.81001
681;1951.14;569.842;1.81001
682;1946.26;573.748;1.81001
683;1919.1;579.608;1.81001
684;1899.26;599.384;1.81001
685;1923.98;581.561;1.81001
686;1963.35;567.888;1.81001
687;1980.75;601.337;1.81001
688;1988.07;577.654;1.81001
689;1973.42;561.785;1.81001
690;1936.19;575.701;1.81001
691;1914.22;585.467;1.82
692;1936.19;589.618;1.82
693;1948.7;569.842;1.82
694;1956.03;573.748;1.82
695;1951.14;565.935;1.82
696;1919.1;603.29;1.82
697;1881.87;577.654;1.82
698;1881.87;557.878;1.82
699;1921.54;617.206;1.82
700;1938.63;577.654;1.82
701;1948.7;577.654;1.82
702;1943.82;571.795;1.82
703;1919.1;583.514;1.82
704;1896.82;585.467;1.82
705;1923.98;593.524;1.82
706;1951.14;555.925;1.82
707;1973.42;585.467;1.83
708;1985.63;595.477;1.83
709;1980.75;546.159;1.83
710;1951.14;577.654;1.83
711;1919.1;581.561;1.83
712;1923.98;587.42;1.83
713;1948.7;573.748;1.83
714;1953.58;567.888;1.83
715;1956.03;567.888;1.83
716;1933.75;597.43;1.83
717;1891.94;571.795;1.83
718;1872.1;565.935;1.83
719;1909.03;611.347;1.83
720;1931.31;575.701;1.83
721;1943.82;573.748;1.83
722;1946.26;571.795;1.84
723;1926.42;581.561;1.84
724;1899.26;591.571;1.84
725;1906.59;589.618;1.84
726;1951.14;563.738;1.84
727;1973.42;591.571;1.84
728;1988.07;587.42;1.84
729;1980.75;552.019;1.84
730;1948.7;579.608;1.84
731;1914.22;581.561;1.84
732;1923.98;585.467;1.84
733;1948.7;571.795;1.84
734;1953.58;561.785;1.84
735;1953.58;575.701;1.84
736;1931.31;593.524;1.84
737;1894.38;561.785;1.85001
738;1872.1;569.842;1.85001
739;1909.03;603.29;1.85001
740;1931.31;577.654;1.85001
741;1943.82;569.842;1.85001
742;1946.26;571.795;1.85001
743;1926.42;581.561;1.85001
744;1899.26;597.43;1.85001
745;1904.15;583.514;1.85001
746;1951.14;565.935;1.85001
747;1973.42;597.43;1.85001
748;1988.07;581.561;1.85001
749;1980.75;555.925;1.85001
750;1948.7;577.654;1.85001
751;1916.66;585.467;1.85001
752;1926.42;585.467;1.86
753;1948.7;569.842;1.86
754;1953.58;571.795;1.86
755;1953.58;561.785;1.86
756;1931.31;601.337;1.86
757;1894.38;577.654;1.86
758;1872.1;553.972;1.86
759;1909.03;615.253;1.86
760;1931.31;577.654;1.86
761;1943.82;577.654;1.86
762;1946.26;569.842;1.86
763;1926.42;583.514;1.86
764;1899.26;583.514;1.86
765;1904.15;595.477;1.86
766;1948.7;552.019;1.86
767;1975.86;581.561;1.86
768;1983.19;597.43;1.87
769;1975.86;544.206;1.87
770;1946.26;575.701;1.87
771;1914.22;575.701;1.87
772;1923.98;585.467;1.87
773;1946.26;571.795;1.87
774;1953.58;567.888;1.87
775;1953.58;567.888;1.87
776;1931.31;599.384;1.87
777;1891.94;571.795;1.87
778;1874.54;559.832;1.87
779;1906.59;613.3;1.87
780;1933.75;575.701;1.87
781;1943.82;571.795;1.87
782;1948.7;571.795;1.87
783;1928.86;581.561;1.88
784;1899.26;587.42;1.88
785;1906.59;589.618;1.88
786;1953.58;557.878;1.88
787;1973.42;587.42;1.88
788;1985.63;589.618;1.88
789;1978.31;548.112;1.88
790;1948.7;575.701;1.88
791;1916.66;579.608;1.88
792;1926.42;581.561;1.88
793;1946.26;571.795;1.88
794;1953.58;559.832;1.88
795;1953.58;571.795;1.88
796;1931.31;593.524;1.88
797;1891.94;561.785;1.88
798;1874.54;567.888;1.89
799;1909.03;603.29;1.89
800;1936.19;577.654;1.89
801;1946.26;569.842;1.89
802;1948.7;569.842;1.89
803;1928.86;575.701;1.89
804;1899.26;593.524;1.89
805;1909.03;579.608;1.89
806;1956.03;561.785;1.89
807;1970.98;593.524;1.89
808;1988.07;581.561;1.89
809;1978.31;552.019;1.89
810;1946.26;573.748;1.89
811;1916.66;583.514;1.89
812;1926.42;585.467;1.89
813;1948.7;571.795;1.9
814;1953.58;555.925;1.9
815;1953.58;567.888;1.9
816;1928.86;595.477;1.9
817;1891.94;565.935;1.9
818;1874.54;561.785;1.9
819;1909.03;609.149;1.9
820;1936.19;573.748;1.9
821;1946.26;569.842;1.9
822;1946.26;567.888;1.9
823;1928.86;581.561;1.9
824;1899.26;591.571;1.9
825;1909.03;585.467;1.9
826;1956.03;559.832;1.9
827;1975.86;587.42;1.9
828;1985.63;585.467;1.91
829;1978.31;550.066;1.91
830;1948.7;573.748;1.91
831;1911.47;581.561;1.91
832;1926.42;583.514;1.91
833;1948.7;571.795;1.91
834;1953.58;559.832;1.91
835;1953.58;571.795;1.91
836;1931.31;589.618;1.91
837;1891.94;557.878;1.91
838;1874.54;569.842;1.91
839;1914.22;603.29;1.91
840;1938.63;575.701;1.91
841;1948.7;567.888;1.91
842;1951.14;567.888;1.91
843;1928.86;579.608;1.92001
844;1901.7;593.524;1.92001
845;1911.47;577.654;1.92001
846;1956.03;550.066;1.92001
847;1975.86;575.701;1.92001
848;1988.07;599.384;1.92001
849;1978.31;538.102;1.92001
850;1946.26;573.748;1.92001
851;1914.22;573.748;1.92001
852;1926.42;585.467;1.92001
853;1951.14;565.935;1.92001
854;1956.03;569.842;1.92001
855;1956.03;559.832;1.92001
856;1933.75;603.29;1.92001
857;1891.94;573.748;1.92001
858;1876.98;552.019;1.92001
859;1914.22;613.3;1.93
860;1938.63;575.701;1.93
861;1946.26;575.701;1.93
862;1951.14;565.935;1.93
863;1926.42;583.514;1.93
864;1901.7;579.608;1.93
865;1914.22;591.571;1.93
866;1956.03;553.972;1.93
867;1978.31;577.654;1.93
868;1990.51;593.524;1.93
869;1978.31;542.009;1.93
870;1946.26;573.748;1.93
871;1911.47;575.701;1.93
872;1926.42;583.514;1.93
873;1946.26;567.888;1.93
874;1958.47;563.738;1.94
875;1956.03;563.738;1.94
876;1931.31;593.524;1.94
877;1891.94;567.888;1.94
878;1876.98;557.878;1.94
879;1916.66;609.149;1.94
880;1936.19;573.748;1.94
881;1948.7;571.795;1.94
882;1948.7;567.888;1.94
883;1926.42;579.608;1.94
884;1899.26;583.514;1.94
885;1911.47;585.467;1.94
886;1958.47;557.878;1.94
887;1975.86;583.514;1.94
888;1990.51;585.467;1.94
889;1980.75;548.112;1.95
890;1946.26;573.748;1.95
891;1914.22;577.654;1.95
892;1928.86;579.608;1.95
893;1953.58;567.888;1.95
894;1956.03;557.878;1.95
895;1956.03;567.888;1.95
896;1928.86;589.618;1.95
897;1891.94;559.832;1.95
898;1876.98;565.935;1.95
899;1916.66;605.243;1.95
900;1938.63;573.748;1.95
901;1951.14;565.935;1.95
902;1948.7;567.888;1.95
903;1926.42;579.608;1.95
904;1899.26;591.571;1.95
905;1914.22;579.608;1.96
906;1958.47;559.832;1.96
907;1980.75;573.748;1.96
908;1992.95;599.384;1.96
909;1980.75;540.056;1.96
910;1948.7;573.748;1.96
911;1921.54;569.842;1.96
912;1933.75;585.467;1.96
913;1956.03;565.935;1.96
914;1960.91;569.842;1.96
915;1956.03;557.878;1.96
916;1933.75;597.43;1.96
917;1891.94;575.701;1.96
918;1879.43;548.112;1.96
919;1914.22;615.253;1.96
920;1938.63;573.748;1.96
921;1948.7;573.748;1.97
922;1948.7;561.785;1.97
923;1928.86;579.608;1.97
924;1904.15;575.701;1.97
925;1916.66;591.571;1.97
926;1960.91;550.066;1.97
927;1980.75;577.654;1.97
928;1992.95;595.477;1.97
929;1980.75;542.009;1.97
930;1948.7;573.748;1.97
931;1919.1;573.748;1.97
932;1933.75;581.561;1.97
933;1956.03;565.935;1.97
934;1960.91;565.935;1.97
935;1956.03;559.832;1.97
936;1933.75;595.477;1.98
937;1894.38;569.842;1.98
938;1879.43;553.972;1.98
939;1919.1;609.149;1.98
940;1938.63;571.795;1.98
941;1951.14;569.842;1.98
942;1951.14;565.935;1.98
943;1928.86;579.608;1.98
944;1904.15;581.561;1.98
945;1916.66;585.467;1.98
946;1960.91;553.972;1.98
947;1983.19;583.514;1.98
948;1990.51;587.42;1.98
949;1980.75;540.056;1.98
950;1951.14;571.795;1.98
951;1919.1;575.701;1.98
952;1933.75;583.514;1.99001
953;1953.58;569.842;1.99001
954;1960.91;557.878;1.99001
955;1958.47;567.888;1.99001
956;1933.75;591.571;1.99001
957;1894.38;561.785;1.99001
958;1881.87;561.785;1.99001
959;1919.1;603.29;1.99001
960;1943.82;571.795;1.99001
961;1953.58;567.888;1.99001
962;1953.58;567.888;1.99001
963;1931.31;577.654;1.99001
964;1906.59;585.467;1.99001
965;1919.1;581.561;1.99001
966;1965.79;557.878;1.99001
967;1983.19;591.571;2
968;1992.95;581.561;2
969;1983.19;538.102;2
970;1951.14;571.795;2
971;1921.54;573.748;2
972;1938.63;579.608;2
973;1958.47;567.888;2
974;1963.35;561.785;2
975;1958.47;563.738;2
976;1936.19;593.524;2
977;1894.38;565.935;2
978;1884.31;555.925;2
979;1921.54;609.149;2
980;1943.82;569.842;2
981;1953.58;567.888;2
982;1951.14;567.888;2.01
983;1931.31;577.654;2.01
984;1906.59;583.514;2.01
985;1921.54;583.514;2.01
986;1963.35;553.972;2.01
987;1983.19;585.467;2.01
988;1995.7;585.467;2.01
989;1985.63;544.206;2.01
990;1951.14;571.795;2.01
991;1923.98;577.654;2.01
992;1941.38;581.561;2.01
993;1960.91;565.935;2.01
994;1965.79;553.972;2.01
995;1963.35;567.888;2.01
996;1933.75;587.42;2.01
997;1894.38;557.878;2.01
998;1887.05;563.738;2.02
999;1926.42;601.337;2.02
1000;1946.26;575.701;2.02
1001;1956.03;577.654;2.02
1002;1953.58;559.832;2.02
1003;1931.31;583.514;2.02
1004;1909.03;573.748;2.02
1005;1921.54;593.524;2.02
1006;1965.79;546.159;2.02
1007;1988.07;569.842;2.02
1008;1995.7;601.337;2.02
1009;1985.63;538.102;2.02
1010;1951.14;571.795;2.02
1011;1923.98;569.842;2.02
1012;1938.63;583.514;2.02
1013;1960.91;561.785;2.02
1014;1965.79;565.935;2.03
1015;1963.35;555.925;2.03
1016;1936.19;597.43;2.03
1017;1899.26;571.795;2.03
1018;1887.05;548.112;2.03
1019;1926.42;611.347;2.03
1020;1948.7;573.748;2.03
1021;1958.47;573.748;2.03
1022;1956.03;563.738;2.03
1023;1933.75;577.654;2.03
1024;1909.03;577.654;2.03
1025;1926.42;589.618;2.03
1026;1970.98;550.066;2.03
1027;1988.07;573.748;2.03
1028;1998.14;593.524;2.03
1029;1985.63;536.149;2.03
1030;1953.58;571.795;2.04
1031;1923.98;571.795;2.04
1032;1941.38;581.561;2.04
1033;1963.35;563.738;2.04
1034;1965.79;561.785;2.04
1035;1963.35;561.785;2.04
1036;1933.75;595.477;2.04
1037;1896.82;567.888;2.04
1038;1887.05;555.925;2.04
1039;1926.42;611.347;2.04
1040;1951.14;573.748;2.04
1041;1958.47;567.888;2.04
1042;1958.47;565.935;2.04
1043;1941.38;575.701;2.04
1044;1911.47;581.561;2.04
1045;1921.54;585.467;2.05
1046;1963.35;552.019;2.05
1047;1985.63;581.561;2.05
1048;1998.14;587.42;2.05
1049;1988.07;544.206;2.05
1050;1960.91;569.842;2.05
1051;1928.86;575.701;2.05
1052;1938.63;579.608;2.05
1053;1960.91;565.935;2.05
1054;1968.54;557.878;2.05
1055;1965.79;565.935;2.05
1056;1946.26;589.618;2.05
1057;1906.59;557.878;2.05
1058;1889.5;561.785;2.05
1059;1923.98;601.337;2.05
1060;1946.26;571.795;2.05
1061;1960.91;563.738;2.06001
1062;1960.91;561.785;2.06001
1063;1941.38;581.561;2.06001
1064;1914.22;571.795;2.06001
1065;1919.1;595.477;2.06001
1066;1968.54;548.112;2.06001
1067;1990.51;569.842;2.06001
1068;2003.03;601.337;2.06001
1069;1995.7;540.056;2.06001
1070;1963.35;569.842;2.06001
1071;1931.31;563.738;2.06001
1072;1943.82;583.514;2.06001
1073;1968.54;559.832;2.06001
1074;1973.42;569.842;2.06001
1075;1973.42;552.019;2.06001
1076;1948.7;595.477;2.06001
1077;1909.03;571.795;2.06001
1078;1889.5;542.009;2.07
1079;1928.86;607.196;2.07
1080;1951.14;571.795;2.07
1081;1963.35;571.795;2.07
1082;1965.79;561.785;2.07
1083;1943.82;579.608;2.07
1084;1914.22;573.748;2.07
1085;1928.86;591.571;2.07
1086;1973.42;544.206;2.07
1087;1992.95;573.748;2.07
1088;2005.47;597.43;2.07
1089;1998.14;536.149;2.07
1090;1963.35;569.842;2.07
1091;1931.31;569.842;2.07
1092;1943.82;581.561;2.07
1093;1963.35;563.738;2.07
1094;1975.86;563.738;2.07
1095;1970.98;555.925;2.08
1096;1946.26;595.477;2.08
1097;1909.03;569.842;2.08
1098;1889.5;552.019;2.08
1099;1926.42;611.347;2.08
1100;1951.14;571.795;2.08
1101;1960.91;569.842;2.08
1102;1963.35;561.785;2.08
1103;1941.38;577.654;2.08
1104;1914.22;579.608;2.08
1105;1923.98;585.467;2.08
1106;1973.42;550.066;2.08
1107;1992.95;579.608;2.08
1108;2005.47;589.618;2.08
1109;1998.14;538.102;2.08
1110;1963.35;569.842;2.08
1111;1931.31;573.748;2.08
1112;1946.26;579.608;2.09
1113;1968.54;565.935;2.09
1114;1975.86;559.832;2.09
1115;1973.42;561.785;2.09
1116;1951.14;589.618;2.09
1117;1909.03;561.785;2.09
1118;1894.38;557.878;2.09
1119;1931.31;605.243;2.09
1120;1956.03;571.795;2.09
1121;1965.79;563.738;2.09
1122;1968.54;563.738;2.09
1123;1946.26;573.748;2.09
1124;1919.1;575.701;2.09
1125;1928.86;589.618;2.09
1126;1978.31;548.112;2.09
1127;1998.14;575.701;2.09
1128;2012.79;593.524;2.09
1129;2003.03;534.196;2.10001
1130;1968.54;567.888;2.10001
1131;1938.63;569.842;2.10001
1132;1951.14;581.561;2.10001
1133;1973.42;561.785;2.10001
1134;1978.31;563.738;2.10001
1135;1978.31;557.878;2.10001
1136;1956.03;591.571;2.10001
1137;1914.22;565.935;2.10001
1138;1899.26;552.019;2.10001
1139;1938.63;609.149;2.10001
1140;1960.91;569.842;2.10001
1141;1970.98;565.935;2.10001
1142;1970.98;561.785;2.10001
1143;1951.14;575.701;2.10001
1144;1921.54;581.561;2.10001
1145;1933.75;585.467;2.11
1146;1980.75;552.019;2.11
1147;1998.14;581.561;2.11
1148;2010.35;585.467;2.11
1149;2003.03;538.102;2.11
1150;1968.54;569.842;2.11
1151;1938.63;575.701;2.11
1152;1951.14;581.561;2.11
1153;1970.98;563.738;2.11
1154;1975.86;569.842;2.11
1155;1978.31;548.112;2.11
1156;1951.14;597.43;2.11
1157;1911.47;573.748;2.11
1158;1896.82;538.102;2.11
1159;1936.19;601.337;2.11
1160;1958.47;577.654;2.11
1161;1970.98;575.701;2.11
1162;1970.98;561.785;2.12
1163;1948.7;581.561;2.12
1164;1921.54;569.842;2.12
1165;1933.75;595.477;2.12
1166;1983.19;544.206;2.12
1167;2003.03;569.842;2.12
1168;2012.79;599.384;2.12
1169;2000.58;538.102;2.12
1170;1970.98;569.842;2.12
1171;1938.63;567.888;2.12
1172;1953.58;579.608;2.12
1173;1978.31;559.832;2.12
1174;1983.19;567.888;2.12
1175;1980.75;552.019;2.12
1176;1956.03;599.384;2.12
1177;1916.66;571.795;2.12
1178;1904.15;544.206;2.13
1179;1943.82;609.149;2.13
1180;1965.79;571.795;2.13
1181;1975.86;571.795;2.13
1182;1975.86;559.832;2.13
1183;1953.58;579.608;2.13
1184;1928.86;573.748;2.13
1185;1941.38;587.42;2.13
1186;1985.63;544.206;2.13
1187;2007.91;573.748;2.13
1188;2017.67;593.524;2.13
1189;2007.91;532.243;2.13
1190;1973.42;567.888;2.13
1191;1943.82;569.842;2.13
1192;1960.91;581.561;2.13
1193;1985.63;561.785;2.13
1194;1990.51;561.785;2.14
1195;1985.63;557.878;2.14
1196;1960.91;593.524;2.14
1197;1921.54;567.888;2.14
1198;1906.59;548.112;2.14
1199;1946.26;611.347;2.14
1200;1970.98;569.842;2.14
1201;1980.75;567.888;2.14
1202;1978.31;565.935;2.14
1203;1958.47;577.654;2.14
1204;1931.31;579.608;2.14
1205;1946.26;585.467;2.14
1206;1988.07;552.019;2.14
1207;2010.35;577.654;2.14
1208;2020.12;585.467;2.14
1209;2010.35;538.102;2.14
1210;1973.42;569.842;2.15
1211;1946.26;573.748;2.15
1212;1963.35;579.608;2.15
1213;1978.31;563.738;2.15
1214;1985.63;557.878;2.15
1215;1988.07;561.785;2.15
1216;1973.42;597.43;2.15
1217;1933.75;575.701;2.15
1218;1904.15;538.102;2.15
1219;1928.86;597.43;2.15
1220;1960.91;575.701;2.15
1221;1975.86;577.654;2.15
1222;1980.75;557.878;2.15
1223;1968.54;583.514;2.15
1224;1938.63;569.842;2.15
1225;1931.31;595.477;2.15
1226;1975.86;546.159;2.16
1227;2005.47;569.842;2.16
1228;2017.67;599.384;2.16
1229;2020.12;542.009;2.16
1230;1992.95;565.935;2.16
1231;1956.03;565.935;2.16
1232;1951.14;581.561;2.16
1233;1978.31;557.878;2.16
1234;1988.07;567.888;2.16
1235;1990.51;550.066;2.16
1236;1975.86;597.43;2.16
1237;1938.63;571.795;2.16
1238;1906.59;542.009;2.16
1239;1933.75;607.196;2.16
1240;1968.54;571.795;2.16
1241;1980.75;573.748;2.17001
1242;1985.63;559.832;2.17001
1243;1970.98;579.608;2.17001
1244;1943.82;571.795;2.17001
1245;1936.19;591.571;2.17001
1246;1980.75;544.206;2.17001
1247;2010.35;571.795;2.17001
1248;2025.3;595.477;2.17001
1249;2025.3;534.196;2.17001
1250;1998.14;567.888;2.17001
1251;1963.35;565.935;2.17001
1252;1958.47;579.608;2.17001
1253;1985.63;563.738;2.17001
1254;1998.14;561.785;2.17001
1255;1995.7;555.925;2.17001
1256;1978.31;595.477;2.17001
1257;1941.38;569.842;2.18
1258;1911.47;546.159;2.18
1259;1938.63;609.149;2.18
1260;1973.42;569.842;2.18
1261;1985.63;569.842;2.18
1262;1988.07;561.785;2.18
1263;1975.86;577.654;2.18
1264;1948.7;575.701;2.18
1265;1938.63;587.42;2.18
1266;1985.63;548.112;2.18
1267;2015.23;575.701;2.18
1268;2027.75;589.618;2.18
1269;2025.3;538.102;2.18
1270;1995.7;567.888;2.18
1271;1963.35;569.842;2.18
1272;1960.91;579.608;2.19
1273;1985.63;563.738;2.19
1274;1995.7;557.878;2.19
1275;1995.7;561.785;2.19
1276;1980.75;589.618;2.19
1277;1941.38;559.832;2.19
1278;1909.03;542.009;2.19
1279;1936.19;605.243;2.19
1280;1973.42;571.795;2.19
1281;1983.19;571.795;2.19
1282;1990.51;561.785;2.19
1283;1975.86;579.608;2.19
1284;1946.26;573.748;2.19
1285;1941.38;589.618;2.19
1286;1985.63;546.159;2.19
1287;2017.67;571.795;2.2
1288;2030.19;591.571;2.2
1289;2027.75;532.243;2.2
1290;2000.58;569.842;2.2
1291;1963.35;569.842;2.2
1292;1960.91;579.608;2.2
1293;1990.51;561.785;2.2
1294;1998.14;561.785;2.2
1295;2000.58;555.925;2.2
1296;1983.19;593.524;2.2
1297;1946.26;565.935;2.2
1298;1914.22;550.066;2.2
1299;1946.26;609.149;2.2
1300;1975.86;571.795;2.2
1301;1990.51;565.935;2.2
1302;1995.7;559.832;2.21
1303;1980.75;575.701;2.21
1304;1951.14;577.654;2.21
1305;1946.26;583.514;2.21
1306;1992.95;548.112;2.21
1307;2022.86;577.654;2.21
1308;2035.07;601.337;2.21
1309;2032.63;548.112;2.21
1310;2005.47;563.738;2.21
1311;1968.54;561.785;2.21
1312;1968.54;581.561;2.21
1313;1995.7;557.878;2.21
1314;2005.47;567.888;2.21
1315;2007.91;546.159;2.21
1316;1988.07;593.524;2.21
1317;1953.58;573.748;2.22
1318;1921.54;540.056;2.22
1319;1951.14;597.43;2.22
1320;1980.75;573.748;2.22
1321;1992.95;575.701;2.22
1322;1998.14;559.832;2.22
1323;1985.63;581.561;2.22
1324;1953.58;569.842;2.22
1325;1948.7;595.477;2.22
1326;1998.14;546.159;2.22
1327;2025.3;569.842;2.22
1328;2037.51;601.337;2.22
1329;2035.07;540.056;2.22
1330;2007.91;565.935;2.22
1331;1970.98;563.738;2.22
1332;1968.54;579.608;2.22
1333;1998.14;557.878;2.23
1334;2007.91;567.888;2.23
1335;2010.35;552.019;2.23
1336;1990.51;595.477;2.23
1337;1951.14;569.842;2.23
1338;1923.98;540.056;2.23
1339;1953.58;603.29;2.23
1340;1985.63;569.842;2.23
1341;1998.14;571.795;2.23
1342;2000.58;559.832;2.23
1343;1983.19;579.608;2.23
1344;1956.03;571.795;2.23
1345;1951.14;591.571;2.23
1346;1998.14;544.206;2.23
1347;2027.75;569.842;2.23
1348;2039.95;595.477;2.24001
1349;2037.51;534.196;2.24001
1350;2007.91;567.888;2.24001
1351;1970.98;567.888;2.24001
1352;1970.98;579.608;2.24001
1353;2000.58;561.785;2.24001
1354;2010.35;565.935;2.24001
1355;2012.79;552.019;2.24001
1356;1992.95;595.477;2.24001
1357;1953.58;567.888;2.24001
1358;1928.86;548.112;2.24001
1359;1958.47;609.149;2.24001
1360;1992.95;569.842;2.24001
1361;2005.47;565.935;2.24001
1362;2007.91;561.785;2.25
1363;1992.95;575.701;2.25
1364;1960.91;577.654;2.25
1365;1958.47;587.42;2.25
1366;2005.47;548.112;2.25
1367;2032.63;577.654;2.25
1368;2044.84;587.42;2.25
1369;2042.39;536.149;2.25
1370;2012.79;563.738;2.25
1371;1978.31;563.738;2.25
1372;1978.31;581.561;2.25
1373;2007.91;555.925;2.25
1374;2015.23;565.935;2.25
1375;2017.67;542.009;2.25
1376;1998.14;593.524;2.25
1377;1960.91;573.748;2.26
1378;1933.75;534.196;2.26
1379;1965.79;593.524;2.26
1380;1995.7;573.748;2.26
1381;2010.35;575.701;2.26
1382;2015.23;555.925;2.26
1383;1998.14;583.514;2.26
1384;1963.35;569.842;2.26
1385;1963.35;595.477;2.26
1386;2012.79;546.159;2.26
1387;2037.51;563.738;2.26
1388;2050.02;601.337;2.26
1389;2044.84;542.009;2.26
1390;2012.79;565.935;2.26
1391;1980.75;561.785;2.26
1392;1983.19;579.608;2.27
1393;2012.79;557.878;2.27
1394;2017.67;567.888;2.27
1395;2020.12;546.159;2.27
1396;2003.03;595.477;2.27
1397;1960.91;571.795;2.27
1398;1936.19;540.056;2.27
1399;1970.98;601.337;2.27
1400;2000.58;571.795;2.27
1401;2012.79;573.748;2.27
1402;2017.67;557.878;2.27
1403;2000.58;579.608;2.27
1404;1970.98;569.842;2.27
1405;1970.98;589.618;2.27
1406;2020.12;542.009;2.27
1407;2044.84;569.842;2.28
1408;2057.35;597.43;2.28
1409;2054.91;532.243;2.28
1410;2022.86;569.842;2.28
1411;1988.07;563.738;2.28
1412;1992.95;579.608;2.28
1413;2020.12;559.832;2.28
1414;2025.3;565.935;2.28
1415;2027.75;552.019;2.28
1416;2007.91;595.477;2.28
1417;1970.98;565.935;2.28
1418;1943.82;542.009;2.28
1419;1975.86;611.347;2.28
1420;2007.91;571.795;2.28
1421;2020.12;569.842;2.28
1422;2022.86;561.785;2.29
1423;2003.03;575.701;2.29
1424;1973.42;573.748;2.29
1425;1975.86;587.42;2.29
1426;2025.3;546.159;2.29
1427;2050.02;573.748;2.29
1428;2062.23;591.571;2.29
1429;2059.79;534.196;2.29
1430;2027.75;567.888;2.29
1431;1992.95;569.842;2.29
1432;1998.14;579.608;2.29
1433;2022.86;557.878;2.29
1434;2032.63;567.888;2.29
1435;2032.63;546.159;2.29
1436;2010.35;597.43;2.29
1437;1973.42;569.842;2.3
1438;1946.26;542.009;2.3
1439;1980.75;603.29;2.3
1440;2010.35;571.795;2.3
1441;2022.86;569.842;2.3
1442;2025.3;557.878;2.3
1443;2010.35;577.654;2.3
1444;1978.31;571.795;2.3
1445;1978.31;587.42;2.3
1446;2030.19;542.009;2.3
1447;2054.91;571.795;2.3
1448;2067.11;593.524;2.3
1449;2064.67;532.243;2.3
1450;2032.63;565.935;2.3
1451;1998.14;567.888;2.3
1452;2003.03;577.654;2.31001
1453;2027.75;561.785;2.31001
1454;2037.51;563.738;2.31001
1455;2037.51;553.972;2.31001
1456;2015.23;595.477;2.31001
1457;1973.42;563.738;2.31001
1458;1948.7;546.159;2.31001
1459;1988.07;607.196;2.31001
1460;2015.23;567.888;2.31001
1461;2030.19;567.888;2.31001
1462;2032.63;555.925;2.31001
1463;2015.23;581.561;2.31001
1464;1983.19;569.842;2.31001
1465;1985.63;595.477;2.31001
1466;2032.63;555.925;2.32
1467;2059.79;561.785;2.32
1468;2074.44;601.337;2.32
1469;2069.56;548.112;2.32
1470;2035.07;563.738;2.32
1471;2003.03;557.878;2.32
1472;2007.91;581.561;2.32
1473;2035.07;559.832;2.32
1474;2044.84;565.935;2.32
1475;2044.84;544.206;2.32
1476;2022.86;589.618;2.32
1477;1980.75;573.748;2.32
1478;1956.03;536.149;2.32
1479;1992.95;593.524;2.32
1480;2022.86;575.701;2.32
1481;2032.63;573.748;2.33
1482;2037.51;555.925;2.33
1483;2017.67;583.514;2.33
1484;1988.07;567.888;2.33
1485;1990.51;593.524;2.33
1486;2039.95;546.159;2.33
1487;2067.11;561.785;2.33
1488;2079.63;601.337;2.33
1489;2072;540.056;2.33
1490;2039.95;563.738;2.33
1491;2007.91;559.832;2.33
1492;2010.35;579.608;2.33
1493;2037.51;555.925;2.33
1494;2047.28;565.935;2.33
1495;2050.02;546.159;2.33
1496;2027.75;593.524;2.34
1497;1983.19;569.842;2.34
1498;1958.47;538.102;2.34
1499;1998.14;599.384;2.34
1500;2027.75;571.795;2.34
1501;2039.95;571.795;2.34
1502;2042.39;557.878;2.34
1503;2025.3;575.701;2.34
1504;1992.95;567.888;2.34
1505;2000.58;591.571;2.34
1506;2047.28;542.009;2.34
1507;2072;567.888;2.34
1508;2086.95;595.477;2.34
1509;2077.19;534.196;2.34
1510;2047.28;567.888;2.34
1511;2010.35;563.738;2.35001
1512;2020.12;577.654;2.35001
1513;2044.84;557.878;2.35001
1514;2054.91;561.785;2.35001
1515;2052.47;550.066;2.35001
1516;2030.19;595.477;2.35001
1517;1988.07;567.888;2.35001
1518;1965.79;542.009;2.35001
1519;2005.47;609.149;2.35001
1520;2032.63;567.888;2.35001
1521;2044.84;567.888;2.35001
1522;2047.28;559.832;2.35001
1523;2027.75;575.701;2.35001
1524;1995.7;567.888;2.35001
1525;2003.03;597.43;2.36
1526;2050.02;559.832;2.36
1527;2077.19;561.785;2.36
1528;2089.39;601.337;2.36
1529;2079.63;550.066;2.36
1530;2050.02;561.785;2.36
1531;2015.23;557.878;2.36
1532;2025.3;581.561;2.36
1533;2050.02;557.878;2.36
1534;2059.79;563.738;2.36
1535;2059.79;540.056;2.36
1536;2035.07;587.42;2.36
1537;1995.7;573.748;2.36
1538;1973.42;536.149;2.36
1539;2015.23;589.618;2.37
1540;2039.95;571.795;2.37
1541;2050.02;573.748;2.37
1542;2052.47;557.878;2.37
1543;2042.39;579.608;2.37
1544;2012.79;567.888;2.37
1545;1998.14;593.524;2.37
1546;2039.95;548.112;2.37
1547;2077.19;565.935;2.37
1548;2091.83;601.337;2.37
1549;2096.72;542.009;2.37
1550;2072;563.738;2.37
1551;2032.63;559.832;2.37
1552;2020.12;581.561;2.38
1553;2050.02;555.925;2.38
1554;2062.23;567.888;2.38
1555;2067.11;544.206;2.38
1556;2054.91;593.524;2.38
1557;2017.67;571.795;2.38
1558;1978.31;538.102;2.38
1559;1998.14;599.384;2.38
1560;2039.95;569.842;2.38
1561;2052.47;575.701;2.38
1562;2062.23;555.925;2.38
1563;2050.02;577.654;2.38
1564;2020.12;567.888;2.38
1565;2005.47;591.571;2.38
1566;2047.28;542.009;2.39
1567;2079.63;567.888;2.39
1568;2099.16;597.43;2.39
1569;2099.16;536.149;2.39
1570;2077.19;563.738;2.39
1571;2039.95;563.738;2.39
1572;2027.75;579.608;2.39
1573;2054.91;557.878;2.39
1574;2067.11;561.785;2.39
1575;2069.56;550.066;2.39
1576;2059.79;597.43;2.39
1577;2020.12;567.888;2.39
1578;1983.19;540.056;2.39
1579;2005.47;607.196;2.4
1580;2044.84;569.842;2.4
1581;2059.79;571.795;2.4
1582;2067.11;557.878;2.4
1583;2054.91;575.701;2.4
1584;2027.75;569.842;2.4
1585;2007.91;585.467;2.4
1586;2054.91;546.159;2.4
1587;2089.39;563.738;2.4
1588;2106.79;599.384;2.4
1589;2106.79;540.056;2.4
1590;2079.63;565.935;2.4
1591;2044.84;561.785;2.4
1592;2032.63;579.608;2.41
1593;2062.23;555.925;2.41
1594;2074.44;561.785;2.41
1595;2079.63;546.159;2.41
1596;2064.67;597.43;2.41
1597;2027.75;567.888;2.41
1598;1988.07;538.102;2.41
1599;2012.79;601.337;2.41
1600;2050.02;569.842;2.41
1601;2067.11;571.795;2.41
1602;2072;557.878;2.41
1603;2062.23;579.608;2.41
1604;2030.19;569.842;2.41
1605;2012.79;589.618;2.42001
1606;2062.23;540.056;2.42001
1607;2096.72;565.935;2.42001
1608;2111.67;595.477;2.42001
1609;2114.11;532.243;2.42001
1610;2086.95;565.935;2.42001
1611;2047.28;565.935;2.42001
1612;2037.51;577.654;2.42001
1613;2067.11;557.878;2.42001
1614;2082.07;563.738;2.42001
1615;2084.51;552.019;2.42001
1616;2072;593.524;2.42001
1617;2032.63;573.748;2.42001
1618;1995.7;536.149;2.43
1619;2020.12;581.561;2.43
1620;2059.79;577.654;2.43
1621;2077.19;573.748;2.43
1622;2082.07;555.925;2.43
1623;2069.56;575.701;2.43
1624;2035.07;567.888;2.43
1625;2022.86;593.524;2.43
1626;2069.56;557.878;2.43
1627;2104.35;563.738;2.43
1628;2119;599.384;2.43
1629;2123.88;548.112;2.43
1630;2094.28;559.832;2.44
1631;2057.35;557.878;2.44
1632;2047.28;579.608;2.44
1633;2074.44;555.925;2.44
1634;2089.39;563.738;2.44
1635;2094.28;542.009;2.44
1636;2077.19;585.467;2.44
1637;2037.51;569.842;2.44
1638;2003.03;534.196;2.44
1639;2027.75;591.571;2.44
1640;2067.11;573.748;2.44
1641;2082.07;573.748;2.44
1642;2086.95;553.972;2.45
1643;2074.44;581.561;2.45
1644;2042.39;563.738;2.45
1645;2027.75;591.571;2.45
1646;2074.44;548.112;2.45
1647;2109.23;563.738;2.45
1648;2126.32;599.384;2.45
1649;2126.32;538.102;2.45
1650;2099.16;563.738;2.45
1651;2059.79;561.785;2.45
1652;2052.47;577.654;2.45
1653;2082.07;553.972;2.45
1654;2091.83;563.738;2.45
1655;2096.72;544.206;2.46
1656;2082.07;593.524;2.46
1657;2042.39;569.842;2.46
1658;2007.91;536.149;2.46
1659;2032.63;595.477;2.46
1660;2069.56;571.795;2.46
1661;2084.51;571.795;2.46
1662;2091.83;555.925;2.46
1663;2077.19;579.608;2.46
1664;2047.28;565.935;2.46
1665;2032.63;589.618;2.46
1666;2079.63;540.056;2.46
1667;2114.11;563.738;2.47
1668;2131.51;593.524;2.47
1669;2131.51;532.243;2.47
1670;2104.35;563.738;2.47
1671;2064.67;561.785;2.47
1672;2057.35;575.701;2.47
1673;2086.95;557.878;2.47
1674;2101.6;563.738;2.47
1675;2104.35;548.112;2.47
1676;2089.39;595.477;2.47
1677;2050.02;563.738;2.47
1678;2012.79;540.056;2.47
1679;2042.39;581.561;2.48
1680;2077.19;579.608;2.48
1681;2094.28;573.748;2.48
1682;2099.16;555.925;2.48
1683;2084.51;577.654;2.48
1684;2052.47;567.888;2.48
1685;2039.95;595.477;2.48
1686;2086.95;557.878;2.48
1687;2123.88;561.785;2.48
1688;2141.27;599.384;2.48
1689;2138.83;550.066;2.48
