<WeldAnalyseData xmlns:i="http:www.w3.org/2001/XMLSchema-instance">
<WeldParameter>
<TimeStamp>DT#2024-01-24-15:05:56</TimeStamp>
<Generator>SG-22-10000</Generator>
<GenFreq>20</GenFreq>
<MaxForce>8000</MaxForce>
<MaxPower>10000</MaxPower>
<RunupPressure>1.5</RunupPressure>
<RunupDist>10</RunupDist>
<RunPress>0.8</RunPress>
<ShakeDelay>0.03</ShakeDelay>
<ShakeTime>0.3</ShakeTime>
<RunBackPress1>6</RunBackPress1>
<RunBackPress2>2</RunBackPress2>
<RunBackDist>1</RunBackDist>
<TrigValue>500</TrigValue>
<TrigModeUnit>W</TrigModeUnit>
<WeldModeUnit>Ws</WeldModeUnit>
<PressNr>0</PressNr>
<MaxLoss>1500</MaxLoss>
</WeldParameter>
<WeldSets>
<WeldSet>
<PressRiseTime>0</PressRiseTime>
<RunPressure>1</RunPressure>
<Amplitude>86</Amplitude>
<WeldMode>3270</WeldMode>
</WeldSet>
</WeldSets>
<WeldValue>
<WeldNr>2979</WeldNr>
<RecipeName>RickStyle</RecipeName>
<WeldTime>1672</WeldTime>
<DistDiff>2.26</DistDiff>
<DistAbs>78.14</DistAbs>
<Energy>3270.47</Energy>
<MaxPower>2154.51</MaxPower>
<CycleTime>5950</CycleTime>
<TrigForce>500.748</TrigForce>
<TrigDist>75.88</TrigDist>
<RunSpeed>68.8566</RunSpeed>
<MaxForce>623.066</MaxForce>
<LossPower>326.949</LossPower>
</WeldValue>
</WeldAnalyseData>
#CSV-START#
ms;Power[W];Force[N];Distance[mm]
1;0;0;0
2;0;504.654;0
3;0;500.748;0
4;0;504.654;0
5;0;506.607;0
6;0;506.607;0
7;0;506.607;0
8;0;482.925;0
9;0;427.503;0.0100021
10;0;405.774;0.0400009
11;0;366.466;0.0699997
12;18.5209;358.409;0.110001
13;72.8439;334.727;0.150002
14;154.328;330.821;0.190002
15;243.137;303.232;0.240005
16;309.973;301.279;0.280006
17;371.62;311.045;0.32
18;435.709;279.55;0.360001
19;502.544;301.279;0.400002
20;561.75;311.045;0.43
21;628.586;328.867;0.459999
22;702.441;328.867;0.490005
23;771.718;334.727;0.510002
24;840.69;344.737;0.520004
25;902.642;376.232;0.540001
26;944.453;364.513;0.550003
27;981.685;372.326;0.560005
28;1045.77;417.737;0.57
29;1107.42;405.774;0.57
30;1154.42;405.774;0.57
31;1193.79;411.878;0.580002
32;1223.39;425.55;0.580002
33;1235.9;435.56;0.580002
34;1265.51;431.654;0.590004
35;1322.27;415.784;0.590004
36;1361.64;437.513;0.600006
37;1403.76;435.56;0.600006
38;1433.36;399.915;0.610001
39;1448.31;425.55;0.610001
40;1453.2;433.607;0.620003
41;1485.24;439.467;0.620003
42;1529.8;427.503;0.630005
43;1564.28;429.456;0.630005
44;1591.44;425.55;0.639999
45;1603.65;457.289;0.639999
46;1598.77;435.56;0.650002
47;1593.89;423.597;0.650002
48;1643.33;477.065;0.660004
49;1687.58;441.42;0.670006
50;1719.93;439.467;0.670006
51;1744.34;437.513;0.68
52;1749.53;451.186;0.68
53;1747.09;457.289;0.690002
54;1761.74;457.289;0.700005
55;1823.39;429.456;0.700005
56;1865.5;463.149;0.709999
57;1897.55;467.055;0.720001
58;1912.5;427.503;0.720001
59;1902.43;459.243;0.730003
60;1882.9;469.008;0.730003
61;1897.55;470.962;0.740005
62;1934.47;461.196;0.740005
63;1956.75;451.186;0.75
64;1966.82;463.149;0.75
65;1961.63;486.831;0.75
66;1929.59;455.336;0.760002
67;1910.06;463.149;0.760002
68;1951.87;504.654;0.770004
69;1988.8;475.112;0.770004
70;2011.07;465.102;0.780006
71;2021.15;472.915;0.780006
72;2008.63;482.925;0.780006
73;1983.91;500.748;0.790001
74;1991.54;488.784;0.790001
75;2043.12;469.008;0.800003
76;2075.47;480.972;0.800003
77;2095;512.467;0.810005
78;2097.44;455.336;0.810005
79;2067.84;486.831;0.810005
80;2035.79;484.878;0.82
81;2043.12;498.795;0.82
82;2073.03;482.925;0.830002
83;2087.68;490.738;0.830002
84;2092.56;477.065;0.840004
85;2075.47;520.524;0.840004
86;2038.24;496.597;0.840004
87;2013.52;472.915;0.850006
88;2048.31;532.243;0.850006
89;2080.35;498.795;0.860001
90;2100.19;498.795;0.860001
91;2107.51;492.691;0.860001
92;2092.56;512.467;0.870003
93;2058.07;508.56;0.870003
94;2060.51;520.524;0.870003
95;2107.51;480.972;0.880005
96;2137.12;510.514;0.880005
97;2154.51;530.29;0.889999
98;2149.32;470.962;0.889999
99;2119.72;504.654;0.889999
100;2082.79;512.467;0.900002
101;2085.23;518.326;0.900002
102;2117.28;502.701;0.900002
103;2129.79;504.654;0.900002
104;2134.67;498.795;0.910004
105;2114.84;536.149;0.910004
106;2073.03;508.56;0.910004
107;2040.68;492.691;0.920006
108;2073.03;550.066;0.920006
109;2102.63;512.467;0.920006
110;2117.28;508.56;0.93
111;2119.72;508.56;0.93
112;2100.19;522.477;0.93
113;2065.4;524.43;0.940002
114;2062.96;528.336;0.940002
115;2109.95;492.691;0.940002
116;2134.67;524.43;0.950005
117;2149.32;536.149;0.950005
118;2142;482.925;0.950005
119;2107.51;518.326;0.950005
120;2067.84;526.383;0.959999
121;2067.84;528.336;0.959999
122;2095;514.42;0.959999
123;2105.07;508.56;0.959999
124;2107.51;514.42;0.970001
125;2082.79;540.056;0.970001
126;2043.12;514.42;0.970001
127;2013.52;510.514;0.970001
128;2048.31;559.832;0.980003
129;2082.79;526.383;0.980003
130;2105.07;516.373;0.980003
131;2112.4;520.524;0.980003
132;2090.12;528.336;0.990005
133;2058.07;538.102;0.990005
134;2053.19;536.149;0.990005
135;2097.44;508.56;0.990005
136;2122.16;540.056;1
137;2132.23;538.102;1
138;2122.16;498.795;1
139;2090.12;528.336;1
140;2050.75;536.149;1.01
141;2050.75;538.102;1.01
142;2073.03;522.477;1.01
143;2080.35;514.42;1.01
144;2077.91;524.43;1.02
145;2058.07;548.112;1.02
146;2013.52;514.42;1.02
147;1983.91;522.477;1.02
148;2015.96;559.832;1.02
149;2043.12;530.29;1.03001
150;2055.63;522.477;1.03001
151;2053.19;524.43;1.03001
152;2035.79;542.009;1.03001
153;2003.75;530.29;1.03001
154;2003.75;552.019;1.04
155;2045.87;508.56;1.04
156;2070.28;532.243;1.04
157;2082.79;561.785;1.04
158;2077.91;500.748;1.04
159;2048.31;532.243;1.05
160;2011.07;532.243;1.05
161;2011.07;546.159;1.05
162;2035.79;524.43;1.05
163;2048.31;530.29;1.05
164;2050.75;522.477;1.06001
165;2030.91;563.738;1.06001
166;1991.54;536.149;1.06001
167;1961.63;512.467;1.06001
168;1993.98;571.795;1.06001
169;2026.03;540.056;1.07
170;2035.79;536.149;1.07
171;2038.24;532.243;1.07
172;2021.15;550.066;1.07
173;1991.54;546.159;1.07
174;1988.8;555.925;1.07
175;2033.35;518.326;1.08
176;2060.51;542.009;1.08
177;2073.03;563.738;1.08
178;2065.4;504.654;1.08
179;2038.24;540.056;1.08
180;2001.31;542.009;1.08
181;2003.75;550.066;1.09
182;2026.03;534.196;1.09
183;2038.24;536.149;1.09
184;2038.24;530.29;1.09
185;2018.7;565.935;1.09
186;1979.03;538.102;1.10001
187;1951.87;524.43;1.10001
188;1979.03;581.561;1.10001
189;2011.07;544.206;1.10001
190;2023.59;536.149;1.10001
191;2026.03;536.149;1.10001
192;2011.07;552.019;1.11
193;1976.59;553.972;1.11
194;1974.15;555.925;1.11
195;2018.7;526.383;1.11
196;2043.12;553.972;1.11
197;2055.63;561.785;1.11
198;2050.75;514.42;1.12
199;2021.15;544.206;1.12
200;1986.35;552.019;1.12
201;1988.8;553.972;1.12
202;2011.07;540.056;1.12
203;2023.59;532.243;1.12
204;2021.15;538.102;1.12
205;2003.75;567.888;1.13
206;1964.38;538.102;1.13
207;1934.47;534.196;1.13
208;1966.82;581.561;1.13
209;1996.43;552.019;1.13
210;2008.63;542.009;1.13
211;2011.07;542.009;1.14
212;1993.98;553.972;1.14
213;1964.38;565.935;1.14
214;1961.63;559.832;1.14
215;2006.19;534.196;1.14
216;2028.47;561.785;1.14
217;2043.12;559.832;1.14
218;2038.24;524.43;1.15
219;2011.07;550.066;1.15
220;1974.15;559.832;1.15
221;1974.15;559.832;1.15
222;2003.75;546.159;1.15
223;2011.07;532.243;1.15
224;2011.07;548.112;1.16
225;1996.43;569.842;1.16
226;1956.75;532.243;1.16
227;1929.59;548.112;1.16
228;1959.19;591.571;1.16
229;1986.35;553.972;1.16
230;1998.87;550.066;1.16
231;2003.75;546.159;1.16
232;1986.35;557.878;1.17001
233;1954.31;565.935;1.17001
234;1954.31;567.888;1.17001
235;1998.87;534.196;1.17001
236;2021.15;559.832;1.17001
237;2033.35;571.795;1.17001
238;2033.35;522.477;1.17001
239;2001.31;553.972;1.18
240;1969.26;561.785;1.18
241;1966.82;563.738;1.18
242;1993.98;550.066;1.18
243;2001.31;544.206;1.18
244;2003.75;548.112;1.18
245;1983.91;575.701;1.18
246;1946.99;546.159;1.18
247;1917.38;544.206;1.19
248;1949.43;591.571;1.19
249;1976.59;557.878;1.19
250;1988.8;552.019;1.19
251;1993.98;552.019;1.19
252;1979.03;561.785;1.19
253;1946.99;575.701;1.19
254;1944.54;567.888;1.19
255;1988.8;544.206;1.2
256;2013.52;573.748;1.2
257;2026.03;571.795;1.2
258;2021.15;534.196;1.2
259;1991.54;561.785;1.2
260;1959.19;569.842;1.2
261;1959.19;569.842;1.2
262;1983.91;559.832;1.2
263;1993.98;546.159;1.21
264;1993.98;557.878;1.21
265;1976.59;575.701;1.21
266;1937.22;565.935;1.21
267;1910.06;538.102;1.21
268;1939.66;595.477;1.21
269;1969.26;567.888;1.21
270;1981.47;567.888;1.21
271;1983.91;555.925;1.22
272;1966.82;573.748;1.22
273;1939.66;567.888;1.22
274;1937.22;585.467;1.22
275;1979.03;540.056;1.22
276;2003.75;563.738;1.22
277;2018.7;593.524;1.22
278;2013.52;536.149;1.22
279;1983.91;565.935;1.22
280;1949.43;561.785;1.23
281;1951.87;577.654;1.23
282;1976.59;559.832;1.23
283;1986.35;561.785;1.23
284;1983.91;553.972;1.23
285;1964.38;593.524;1.23
286;1927.15;567.888;1.23
287;1904.87;546.159;1.23
288;1932.03;609.149;1.24001
289;1961.63;571.795;1.24001
290;1974.15;569.842;1.24001
291;1976.59;561.785;1.24001
292;1961.63;579.608;1.24001
293;1929.59;575.701;1.24001
294;1929.59;587.42;1.24001
295;1974.15;548.112;1.24001
296;1998.87;575.701;1.24001
297;2008.63;593.524;1.25
298;2008.63;538.102;1.25
299;1976.59;569.842;1.25
300;1944.54;575.701;1.25
301;1944.54;581.561;1.25
302;1969.26;565.935;1.25
303;1976.59;565.935;1.25
304;1979.03;563.738;1.25
305;1961.63;595.477;1.25
306;1924.71;569.842;1.26
307;1897.55;557.878;1.26
308;1927.15;611.347;1.26
309;1956.75;573.748;1.26
310;1966.82;567.888;1.26
311;1971.71;569.842;1.26
312;1956.75;581.561;1.26
313;1924.71;585.467;1.26
314;1924.71;587.42;1.26
315;1966.82;555.925;1.26
316;1991.54;585.467;1.27
317;2003.75;593.524;1.27
318;1998.87;546.159;1.27
319;1974.15;577.654;1.27
320;1942.1;583.514;1.27
321;1942.1;583.514;1.27
322;1969.26;569.842;1.27
323;1974.15;565.935;1.27
324;1976.59;569.842;1.27
325;1959.19;597.43;1.27
326;1922.27;567.888;1.28001
327;1895.1;567.888;1.28001
328;1924.71;609.149;1.28001
329;1954.31;579.608;1.28001
330;1964.38;571.795;1.28001
331;1969.26;571.795;1.28001
332;1956.75;583.514;1.28001
333;1927.15;591.571;1.28001
334;1924.71;585.467;1.28001
335;1966.82;563.738;1.28001
336;1991.54;595.477;1.29
337;2003.75;587.42;1.29
338;2001.31;552.019;1.29
339;1971.71;577.654;1.29
340;1939.66;587.42;1.29
341;1942.1;587.42;1.29
342;1966.82;567.888;1.29
343;1976.59;579.608;1.29
344;1976.59;559.832;1.29
345;1956.75;605.243;1.29
346;1917.38;579.608;1.3
347;1895.1;555.925;1.3
348;1924.71;613.3;1.3
349;1954.31;581.561;1.3
350;1966.82;583.514;1.3
351;1971.71;573.748;1.3
352;1954.31;589.618;1.3
353;1927.15;583.514;1.3
354;1922.27;599.384;1.3
355;1966.82;555.925;1.3
356;1991.54;577.654;1.31001
357;2003.75;607.196;1.31001
358;2001.31;544.206;1.31001
359;1974.15;577.654;1.31001
360;1937.22;579.608;1.31001
361;1939.66;589.618;1.31001
362;1964.38;571.795;1.31001
363;1971.71;575.701;1.31001
364;1971.71;561.785;1.31001
365;1956.75;607.196;1.31001
366;1917.38;579.608;1.31001
367;1895.1;557.878;1.32
368;1922.27;619.16;1.32
369;1949.43;581.561;1.32
370;1961.63;579.608;1.32
371;1966.82;573.748;1.32
372;1949.43;589.618;1.32
373;1919.82;585.467;1.32
374;1922.27;597.43;1.32
375;1964.38;559.832;1.32
376;1986.35;585.467;1.32
377;2001.31;601.337;1.32
378;1998.87;548.112;1.33
379;1966.82;579.608;1.33
380;1934.47;585.467;1.33
381;1937.22;589.618;1.33
382;1959.19;573.748;1.33
383;1966.82;571.795;1.33
384;1969.26;571.795;1.33
385;1951.87;601.337;1.33
386;1914.94;573.748;1.33
387;1892.66;565.935;1.33
388;1917.38;617.206;1.33
389;1949.43;583.514;1.34
390;1961.63;577.654;1.34
391;1961.63;575.701;1.34
392;1946.99;585.467;1.34
393;1917.38;593.524;1.34
394;1917.38;593.524;1.34
395;1964.38;559.832;1.34
396;1986.35;591.571;1.34
397;1998.87;599.384;1.34
398;1993.98;553.972;1.34
399;1966.82;581.561;1.34
400;1934.47;585.467;1.34
401;1934.47;591.571;1.35001
402;1959.19;575.701;1.35001
403;1966.82;567.888;1.35001
404;1969.26;575.701;1.35001
405;1954.31;599.384;1.35001
406;1914.94;569.842;1.35001
407;1890.22;571.795;1.35001
408;1919.82;615.253;1.35001
409;1946.99;583.514;1.35001
410;1959.19;575.701;1.35001
411;1964.38;577.654;1.35001
412;1949.43;585.467;1.35001
413;1922.27;597.43;1.36
414;1917.38;591.571;1.36
415;1961.63;567.888;1.36
416;1983.91;599.384;1.36
417;1998.87;591.571;1.36
418;1996.43;546.159;1.36
419;1966.82;581.561;1.36
420;1934.47;585.467;1.36
421;1934.47;589.618;1.36
422;1959.19;573.748;1.36
423;1966.82;571.795;1.36
424;1969.26;571.795;1.36
425;1954.31;603.29;1.37
426;1914.94;573.748;1.37
427;1890.22;565.935;1.37
428;1919.82;617.206;1.37
429;1946.99;581.561;1.37
430;1956.75;575.701;1.37
431;1964.38;573.748;1.37
432;1944.54;587.42;1.37
433;1919.82;593.524;1.37
434;1917.38;593.524;1.37
435;1959.19;563.738;1.37
436;1983.91;593.524;1.37
437;1993.98;597.43;1.38
438;1993.98;553.972;1.38
439;1964.38;583.514;1.38
440;1929.59;589.618;1.38
441;1934.47;591.571;1.38
442;1956.75;577.654;1.38
443;1964.38;565.935;1.38
444;1969.26;575.701;1.38
445;1951.87;599.384;1.38
446;1914.94;571.795;1.38
447;1887.78;573.748;1.38
448;1919.82;611.347;1.38
449;1944.54;581.561;1.38
450;1956.75;573.748;1.39
451;1961.63;575.701;1.39
452;1944.54;585.467;1.39
453;1917.38;601.337;1.39
454;1914.94;591.571;1.39
455;1959.19;567.888;1.39
456;1981.47;581.561;1.39
457;1993.98;609.149;1.39
458;1993.98;553.972;1.39
459;1964.38;579.608;1.39
460;1929.59;579.608;1.39
461;1932.03;589.618;1.39
462;1956.75;571.795;1.39
463;1966.82;579.608;1.4
464;1969.26;563.738;1.4
465;1949.43;609.149;1.4
466;1912.5;585.467;1.4
467;1887.78;555.925;1.4
468;1917.38;617.206;1.4
469;1944.54;585.467;1.4
470;1959.19;583.514;1.4
471;1959.19;571.795;1.4
472;1946.99;591.571;1.4
473;1917.38;585.467;1.4
474;1914.94;601.337;1.4
475;1961.63;559.832;1.4
476;1983.91;583.514;1.41
477;1996.43;607.196;1.41
478;1998.87;548.112;1.41
479;1966.82;581.561;1.41
480;1934.47;581.561;1.41
481;1932.03;591.571;1.41
482;1959.19;573.748;1.41
483;1966.82;577.654;1.41
484;1969.26;569.842;1.41
485;1951.87;607.196;1.41
486;1914.94;581.561;1.41
487;1890.22;559.832;1.41
488;1919.82;623.066;1.41
489;1946.99;583.514;1.42001
490;1959.19;579.608;1.42001
491;1961.63;571.795;1.42001
492;1949.43;589.618;1.42001
493;1919.82;589.618;1.42001
494;1919.82;595.477;1.42001
495;1961.63;561.785;1.42001
496;1986.35;587.42;1.42001
497;1996.43;601.337;1.42001
498;1998.87;548.112;1.42001
499;1966.82;581.561;1.42001
500;1934.47;583.514;1.42001
501;1937.22;593.524;1.43
502;1961.63;575.701;1.43
503;1969.26;571.795;1.43
504;1971.71;573.748;1.43
505;1951.87;603.29;1.43
506;1914.94;573.748;1.43
507;1892.66;569.842;1.43
508;1919.82;621.113;1.43
509;1946.99;583.514;1.43
510;1959.19;573.748;1.43
511;1966.82;575.701;1.43
512;1951.87;589.618;1.43
513;1922.27;597.43;1.43
514;1922.27;595.477;1.43
515;1961.63;567.888;1.44
516;1988.8;595.477;1.44
517;1996.43;597.43;1.44
518;1998.87;553.972;1.44
519;1969.26;583.514;1.44
520;1934.47;591.571;1.44
521;1937.22;593.524;1.44
522;1961.63;577.654;1.44
523;1969.26;567.888;1.44
524;1974.15;579.608;1.44
525;1954.31;599.384;1.44
526;1917.38;569.842;1.44
527;1890.22;573.748;1.44
528;1919.82;611.347;1.45
529;1946.99;581.561;1.45
530;1959.19;573.748;1.45
531;1961.63;577.654;1.45
532;1949.43;595.477;1.45
533;1922.27;583.514;1.45
534;1919.82;605.243;1.45
535;1964.38;555.925;1.45
536;1988.8;581.561;1.45
537;2001.31;613.3;1.45
538;2001.31;553.972;1.45
539;1969.26;579.608;1.45
540;1937.22;581.561;1.45
541;1937.22;593.524;1.45
542;1964.38;573.748;1.46
543;1974.15;579.608;1.46
544;1974.15;565.935;1.46
545;1956.75;609.149;1.46
546;1919.82;585.467;1.46
547;1895.1;561.785;1.46
548;1924.71;619.16;1.46
549;1951.87;583.514;1.46
550;1964.38;583.514;1.46
551;1971.71;571.795;1.46
552;1954.31;593.524;1.46
553;1927.15;587.42;1.46
554;1924.71;599.384;1.46
555;1966.82;557.878;1.46
556;1993.98;583.514;1.47
557;2003.75;607.196;1.47
558;2003.75;548.112;1.47
559;1974.15;581.561;1.47
560;1939.66;583.514;1.47
561;1944.54;593.524;1.47
562;1969.26;575.701;1.47
563;1974.15;577.654;1.47
564;1979.03;569.842;1.47
565;1959.19;609.149;1.47
566;1924.71;577.654;1.47
567;1895.1;565.935;1.47
568;1927.15;621.113;1.47
569;1954.31;583.514;1.48
570;1966.82;579.608;1.48
571;1971.71;575.701;1.48
572;1956.75;589.618;1.48
573;1927.15;591.571;1.48
574;1924.71;597.43;1.48
575;1971.71;561.785;1.48
576;1993.98;587.42;1.48
577;2006.19;601.337;1.48
578;2003.75;550.066;1.48
579;1974.15;581.561;1.48
580;1942.1;587.42;1.48
581;1944.54;591.571;1.48
582;1969.26;577.654;1.48
583;1976.59;571.795;1.48
584;1979.03;571.795;1.49001
585;1961.63;603.29;1.49001
586;1924.71;571.795;1.49001
587;1899.99;569.842;1.49001
588;1929.59;617.206;1.49001
589;1954.31;581.561;1.49001
590;1969.26;573.748;1.49001
591;1974.15;577.654;1.49001
592;1959.19;585.467;1.49001
593;1929.59;597.43;1.49001
594;1927.15;593.524;1.49001
595;1971.71;567.888;1.49001
596;1993.98;593.524;1.49001
597;2006.19;593.524;1.49001
598;2003.75;552.019;1.5
599;1974.15;579.608;1.5
600;1939.66;589.618;1.5
601;1944.54;591.571;1.5
602;1971.71;577.654;1.5
603;1979.03;563.738;1.5
604;1981.47;577.654;1.5
605;1964.38;597.43;1.5
606;1924.71;565.935;1.5
607;1897.55;573.748;1.5
608;1927.15;619.16;1.5
609;1959.19;583.514;1.5
610;1969.26;577.654;1.5
611;1976.59;573.748;1.5
612;1961.63;589.618;1.51
613;1932.03;593.524;1.51
614;1927.15;595.477;1.51
615;1974.15;559.832;1.51
616;1998.87;589.618;1.51
617;2008.63;597.43;1.51
618;2006.19;548.112;1.51
619;1981.47;581.561;1.51
620;1946.99;585.467;1.51
621;1946.99;587.42;1.51
622;1974.15;573.748;1.51
623;1983.91;569.842;1.51
624;1981.47;571.795;1.51
625;1966.82;601.337;1.51
626;1929.59;573.748;1.51
627;1902.43;569.842;1.52
628;1929.59;613.3;1.52
629;1961.63;579.608;1.52
630;1971.71;573.748;1.52
631;1979.03;577.654;1.52
632;1964.38;587.42;1.52
633;1932.03;597.43;1.52
634;1932.03;593.524;1.52
635;1976.59;565.935;1.52
636;1998.87;595.477;1.52
637;2011.07;591.571;1.52
638;2008.63;553.972;1.52
639;1979.03;581.561;1.52
640;1946.99;587.42;1.52
641;1949.43;587.42;1.52
642;1974.15;573.748;1.53001
643;1981.47;561.785;1.53001
644;1986.35;575.701;1.53001
645;1969.26;595.477;1.53001
646;1929.59;583.514;1.53001
647;1904.87;553.972;1.53001
648;1934.47;611.347;1.53001
649;1964.38;581.561;1.53001
650;1976.59;583.514;1.53001
651;1979.03;571.795;1.53001
652;1964.38;589.618;1.53001
653;1937.22;581.561;1.53001
654;1934.47;599.384;1.53001
655;1979.03;555.925;1.53001
656;2001.31;581.561;1.53001
657;2011.07;605.243;1.54
658;2011.07;548.112;1.54
659;1981.47;577.654;1.54
660;1946.99;577.654;1.54
661;1951.87;589.618;1.54
662;1974.15;571.795;1.54
663;1983.91;575.701;1.54
664;1986.35;565.935;1.54
665;1966.82;605.243;1.54
666;1927.15;579.608;1.54
667;1904.87;555.925;1.54
668;1934.47;615.253;1.54
669;1961.63;581.561;1.54
670;1974.15;577.654;1.54
671;1981.47;571.795;1.54
672;1964.38;585.467;1.55
673;1934.47;583.514;1.55
674;1934.47;593.524;1.55
675;1979.03;553.972;1.55
676;2001.31;579.608;1.55
677;2015.96;601.337;1.55
678;2013.52;544.206;1.55
679;1986.35;577.654;1.55
680;1949.43;581.561;1.55
681;1954.31;585.467;1.55
682;1979.03;571.795;1.55
683;1983.91;569.842;1.55
684;1986.35;565.935;1.55
685;1971.71;599.384;1.55
686;1932.03;571.795;1.55
687;1907.31;563.738;1.56001
688;1937.22;615.253;1.56001
689;1964.38;579.608;1.56001
690;1979.03;573.748;1.56001
691;1981.47;573.748;1.56001
692;1966.82;587.42;1.56001
693;1937.22;589.618;1.56001
694;1937.22;591.571;1.56001
695;1979.03;557.878;1.56001
696;2001.31;585.467;1.56001
697;2015.96;595.477;1.56001
698;2013.52;548.112;1.56001
699;1981.47;575.701;1.56001
700;1949.43;583.514;1.56001
701;1954.31;587.42;1.57
702;1979.03;573.748;1.57
703;1986.35;565.935;1.57
704;1986.35;569.842;1.57
705;1971.71;595.477;1.57
706;1929.59;567.888;1.57
707;1904.87;567.888;1.57
708;1934.47;609.149;1.57
709;1964.38;579.608;1.57
710;1974.15;569.842;1.57
711;1979.03;571.795;1.57
712;1964.38;581.561;1.57
713;1937.22;593.524;1.57
714;1937.22;585.467;1.57
715;1981.47;561.785;1.57
716;2003.75;593.524;1.58
717;2015.96;585.467;1.58
718;2013.52;552.019;1.58
719;1983.91;577.654;1.58
720;1949.43;585.467;1.58
721;1951.87;583.514;1.58
722;1976.59;565.935;1.58
723;1983.91;575.701;1.58
724;1988.8;557.878;1.58
725;1966.82;603.29;1.58
726;1929.59;579.608;1.58
727;1907.31;552.019;1.58
728;1939.66;609.149;1.58
729;1966.82;577.654;1.58
730;1976.59;577.654;1.58
731;1981.47;569.842;1.59
732;1966.82;587.42;1.59
733;1937.22;577.654;1.59
734;1937.22;595.477;1.59
735;1983.91;553.972;1.59
736;2003.75;577.654;1.59
737;2013.52;601.337;1.59
738;2015.96;546.159;1.59
739;1988.8;575.701;1.59
740;1951.87;577.654;1.59
741;1954.31;585.467;1.59
742;1979.03;569.842;1.59
743;1986.35;573.748;1.59
744;1988.8;563.738;1.59
745;1971.71;601.337;1.59
746;1932.03;577.654;1.60001
747;1907.31;555.925;1.60001
748;1939.66;613.3;1.60001
749;1966.82;577.654;1.60001
750;1979.03;577.654;1.60001
751;1983.91;571.795;1.60001
752;1966.82;585.467;1.60001
753;1939.66;583.514;1.60001
754;1939.66;593.524;1.60001
755;1981.47;553.972;1.60001
756;2003.75;581.561;1.60001
757;2015.96;595.477;1.60001
758;2013.52;544.206;1.60001
759;1983.91;577.654;1.60001
760;1954.31;583.514;1.60001
761;1956.75;585.467;1.61
762;1979.03;569.842;1.61
763;1988.8;565.935;1.61
764;1988.8;567.888;1.61
765;1971.71;597.43;1.61
766;1934.47;573.748;1.61
767;1907.31;561.785;1.61
768;1939.66;615.253;1.61
769;1969.26;575.701;1.61
770;1979.03;571.795;1.61
771;1983.91;569.842;1.61
772;1966.82;585.467;1.61
773;1934.47;589.618;1.61
774;1937.22;589.618;1.61
775;1981.47;557.878;1.61
776;2001.31;585.467;1.62
777;2018.7;589.618;1.62
778;2013.52;542.009;1.62
779;1986.35;575.701;1.62
780;1949.43;583.514;1.62
781;1956.75;585.467;1.62
782;1979.03;571.795;1.62
783;1986.35;559.832;1.62
784;1986.35;569.842;1.62
785;1971.71;593.524;1.62
786;1934.47;563.738;1.62
787;1910.06;567.888;1.62
788;1937.22;609.149;1.62
789;1966.82;575.701;1.62
790;1976.59;569.842;1.62
791;1981.47;571.795;1.63
792;1966.82;579.608;1.63
793;1937.22;595.477;1.63
794;1937.22;583.514;1.63
795;1981.47;559.832;1.63
796;2003.75;593.524;1.63
797;2015.96;585.467;1.63
798;2015.96;544.206;1.63
799;1986.35;573.748;1.63
800;1949.43;579.608;1.63
801;1954.31;583.514;1.63
802;1979.03;569.842;1.63
803;1986.35;569.842;1.63
804;1988.8;565.935;1.63
805;1969.26;599.384;1.64
806;1934.47;569.842;1.64
807;1907.31;561.785;1.64
808;1937.22;613.3;1.64
809;1966.82;579.608;1.64
810;1976.59;569.842;1.64
811;1983.91;569.842;1.64
812;1969.26;583.514;1.64
813;1939.66;587.42;1.64
814;1937.22;585.467;1.64
815;1981.47;557.878;1.64
816;2003.75;585.467;1.64
817;2018.7;589.618;1.64
818;2018.7;546.159;1.64
819;1986.35;573.748;1.64
820;1951.87;585.467;1.65
821;1954.31;585.467;1.65
822;1979.03;569.842;1.65
823;1986.35;559.832;1.65
824;1988.8;569.842;1.65
825;1971.71;593.524;1.65
826;1934.47;563.738;1.65
827;1910.06;565.935;1.65
828;1939.66;609.149;1.65
829;1966.82;575.701;1.65
830;1983.91;567.888;1.65
831;1983.91;567.888;1.65
832;1969.26;581.561;1.65
833;1937.22;589.618;1.65
834;1937.22;585.467;1.65
835;1981.47;561.785;1.65
836;2003.75;573.748;1.66
837;2015.96;599.384;1.66
838;2013.52;548.112;1.66
839;1983.91;573.748;1.66
840;1951.87;571.795;1.66
841;1954.31;583.514;1.66
842;1979.03;563.738;1.66
843;1986.35;573.748;1.66
844;1991.54;557.878;1.66
845;1971.71;601.337;1.66
846;1932.03;575.701;1.66
847;1907.31;552.019;1.66
848;1937.22;609.149;1.66
849;1966.82;577.654;1.66
850;1976.59;575.701;1.66
851;1983.91;567.888;1.67001
852;1966.82;585.467;1.67001
853;1939.66;579.608;1.67001
854;1937.22;591.571;1.67001
855;1981.47;552.019;1.67001
856;2006.19;575.701;1.67001
857;2015.96;599.384;1.67001
858;2013.52;542.009;1.67001
859;1986.35;575.701;1.67001
860;1951.87;575.701;1.67001
861;1956.75;583.514;1.67001
862;1979.03;565.935;1.67001
863;1986.35;567.888;1.67001
864;1988.8;561.785;1.67001
865;1974.15;599.384;1.67001
866;1932.03;571.795;1.68
867;1907.31;555.925;1.68
868;1937.22;613.3;1.68
869;1966.82;573.748;1.68
870;1976.59;571.795;1.68
871;1986.35;567.888;1.68
872;1969.26;581.561;1.68
873;1939.66;581.561;1.68
874;1937.22;587.42;1.68
875;1981.47;553.972;1.68
876;2006.19;579.608;1.68
877;2018.7;593.524;1.68
878;2015.96;540.056;1.68
879;1986.35;573.748;1.68
880;1951.87;579.608;1.68
881;1954.31;583.514;1.69
882;1981.47;567.888;1.69
883;1988.8;563.738;1.69
884;1986.35;563.738;1.69
885;1971.71;595.477;1.69
886;1932.03;565.935;1.69
887;1907.31;561.785;1.69
888;1942.1;609.149;1.69
889;1969.26;575.701;1.69
890;1979.03;567.888;1.69
891;1983.91;563.738;1.69
892;1969.26;581.561;1.69
893;1937.22;589.618;1.69
894;1937.22;587.42;1.69
895;1983.91;555.925;1.69
896;2003.75;585.467;1.7
897;2013.52;585.467;1.7
898;2013.52;548.112;1.7
899;1983.91;573.748;1.7
900;1949.43;581.561;1.7
901;1954.31;583.514;1.7
902;1981.47;567.888;1.7
903;1988.8;559.832;1.7
904;1988.8;569.842;1.7
905;1971.71;591.571;1.7
906;1934.47;559.832;1.7
907;1904.87;567.888;1.7
908;1937.22;605.243;1.7
909;1966.82;573.748;1.7
910;1979.03;563.738;1.7
911;1981.47;567.888;1.71
912;1966.82;577.654;1.71
913;1937.22;575.701;1.71
914;1937.22;595.477;1.71
915;1979.03;550.066;1.71
916;2001.31;571.795;1.71
917;2018.7;601.337;1.71
918;2011.07;546.159;1.71
919;1983.91;571.795;1.71
920;1954.31;571.795;1.71
921;1956.75;579.608;1.71
922;1981.47;565.935;1.71
923;1986.35;571.795;1.71
924;1988.8;555.925;1.71
925;1971.71;599.384;1.71
926;1934.47;573.748;1.72
927;1910.06;553.972;1.72
928;1942.1;607.196;1.72
929;1969.26;575.701;1.72
930;1981.47;573.748;1.72
931;1986.35;569.842;1.72
932;1969.26;583.514;1.72
933;1939.66;577.654;1.72
934;1939.66;589.618;1.72
935;1983.91;550.066;1.72
936;2006.19;575.701;1.72
937;2018.7;595.477;1.72
938;2015.96;540.056;1.72
939;1986.35;573.748;1.72
940;1951.87;575.701;1.72
941;1954.31;581.561;1.73
942;1979.03;563.738;1.73
943;1988.8;567.888;1.73
944;1991.54;561.785;1.73
945;1969.26;599.384;1.73
946;1934.47;571.795;1.73
947;1907.31;553.972;1.73
948;1939.66;611.347;1.73
949;1966.82;573.748;1.73
950;1979.03;571.795;1.73
951;1983.91;565.935;1.73
952;1966.82;581.561;1.73
953;1939.66;581.561;1.73
954;1939.66;585.467;1.73
955;1981.47;552.019;1.73
956;2003.75;579.608;1.73
957;2015.96;591.571;1.74001
958;2015.96;538.102;1.74001
959;1983.91;573.748;1.74001
960;1951.87;577.654;1.74001
961;1954.31;583.514;1.74001
962;1979.03;565.935;1.74001
963;1983.91;561.785;1.74001
964;1988.8;563.738;1.74001
965;1974.15;595.477;1.74001
966;1932.03;563.738;1.74001
967;1907.31;561.785;1.74001
968;1942.1;609.149;1.74001
969;1969.26;573.748;1.74001
970;1979.03;563.738;1.74001
971;1983.91;563.738;1.74001
972;1969.26;581.561;1.74001
973;1939.66;585.467;1.75
974;1939.66;581.561;1.75
975;1981.47;555.925;1.75
976;2006.19;587.42;1.75
977;2018.7;585.467;1.75
978;2018.7;546.159;1.75
979;1986.35;571.795;1.75
980;1954.31;581.561;1.75
981;1956.75;579.608;1.75
982;1981.47;567.888;1.75
983;1988.8;555.925;1.75
984;1991.54;567.888;1.75
985;1974.15;587.42;1.75
986;1937.22;557.878;1.75
987;1910.06;567.888;1.75
988;1939.66;601.337;1.75
989;1969.26;571.795;1.75
990;1979.03;571.795;1.76
991;1983.91;567.888;1.76
992;1969.26;581.561;1.76
993;1939.66;583.514;1.76
994;1939.66;585.467;1.76
995;1981.47;552.019;1.76
996;2006.19;579.608;1.76
997;2018.7;591.571;1.76
998;2018.7;540.056;1.76
999;1986.35;571.795;1.76
1000;1951.87;579.608;1.76
1001;1956.75;581.561;1.76
1002;1979.03;565.935;1.76
1003;1988.8;561.785;1.76
1004;1988.8;565.935;1.76
1005;1971.71;591.571;1.76
1006;1937.22;561.785;1.77
1007;1910.06;561.785;1.77
1008;1942.1;607.196;1.77
1009;1969.26;573.748;1.77
1010;1979.03;565.935;1.77
1011;1981.47;567.888;1.77
1012;1969.26;577.654;1.77
1013;1939.66;587.42;1.77
1014;1937.22;583.514;1.77
1015;1981.47;555.925;1.77
1016;2003.75;587.42;1.77
1017;2015.96;583.514;1.77
1018;2015.96;546.159;1.77
1019;1988.8;571.795;1.77
1020;1954.31;581.561;1.77
1021;1956.75;581.561;1.77
1022;1983.91;567.888;1.78001
1023;1991.54;557.878;1.78001
1024;1991.54;567.888;1.78001
1025;1974.15;589.618;1.78001
1026;1937.22;573.748;1.78001
1027;1910.06;546.159;1.78001
1028;1939.66;601.337;1.78001
1029;1966.82;577.654;1.78001
1030;1981.47;573.748;1.78001
1031;1983.91;565.935;1.78001
1032;1969.26;585.467;1.78001
1033;1939.66;573.748;1.78001
1034;1939.66;593.524;1.78001
1035;1981.47;548.112;1.78001
1036;2003.75;573.748;1.78001
1037;2015.96;599.384;1.78001
1038;2013.52;540.056;1.79
1039;1986.35;571.795;1.79
1040;1954.31;573.748;1.79
1041;1956.75;581.561;1.79
1042;1983.91;561.785;1.79
1043;1988.8;567.888;1.79
1044;1991.54;555.925;1.79
1045;1971.71;599.384;1.79
1046;1937.22;573.748;1.79
1047;1907.31;550.066;1.79
1048;1937.22;609.149;1.79
1049;1969.26;573.748;1.79
1050;1979.03;569.842;1.79
1051;1986.35;565.935;1.79
1052;1969.26;581.561;1.79
1053;1942.1;575.701;1.8
1054;1939.66;587.42;1.8
1055;1981.47;548.112;1.8
1056;2003.75;573.748;1.8
1057;2018.7;597.43;1.8
1058;2015.96;540.056;1.8
1059;1983.91;571.795;1.8
1060;1954.31;573.748;1.8
1061;1956.75;579.608;1.8
1062;1979.03;563.738;1.8
1063;1988.8;563.738;1.8
1064;1991.54;559.832;1.8
1065;1974.15;597.43;1.8
1066;1937.22;569.842;1.8
1067;1910.06;553.972;1.8
1068;1937.22;611.347;1.8
1069;1969.26;571.795;1.81001
1070;1981.47;565.935;1.81001
1071;1986.35;565.935;1.81001
1072;1971.71;579.608;1.81001
1073;1942.1;581.561;1.81001
1074;1942.1;585.467;1.81001
1075;1983.91;552.019;1.81001
1076;2006.19;579.608;1.81001
1077;2018.7;587.42;1.81001
1078;2018.7;540.056;1.81001
1079;1988.8;571.795;1.81001
1080;1954.31;581.561;1.81001
1081;1956.75;579.608;1.81001
1082;1981.47;567.888;1.81001
1083;1991.54;561.785;1.81001
1084;1991.54;563.738;1.82
1085;1974.15;593.524;1.82
1086;1937.22;559.832;1.82
1087;1912.5;561.785;1.82
1088;1942.1;605.243;1.82
1089;1971.71;573.748;1.82
1090;1983.91;563.738;1.82
1091;1986.35;563.738;1.82
1092;1971.71;575.701;1.82
1093;1942.1;585.467;1.82
1094;1939.66;581.561;1.82
1095;1983.91;555.925;1.82
1096;2008.63;587.42;1.82
1097;2021.15;583.514;1.82
1098;2018.7;546.159;1.82
1099;1988.8;571.795;1.83
1100;1956.75;581.561;1.83
1101;1956.75;579.608;1.83
1102;1983.91;561.785;1.83
1103;1993.98;567.888;1.83
1104;1993.98;552.019;1.83
1105;1979.03;599.384;1.83
1106;1939.66;575.701;1.83
1107;1912.5;542.009;1.83
1108;1942.1;601.337;1.83
1109;1971.71;577.654;1.83
1110;1983.91;573.748;1.83
1111;1991.54;563.738;1.83
1112;1974.15;581.561;1.83
1113;1944.54;571.795;1.83
1114;1942.1;591.571;1.84
1115;1988.8;548.112;1.84
1116;2008.63;569.842;1.84
1117;2023.59;597.43;1.84
1118;2021.15;540.056;1.84
1119;1991.54;569.842;1.84
1120;1959.19;573.748;1.84
1121;1961.63;581.561;1.84
1122;1983.91;563.738;1.84
1123;1996.43;569.842;1.84
1124;1993.98;555.925;1.84
1125;1979.03;599.384;1.84
1126;1942.1;573.748;1.84
1127;1917.38;548.112;1.84
1128;1944.54;607.196;1.84
1129;1974.15;571.795;1.85001
1130;1983.91;569.842;1.85001
1131;1991.54;563.738;1.85001
1132;1976.59;581.561;1.85001
1133;1944.54;579.608;1.85001
1134;1942.1;587.42;1.85001
1135;1986.35;550.066;1.85001
1136;2011.07;575.701;1.85001
1137;2023.59;591.571;1.85001
1138;2023.59;538.102;1.85001
1139;1991.54;569.842;1.85001
1140;1959.19;573.748;1.85001
1141;1961.63;581.561;1.85001
1142;1986.35;565.935;1.85001
1143;1993.98;561.785;1.85001
1144;1996.43;559.832;1.86
1145;1979.03;595.477;1.86
1146;1942.1;565.935;1.86
1147;1914.94;555.925;1.86
1148;1949.43;609.149;1.86
1149;1974.15;571.795;1.86
1150;1986.35;563.738;1.86
1151;1993.98;565.935;1.86
1152;1976.59;577.654;1.86
1153;1949.43;581.561;1.86
1154;1944.54;583.514;1.86
1155;1991.54;552.019;1.86
1156;2011.07;579.608;1.86
1157;2026.03;587.42;1.86
1158;2023.59;540.056;1.86
1159;1996.43;571.795;1.87
1160;1961.63;577.654;1.87
1161;1964.38;577.654;1.87
1162;1988.8;565.935;1.87
1163;1996.43;555.925;1.87
1164;1998.87;565.935;1.87
1165;1983.91;591.571;1.87
1166;1944.54;559.832;1.87
1167;1919.82;561.785;1.87
1168;1949.43;603.29;1.87
1169;1979.03;571.795;1.87
1170;1988.8;561.785;1.87
1171;1993.98;565.935;1.87
1172;1981.47;577.654;1.87
1173;1951.87;587.42;1.88
1174;1946.99;579.608;1.88
1175;1991.54;555.925;1.88
1176;2015.96;589.618;1.88
1177;2030.91;581.561;1.88
1178;2026.03;536.149;1.88
1179;1998.87;571.795;1.88
1180;1966.82;573.748;1.88
1181;1966.82;579.608;1.88
1182;1993.98;563.738;1.88
1183;2001.31;559.832;1.88
1184;2001.31;559.832;1.88
1185;1986.35;593.524;1.88
1186;1949.43;567.888;1.88
1187;1922.27;555.925;1.88
1188;1951.87;609.149;1.89
1189;1981.47;569.842;1.89
1190;1991.54;565.935;1.89
1191;1998.87;565.935;1.89
1192;1981.47;575.701;1.89
1193;1954.31;581.561;1.89
1194;1949.43;583.514;1.89
1195;1996.43;553.972;1.89
1196;2021.15;581.561;1.89
1197;2030.91;587.42;1.89
1198;2030.91;542.009;1.89
1199;2001.31;569.842;1.89
1200;1964.38;577.654;1.89
1201;1969.26;579.608;1.89
1202;1996.43;565.935;1.9
1203;2003.75;555.925;1.9
1204;2003.75;563.738;1.9
1205;1988.8;591.571;1.9
1206;1949.43;557.878;1.9
1207;1924.71;561.785;1.9
1208;1954.31;603.29;1.9
1209;1983.91;575.701;1.9
1210;1996.43;561.785;1.9
1211;1998.87;563.738;1.9
1212;1983.91;573.748;1.9
1213;1954.31;587.42;1.9
1214;1951.87;577.654;1.9
1215;1998.87;555.925;1.9
1216;2023.59;567.888;1.9
1217;2030.91;599.384;1.91
1218;2030.91;544.206;1.91
1219;2006.19;569.842;1.91
1220;1971.71;565.935;1.91
1221;1976.59;581.561;1.91
1222;1998.87;561.785;1.91
1223;2006.19;569.842;1.91
1224;2008.63;552.019;1.91
1225;1991.54;599.384;1.91
1226;1951.87;573.748;1.91
1227;1924.71;544.206;1.91
1228;1956.75;605.243;1.91
1229;1986.35;575.701;1.91
1230;1993.98;571.795;1.91
1231;2003.75;563.738;1.92001
1232;1983.91;581.561;1.92001
1233;1954.31;575.701;1.92001
1234;1954.31;587.42;1.92001
1235;2001.31;546.159;1.92001
1236;2023.59;571.795;1.92001
1237;2038.24;597.43;1.92001
1238;2035.79;538.102;1.92001
1239;2003.75;569.842;1.92001
1240;1974.15;571.795;1.92001
1241;1974.15;577.654;1.92001
1242;1998.87;563.738;1.92001
1243;2006.19;563.738;1.92001
1244;2008.63;553.972;1.92001
1245;1993.98;595.477;1.92001
1246;1954.31;569.842;1.93
1247;1927.15;550.066;1.93
1248;1956.75;609.149;1.93
1249;1986.35;571.795;1.93
1250;1998.87;569.842;1.93
1251;2001.31;563.738;1.93
1252;1988.8;581.561;1.93
1253;1959.19;577.654;1.93
1254;1956.75;587.42;1.93
1255;2001.31;548.112;1.93
1256;2026.03;575.701;1.93
1257;2038.24;589.618;1.93
1258;2035.79;536.149;1.93
1259;2006.19;567.888;1.93
1260;1971.71;573.748;1.94
1261;1976.59;579.608;1.94
1262;1998.87;563.738;1.94
1263;2011.07;559.832;1.94
1264;2008.63;559.832;1.94
1265;1993.98;593.524;1.94
1266;1954.31;563.738;1.94
1267;1927.15;553.972;1.94
1268;1961.63;609.149;1.94
1269;1991.54;571.795;1.94
1270;1998.87;563.738;1.94
1271;2006.19;563.738;1.94
1272;1991.54;577.654;1.94
1273;1961.63;583.514;1.94
1274;1961.63;581.561;1.95
1275;2003.75;555.925;1.95
1276;2028.47;581.561;1.95
1277;2043.12;583.514;1.95
1278;2040.68;544.206;1.95
1279;2011.07;569.842;1.95
1280;1976.59;577.654;1.95
1281;1981.47;579.608;1.95
1282;2008.63;565.935;1.95
1283;2015.96;553.972;1.95
1284;2015.96;563.738;1.95
1285;1998.87;587.42;1.95
1286;1961.63;555.925;1.95
1287;1934.47;561.785;1.95
1288;1966.82;601.337;1.95
1289;1996.43;571.795;1.96
1290;2011.07;561.785;1.96
1291;2013.52;563.738;1.96
1292;1996.43;585.467;1.96
1293;1966.82;569.842;1.96
1294;1966.82;591.571;1.96
1295;2008.63;546.159;1.96
1296;2033.35;567.888;1.96
1297;2043.12;599.384;1.96
1298;2043.12;542.009;1.96
1299;2013.52;567.888;1.96
1300;1979.03;567.888;1.96
1301;1983.91;581.561;1.96
1302;2008.63;561.785;1.96
1303;2015.96;567.888;1.97
1304;2015.96;552.019;1.97
1305;2001.31;595.477;1.97
1306;1964.38;571.795;1.97
1307;1937.22;546.159;1.97
1308;1966.82;603.29;1.97
1309;1996.43;573.748;1.97
1310;2008.63;573.748;1.97
1311;2015.96;561.785;1.97
1312;2001.31;579.608;1.97
1313;1966.82;573.748;1.97
1314;1964.38;589.618;1.97
1315;2011.07;544.206;1.97
1316;2033.35;571.795;1.97
1317;2048.31;595.477;1.97
1318;2043.12;536.149;1.98
1319;2015.96;567.888;1.98
1320;1983.91;571.795;1.98
1321;1986.35;577.654;1.98
1322;2013.52;561.785;1.98
1323;2021.15;563.738;1.98
1324;2021.15;553.972;1.98
1325;2003.75;595.477;1.98
1326;1966.82;565.935;1.98
1327;1937.22;552.019;1.98
1328;1969.26;607.196;1.98
1329;1998.87;571.795;1.98
1330;2011.07;567.888;1.98
1331;2015.96;563.738;1.98
1332;2003.75;579.608;1.99001
1333;1971.71;577.654;1.99001
1334;1969.26;585.467;1.99001
1335;2013.52;548.112;1.99001
1336;2038.24;575.701;1.99001
1337;2050.75;589.618;1.99001
1338;2048.31;536.149;1.99001
1339;2021.15;569.842;1.99001
1340;1986.35;573.748;1.99001
1341;1988.8;579.608;1.99001
1342;2015.96;563.738;1.99001
1343;2026.03;555.925;1.99001
1344;2026.03;559.832;1.99001
1345;2008.63;591.571;1.99001
1346;1971.71;563.738;1.99001
1347;1944.54;555.925;2
1348;1976.59;607.196;2
1349;2003.75;571.795;2
1350;2018.7;563.738;2
1351;2023.59;563.738;2
1352;2003.75;577.654;2
1353;1976.59;583.514;2
1354;1974.15;579.608;2
1355;2018.7;553.972;2
1356;2040.68;583.514;2
1357;2055.63;585.467;2
1358;2053.19;538.102;2
1359;2023.59;567.888;2
1360;1986.35;577.654;2
1361;1991.54;577.654;2.01
1362;2015.96;563.738;2.01
1363;2023.59;553.972;2.01
1364;2026.03;565.935;2.01
1365;2008.63;587.42;2.01
1366;1974.15;555.925;2.01
1367;1946.99;550.066;2.01
1368;1976.59;609.149;2.01
1369;2006.19;569.842;2.01
1370;2018.7;563.738;2.01
1371;2026.03;563.738;2.01
1372;2008.63;577.654;2.01
1373;1979.03;579.608;2.01
1374;1976.59;583.514;2.01
1375;2023.59;550.066;2.01
1376;2045.87;575.701;2.01
1377;2060.51;587.42;2.02
1378;2055.63;538.102;2.02
1379;2028.47;569.842;2.02
1380;1991.54;575.701;2.02
1381;1996.43;577.654;2.02
1382;2021.15;563.738;2.02
1383;2030.91;559.832;2.02
1384;2030.91;557.878;2.02
1385;2015.96;589.618;2.02
1386;1976.59;561.785;2.02
1387;1949.43;553.972;2.02
1388;1983.91;605.243;2.02
1389;2013.52;571.795;2.02
1390;2026.03;563.738;2.02
1391;2028.47;563.738;2.03001
1392;2013.52;573.748;2.03001
1393;1983.91;585.467;2.03001
1394;1979.03;579.608;2.03001
1395;2023.59;553.972;2.03001
1396;2048.31;583.514;2.03001
1397;2062.96;581.561;2.03001
1398;2058.07;540.056;2.03001
1399;2028.47;567.888;2.03001
1400;1993.98;577.654;2.03001
1401;1998.87;579.608;2.03001
1402;2026.03;561.785;2.03001
1403;2030.91;553.972;2.03001
1404;2033.35;561.785;2.03001
1405;2015.96;597.43;2.04
1406;1979.03;573.748;2.04
1407;1951.87;540.056;2.04
1408;1983.91;599.384;2.04
1409;2013.52;571.795;2.04
1410;2028.47;573.748;2.04
1411;2030.91;559.832;2.04
1412;2015.96;577.654;2.04
1413;1986.35;569.842;2.04
1414;1983.91;591.571;2.04
1415;2028.47;546.159;2.04
1416;2053.19;569.842;2.04
1417;2062.96;595.477;2.04
1418;2062.96;540.056;2.05
1419;2033.35;567.888;2.05
1420;1996.43;567.888;2.05
1421;2001.31;579.608;2.05
1422;2028.47;559.832;2.05
1423;2035.79;567.888;2.05
1424;2040.68;552.019;2.05
1425;2023.59;595.477;2.05
1426;1983.91;571.795;2.05
1427;1954.31;544.206;2.05
1428;1986.35;605.243;2.05
1429;2018.7;573.748;2.05
1430;2030.91;569.842;2.05
1431;2033.35;561.785;2.05
1432;2021.15;577.654;2.06001
1433;1988.8;573.748;2.06001
1434;1986.35;587.42;2.06001
1435;2028.47;544.206;2.06001
1436;2058.07;571.795;2.06001
1437;2067.84;593.524;2.06001
1438;2067.84;534.196;2.06001
1439;2038.24;569.842;2.06001
1440;2001.31;569.842;2.06001
1441;2003.75;579.608;2.06001
1442;2030.91;561.785;2.06001
1443;2043.12;561.785;2.06001
1444;2043.12;553.972;2.06001
1445;2026.03;591.571;2.07
1446;1988.8;567.888;2.07
1447;1959.19;550.066;2.07
1448;1991.54;611.347;2.07
1449;2023.59;569.842;2.07
1450;2033.35;565.935;2.07
1451;2038.24;561.785;2.07
1452;2021.15;575.701;2.07
1453;1991.54;577.654;2.07
1454;1988.8;583.514;2.07
1455;2035.79;548.112;2.07
1456;2062.96;575.701;2.07
1457;2073.03;591.571;2.07
1458;2073.03;534.196;2.08
1459;2043.12;569.842;2.08
1460;2006.19;575.701;2.08
1461;2011.07;577.654;2.08
1462;2038.24;563.738;2.08
1463;2045.87;559.832;2.08
1464;2048.31;559.832;2.08
1465;2030.91;591.571;2.08
1466;1991.54;559.832;2.08
1467;1966.82;557.878;2.08
1468;1996.43;603.29;2.08
1469;2028.47;569.842;2.08
1470;2040.68;561.785;2.08
1471;2043.12;563.738;2.08
1472;2028.47;575.701;2.09
1473;1998.87;585.467;2.09
1474;1993.98;579.608;2.09
1475;2040.68;552.019;2.09
1476;2067.84;583.514;2.09
1477;2077.91;583.514;2.09
1478;2075.47;542.009;2.09
1479;2048.31;571.795;2.09
1480;2011.07;577.654;2.09
1481;2015.96;579.608;2.09
1482;2045.87;557.878;2.09
1483;2050.75;565.935;2.09
1484;2053.19;548.112;2.09
1485;2033.35;595.477;2.10001
1486;1996.43;571.795;2.10001
1487;1969.26;540.056;2.10001
1488;2001.31;599.384;2.10001
1489;2033.35;573.748;2.10001
1490;2045.87;573.748;2.10001
1491;2048.31;559.832;2.10001
1492;2030.91;579.608;2.10001
1493;2001.31;571.795;2.10001
1494;2001.31;589.618;2.10001
1495;2043.12;546.159;2.10001
1496;2067.84;567.888;2.10001
1497;2082.79;597.43;2.11
1498;2080.35;540.056;2.11
1499;2050.75;569.842;2.11
1500;2015.96;567.888;2.11
1501;2018.7;579.608;2.11
1502;2043.12;561.785;2.11
1503;2055.63;563.738;2.11
1504;2055.63;552.019;2.11
1505;2040.68;595.477;2.11
1506;2001.31;569.842;2.11
1507;1974.15;548.112;2.11
1508;2006.19;603.29;2.11
1509;2038.24;569.842;2.12
1510;2050.75;567.888;2.12
1511;2053.19;561.785;2.12
1512;2038.24;579.608;2.12
1513;2006.19;571.795;2.12
1514;2003.75;585.467;2.12
1515;2050.75;544.206;2.12
1516;2075.47;571.795;2.12
1517;2087.68;591.571;2.12
1518;2085.23;532.243;2.12
1519;2058.07;567.888;2.12
1520;2023.59;571.795;2.12
1521;2026.03;577.654;2.12
1522;2053.19;561.785;2.13
1523;2060.51;559.832;2.13
1524;2062.96;553.972;2.13
1525;2043.12;593.524;2.13
1526;2006.19;567.888;2.13
1527;1976.59;550.066;2.13
1528;2008.63;607.196;2.13
1529;2043.12;569.842;2.13
1530;2053.19;563.738;2.13
1531;2058.07;561.785;2.13
1532;2040.68;575.701;2.13
1533;2008.63;579.608;2.13
1534;2006.19;579.608;2.14
1535;2053.19;548.112;2.14
1536;2077.91;577.654;2.14
1537;2092.56;587.42;2.14
1538;2092.56;536.149;2.14
1539;2060.51;567.888;2.14
1540;2023.59;573.748;2.14
1541;2028.47;577.654;2.14
1542;2055.63;563.738;2.14
1543;2062.96;555.925;2.14
1544;2065.4;559.832;2.14
1545;2048.31;591.571;2.14
1546;2008.63;557.878;2.14
1547;1983.91;555.925;2.15
1548;2013.52;603.29;2.15
1549;2043.12;569.842;2.15
1550;2058.07;559.832;2.15
1551;2060.51;561.785;2.15
1552;2045.87;571.795;2.15
1553;2013.52;581.561;2.15
1554;2013.52;577.654;2.15
1555;2058.07;552.019;2.15
1556;2082.79;581.561;2.15
1557;2097.44;577.654;2.15
1558;2092.56;530.29;2.15
1559;2062.96;565.935;2.16
1560;2028.47;571.795;2.16
1561;2030.91;577.654;2.16
1562;2060.51;561.785;2.16
1563;2067.84;559.832;2.16
1564;2070.28;553.972;2.16
1565;2050.75;593.524;2.16
1566;2013.52;561.785;2.16
1567;1983.91;550.066;2.16
1568;2015.96;611.347;2.16
1569;2048.31;567.888;2.16
1570;2060.51;561.785;2.16
1571;2062.96;559.832;2.17001
1572;2048.31;573.748;2.17001
1573;2018.7;579.608;2.17001
1574;2015.96;581.561;2.17001
1575;2062.96;546.159;2.17001
1576;2087.68;575.701;2.17001
1577;2100.19;585.467;2.17001
1578;2100.19;536.149;2.17001
1579;2067.84;567.888;2.17001
1580;2033.35;573.748;2.17001
1581;2033.35;575.701;2.17001
1582;2062.96;561.785;2.18
1583;2073.03;553.972;2.18
1584;2075.47;559.832;2.18
1585;2055.63;589.618;2.18
1586;2015.96;557.878;2.18
1587;1991.54;557.878;2.18
1588;2026.03;603.29;2.18
1589;2055.63;567.888;2.18
1590;2067.84;559.832;2.18
1591;2073.03;561.785;2.18
1592;2055.63;573.748;2.18
1593;2026.03;581.561;2.18
1594;2023.59;577.654;2.19
1595;2067.84;553.972;2.19
1596;2095;565.935;2.19
1597;2105.07;597.43;2.19
1598;2102.63;540.056;2.19
1599;2073.03;567.888;2.19
1600;2038.24;563.738;2.19
1601;2043.12;575.701;2.19
1602;2070.28;557.878;2.19
1603;2077.91;565.935;2.19
1604;2077.91;548.112;2.19
1605;2062.96;595.477;2.19
1606;2023.59;569.842;2.2
1607;1996.43;538.102;2.2
1608;2028.47;601.337;2.2
1609;2058.07;569.842;2.2
1610;2070.28;569.842;2.2
1611;2075.47;561.785;2.2
1612;2060.51;577.654;2.2
1613;2028.47;571.795;2.2
1614;2026.03;585.467;2.2
1615;2075.47;542.009;2.2
1616;2100.19;569.842;2.2
1617;2114.84;595.477;2.21
1618;2109.95;534.196;2.21
1619;2080.35;565.935;2.21
1620;2045.87;567.888;2.21
1621;2045.87;573.748;2.21
1622;2073.03;557.878;2.21
1623;2085.23;561.785;2.21
1624;2085.23;552.019;2.21
1625;2067.84;593.524;2.21
1626;2028.47;567.888;2.21
1627;2001.31;546.159;2.21
1628;2033.35;605.243;2.22
1629;2062.96;569.842;2.22
1630;2077.91;565.935;2.22
1631;2080.35;561.785;2.22
1632;2062.96;575.701;2.22
1633;2033.35;573.748;2.22
1634;2030.91;583.514;2.22
1635;2077.91;542.009;2.22
1636;2102.63;569.842;2.22
1637;2114.84;589.618;2.22
1638;2117.28;532.243;2.22
1639;2085.23;565.935;2.22
1640;2048.31;571.795;2.23
1641;2053.19;575.701;2.23
1642;2080.35;557.878;2.23
1643;2090.12;559.832;2.23
1644;2092.56;555.925;2.23
1645;2073.03;591.571;2.23
1646;2033.35;563.738;2.23
1647;2003.75;550.066;2.23
1648;2035.79;607.196;2.23
1649;2070.28;567.888;2.23
1650;2082.79;561.785;2.23
1651;2087.68;559.832;2.24001
1652;2073.03;575.701;2.24001
1653;2038.24;577.654;2.24001
1654;2038.24;579.608;2.24001
1655;2085.23;546.159;2.24001
1656;2112.4;575.701;2.24001
1657;2124.6;583.514;2.24001
1658;2119.72;534.196;2.24001
1659;2090.12;567.888;2.24001
1660;2055.63;575.701;2.24001
1661;2055.63;575.701;2.24001
1662;2085.23;561.785;2.25
1663;2095;553.972;2.25
1664;2095;557.878;2.25
1665;2080.35;585.467;2.25
1666;2040.68;555.925;2.25
1667;2011.07;557.878;2.25
1668;2045.87;601.337;2.25
1669;2075.47;565.935;2.25
1670;2087.68;557.878;2.25
1671;2095;561.785;2.25
1672;2075.47;573.748;2.25
