<WeldAnalyseData xmlns:i="http:www.w3.org/2001/XMLSchema-instance">
<WeldParameter>
<TimeStamp>DT#2024-01-25-09:44:22</TimeStamp>
<Generator>SG-22-10000</Generator>
<GenFreq>20</GenFreq>
<MaxForce>8000</MaxForce>
<MaxPower>10000</MaxPower>
<RunupPressure>1.5</RunupPressure>
<RunupDist>10</RunupDist>
<RunPress>0.8</RunPress>
<ShakeDelay>0.03</ShakeDelay>
<ShakeTime>0.3</ShakeTime>
<RunBackPress1>6</RunBackPress1>
<RunBackPress2>2</RunBackPress2>
<RunBackDist>1</RunBackDist>
<TrigValue>500</TrigValue>
<TrigModeUnit>W</TrigModeUnit>
<WeldModeUnit>Ws</WeldModeUnit>
<PressNr>0</PressNr>
<MaxLoss>1500</MaxLoss>
</WeldParameter>
<WeldSets>
<WeldSet>
<PressRiseTime>0</PressRiseTime>
<RunPressure>1</RunPressure>
<Amplitude>86</Amplitude>
<WeldMode>3270</WeldMode>
</WeldSet>
</WeldSets>
<WeldValue>
<WeldNr>2986</WeldNr>
<RecipeName>RickStyle</RecipeName>
<WeldTime>1692</WeldTime>
<DistDiff>2.22</DistDiff>
<DistAbs>78.05</DistAbs>
<Energy>3271.81</Energy>
<MaxPower>2145.53</MaxPower>
<CycleTime>6040</CycleTime>
<TrigForce>502.701</TrigForce>
<TrigDist>75.83</TrigDist>
<RunSpeed>68.7489</RunSpeed>
<MaxForce>625.019</MaxForce>
<LossPower>323.42</LossPower>
</WeldValue>
</WeldAnalyseData>
#CSV-START#
ms;Power[W];Force[N];Distance[mm]
1;0;0;0
2;0;500.748;0
3;0;502.701;0
4;0;502.701;0
5;0;502.701;0
6;0;504.654;0
7;0;506.607;0
8;0;488.784;0.00999451
9;0;431.654;0.0199966
10;0;415.784;0.0400009
11;0;380.139;0.0699997
12;29.3741;368.419;0.0999985
13;93.7681;350.597;0.139999
14;170.37;348.643;0.18
15;251.854;314.951;0.220001
16;318.384;312.998;0.259995
17;377.59;326.914;0.299995
18;439.238;281.503;0.339996
19;498.749;307.138;0.379997
20;553.072;311.045;0.409996
21;612.278;324.961;0.439995
22;676.366;319.102;0.470001
23;745.643;326.914;0.5
24;807.291;319.102;0.519997
25;864.055;362.56;0.540001
26;903.729;352.55;0.559998
27;945.54;336.68;0.57
28;1009.63;397.961;0.580002
29;1069.14;384.045;0.589996
30;1115.83;396.008;0.599998
31;1157.95;388.195;0.610001
32;1187.55;411.878;0.610001
33;1207.39;409.925;0.619995
34;1239.43;429.456;0.619995
35;1298.64;390.149;0.629997
36;1343.2;411.878;0.639999
37;1382.56;439.467;0.639999
38;1412.17;384.045;0.650002
39;1419.49;417.737;0.650002
40;1419.49;413.831;0.659996
41;1444.21;429.456;0.669998
42;1486.33;417.737;0.669998
43;1518.37;425.55;0.68
44;1543.09;405.774;0.68
45;1555.3;451.186;0.689995
46;1545.53;429.456;0.699997
47;1543.09;405.774;0.699997
48;1594.97;470.962;0.709999
49;1639.53;435.56;0.720001
50;1674.02;437.513;0.720001
51;1701.18;429.456;0.729996
52;1710.94;447.279;0.729996
53;1708.5;447.279;0.739998
54;1725.9;463.149;0.75
55;1787.55;421.644;0.75
56;1834.54;447.279;0.759995
57;1866.59;475.112;0.769997
58;1881.24;415.784;0.769997
59;1869.03;455.336;0.779999
60;1849.19;459.243;0.779999
61;1861.71;470.962;0.790001
62;1901.07;455.336;0.790001
63;1923.35;461.196;0.790001
64;1935.56;453.383;0.799995
65;1925.79;492.691;0.799995
66;1898.63;467.055;0.809998
67;1878.8;451.186;0.809998
68;1920.91;516.373;0.82
69;1965.16;479.019;0.82
70;1987.44;477.065;0.82
71;2004.84;470.962;0.830002
72;1995.07;484.878;0.830002
73;1967.91;490.738;0.830002
74;1972.79;498.795;0.839996
75;2032;463.149;0.839996
76;2068.93;482.925;0.849998
77;2088.76;516.373;0.849998
78;2091.2;453.383;0.860001
79;2066.48;486.831;0.860001
80;2032;484.878;0.860001
81;2032;502.701;0.869995
82;2064.04;484.878;0.869995
83;2076.56;492.691;0.879997
84;2081.44;477.065;0.879997
85;2064.04;524.43;0.879997
86;2022.23;500.748;0.889999
87;1989.88;470.962;0.889999
88;2024.67;540.056;0.889999
89;2066.48;504.654;0.900002
90;2083.88;506.607;0.900002
91;2091.2;494.644;0.900002
92;2079;516.373;0.909996
93;2046.65;510.514;0.909996
94;2041.76;528.336;0.909996
95;2096.09;482.925;0.919998
96;2130.88;512.467;0.919998
97;2145.53;536.149;0.919998
98;2145.53;472.915;0.93
99;2113.48;510.514;0.93
100;2071.37;510.514;0.93
101;2066.48;524.43;0.939995
102;2096.09;502.701;0.939995
103;2108.6;508.56;0.939995
104;2108.6;498.795;0.949997
105;2086.32;540.056;0.949997
106;2041.76;514.42;0.949997
107;2007.28;488.784;0.949997
108;2036.88;555.925;0.959999
109;2073.81;518.326;0.959999
110;2091.2;518.326;0.959999
111;2096.09;508.56;0.970001
112;2076.56;522.477;0.970001
113;2046.65;522.477;0.970001
114;2036.88;538.102;0.970001
115;2088.76;494.644;0.979996
116;2120.81;522.477;0.979996
117;2135.76;544.206;0.979996
118;2133.32;482.925;0.979996
119;2100.97;520.524;0.989998
120;2061.6;524.43;0.989998
121;2051.84;532.243;0.989998
122;2081.44;518.326;0.989998
123;2088.76;516.373;1
124;2091.2;512.467;1
125;2068.93;548.112;1
126;2027.12;522.477;1
127;1985;506.607;1.00999
128;2014.6;567.888;1.00999
129;2051.84;534.196;1.00999
130;2066.48;534.196;1.00999
131;2068.93;518.326;1.00999
132;2054.28;542.009;1.02
133;2019.49;528.336;1.02
134;2007.28;553.972;1.02
135;2056.72;512.467;1.02
136;2086.32;524.43;1.03
137;2098.53;565.935;1.03
138;2096.09;508.56;1.03
139;2066.48;526.383;1.03
140;2029.56;524.43;1.03
141;2017.04;544.206;1.04
142;2041.76;516.373;1.04
143;2051.84;532.243;1.04
144;2049.39;506.607;1.04
145;2032;553.972;1.04
146;1987.44;532.243;1.05
147;1950.51;500.748;1.05
148;1975.23;559.832;1.05
149;2014.6;538.102;1.05
150;2029.56;540.056;1.05
151;2034.44;522.477;1.05
152;2019.49;546.159;1.06
153;1987.44;534.196;1.06
154;1980.12;561.785;1.06
155;2024.67;514.42;1.06
156;2056.72;530.29;1.06
157;2073.81;569.842;1.07
158;2071.37;506.607;1.07
159;2041.76;532.243;1.07
160;2002.4;530.29;1.07
161;1989.88;548.112;1.07
162;2017.04;526.383;1.07
163;2027.12;538.102;1.08
164;2027.12;516.373;1.08
165;2007.28;567.888;1.08
166;1965.16;542.009;1.08
167;1928.24;510.514;1.08
168;1955.4;573.748;1.09
169;1992.32;544.206;1.09
170;2009.72;546.159;1.09
171;2012.16;530.29;1.09
172;1999.95;552.019;1.09
173;1965.16;542.009;1.09
174;1955.4;567.888;1.1
175;2002.4;518.326;1.1
176;2032;542.009;1.1
177;2049.39;575.701;1.1
178;2049.39;512.467;1.1
179;2022.23;540.056;1.1
180;1982.56;538.102;1.11
181;1972.79;555.925;1.11
182;1997.51;534.196;1.11
183;2007.28;542.009;1.11
184;2004.84;524.43;1.11
185;1989.88;573.748;1.11
186;1948.07;548.112;1.11
187;1910.84;516.373;1.12
188;1935.56;581.561;1.12
189;1970.35;548.112;1.12
190;1987.44;550.066;1.12
191;1992.32;532.243;1.12
192;1980.12;555.925;1.12
193;1948.07;548.112;1.13
194;1935.56;567.888;1.13
195;1977.68;520.524;1.13
196;2014.6;546.159;1.13
197;2029.56;575.701;1.13
198;2029.56;510.514;1.13
199;2002.4;548.112;1.14
200;1962.72;546.159;1.14
201;1950.51;559.832;1.14
202;1970.35;538.102;1.14
203;1985;548.112;1.14
204;1985;532.243;1.14
205;1967.91;577.654;1.14
206;1910.84;552.019;1.15
207;1893.75;526.383;1.15
208;1928.24;593.524;1.15
209;1955.4;552.019;1.15
210;1965.16;552.019;1.15
211;1967.91;544.206;1.15
212;1948.07;561.785;1.15
213;1918.47;555.925;1.16
214;1928.24;571.795;1.16
215;1975.23;528.336;1.16
216;2002.4;553.972;1.16
217;2012.16;579.608;1.16
218;2002.4;516.373;1.16
219;1970.35;550.066;1.16
220;1938;553.972;1.17
221;1943.19;565.935;1.17
222;1967.91;546.159;1.17
223;1967.91;546.159;1.17
224;1967.91;538.102;1.17
225;1940.75;577.654;1.17
226;1901.07;552.019;1.17
227;1878.8;532.243;1.17
228;1918.47;595.477;1.18
229;1948.07;557.878;1.18
230;1960.28;553.972;1.18
231;1960.28;548.112;1.18
232;1938;561.785;1.18
233;1913.59;563.738;1.18
234;1918.47;571.795;1.18
235;1967.91;540.056;1.18
236;1989.88;553.972;1.18999
237;2002.4;591.571;1.18999
238;1992.32;536.149;1.18999
239;1960.28;550.066;1.18999
240;1928.24;548.112;1.18999
241;1933.12;567.888;1.18999
242;1957.84;546.159;1.18999
243;1962.72;555.925;1.18999
244;1960.28;530.29;1.2
245;1933.12;581.561;1.2
246;1893.75;561.785;1.2
247;1871.47;524.43;1.2
248;1910.84;583.514;1.2
249;1935.56;563.738;1.2
250;1948.07;563.738;1.2
251;1950.51;546.159;1.2
252;1933.12;571.795;1.21
253;1903.52;559.832;1.21
254;1913.59;583.514;1.21
255;1957.84;540.056;1.21
256;1985;557.878;1.21
257;1995.07;593.524;1.21
258;1989.88;534.196;1.21
259;1957.84;555.925;1.21
260;1920.91;553.972;1.22
261;1925.79;571.795;1.22
262;1950.51;550.066;1.22
263;1952.96;559.832;1.22
264;1950.51;534.196;1.22
265;1930.68;589.618;1.22
266;1888.87;563.738;1.22
267;1864.15;528.336;1.22
268;1903.52;593.524;1.22
269;1930.68;567.888;1.22
270;1943.19;567.888;1.23
271;1945.63;550.066;1.23
272;1925.79;573.748;1.23
273;1898.63;561.785;1.23
274;1903.52;587.42;1.23
275;1950.51;538.102;1.23
276;1972.79;559.832;1.23
277;1987.44;595.477;1.23
278;1980.12;536.149;1.23
279;1945.63;561.785;1.24
280;1916.03;559.832;1.24
281;1918.47;575.701;1.24
282;1940.75;553.972;1.24
283;1948.07;561.785;1.24
284;1945.63;544.206;1.24
285;1923.35;595.477;1.24
286;1883.68;567.888;1.24
287;1861.71;536.149;1.24
288;1896.19;601.337;1.25
289;1920.91;569.842;1.25
290;1935.56;573.748;1.25
291;1940.75;555.925;1.25
292;1918.47;577.654;1.25
293;1891.31;567.888;1.25
294;1896.19;591.571;1.25
295;1945.63;542.009;1.25
296;1970.35;567.888;1.25
297;1980.12;601.337;1.25
298;1975.23;532.243;1.25999
299;1945.63;569.842;1.25999
300;1910.84;567.888;1.25999
301;1913.59;581.561;1.25999
302;1940.75;561.785;1.25999
303;1943.19;567.888;1.25999
304;1945.63;552.019;1.25999
305;1920.91;599.384;1.25999
306;1883.68;575.701;1.25999
307;1856.52;544.206;1.27
308;1891.31;611.347;1.27
309;1918.47;575.701;1.27
310;1933.12;575.701;1.27
311;1938;563.738;1.27
312;1918.47;581.561;1.27
313;1891.31;573.748;1.27
314;1893.75;595.477;1.27
315;1943.19;550.066;1.27
316;1965.16;575.701;1.27
317;1980.12;601.337;1.28
318;1975.23;536.149;1.28
319;1945.63;573.748;1.28
320;1908.4;573.748;1.28
321;1910.84;585.467;1.28
322;1930.68;567.888;1.28
323;1940.75;573.748;1.28
324;1943.19;561.785;1.28
325;1918.47;601.337;1.28
326;1881.24;575.701;1.28
327;1851.63;552.019;1.28
328;1888.87;619.16;1.29
329;1916.03;579.608;1.29
330;1928.24;577.654;1.29
331;1930.68;567.888;1.29
332;1913.59;583.514;1.29
333;1886.43;583.514;1.29
334;1888.87;597.43;1.29
335;1938;555.925;1.29
336;1962.72;583.514;1.29
337;1975.23;601.337;1.29
338;1970.35;542.009;1.3
339;1943.19;579.608;1.3
340;1908.4;579.608;1.3
341;1910.84;589.618;1.3
342;1930.68;567.888;1.3
343;1943.19;575.701;1.3
344;1940.75;555.925;1.3
345;1920.91;609.149;1.3
346;1878.8;583.514;1.3
347;1851.63;550.066;1.3
348;1883.68;617.206;1.3
349;1913.59;583.514;1.31
350;1923.35;585.467;1.31
351;1930.68;569.842;1.31
352;1913.59;589.618;1.31
353;1888.87;581.561;1.31
354;1886.43;603.29;1.31
355;1933.12;555.925;1.31
356;1962.72;579.608;1.31
357;1972.79;611.347;1.31
358;1972.79;546.159;1.31
359;1940.75;577.654;1.31
360;1908.4;579.608;1.32
361;1908.4;593.524;1.32
362;1928.24;573.748;1.32
363;1935.56;579.608;1.32
364;1938;563.738;1.32
365;1920.91;609.149;1.32
366;1878.8;583.514;1.32
367;1851.63;555.925;1.32
368;1883.68;621.113;1.32
369;1910.84;585.467;1.32
370;1925.79;585.467;1.32
371;1930.68;571.795;1.33
372;1916.03;589.618;1.33
373;1886.43;585.467;1.33
374;1886.43;601.337;1.33
375;1930.68;557.878;1.33
376;1957.84;585.467;1.33
377;1972.79;609.149;1.33
378;1970.35;548.112;1.33
379;1940.75;583.514;1.33
380;1908.4;579.608;1.33
381;1903.52;593.524;1.33
382;1930.68;577.654;1.33
383;1938;575.701;1.34
384;1935.56;567.888;1.34
385;1918.47;607.196;1.34
386;1878.8;583.514;1.34
387;1849.19;561.785;1.34
388;1881.24;623.066;1.34
389;1913.59;585.467;1.34
390;1923.35;583.514;1.34
391;1930.68;575.701;1.34
392;1916.03;591.571;1.34
393;1888.87;589.618;1.34
394;1886.43;611.347;1.34
395;1933.12;569.842;1.34
396;1957.84;581.561;1.35
397;1972.79;619.16;1.35
398;1972.79;563.738;1.35
399;1943.19;575.701;1.35
400;1908.4;577.654;1.35
401;1903.52;593.524;1.35
402;1925.79;571.795;1.35
403;1935.56;581.561;1.35
404;1938;557.878;1.35
405;1918.47;607.196;1.35
406;1881.24;589.618;1.35
407;1851.63;550.066;1.35
408;1883.68;609.149;1.36
409;1913.59;591.571;1.36
410;1925.79;591.571;1.36
411;1933.12;571.795;1.36
412;1918.47;597.43;1.36
413;1891.31;583.514;1.36
414;1891.31;609.149;1.36
415;1935.56;565.935;1.36
416;1962.72;581.561;1.36
417;1980.12;619.16;1.36
418;1977.68;559.832;1.36
419;1950.51;577.654;1.36
420;1913.59;577.654;1.37
421;1910.84;595.477;1.37
422;1938;571.795;1.37
423;1945.63;581.561;1.37
424;1945.63;557.878;1.37
425;1925.79;611.347;1.37
426;1891.31;587.42;1.37
427;1859.26;550.066;1.37
428;1886.43;615.253;1.37
429;1918.47;589.618;1.37
430;1930.68;589.618;1.37
431;1935.56;571.795;1.37
432;1925.79;595.477;1.37
433;1896.19;585.467;1.38
434;1891.31;611.347;1.38
435;1938;559.832;1.38
436;1965.16;581.561;1.38
437;1980.12;617.206;1.38
438;1980.12;552.019;1.38
439;1950.51;579.608;1.38
440;1913.59;575.701;1.38
441;1908.4;595.477;1.38
442;1933.12;573.748;1.38
443;1940.75;583.514;1.38
444;1940.75;559.832;1.38
445;1925.79;615.253;1.38
446;1886.43;587.42;1.39
447;1854.08;553.972;1.39
448;1881.24;619.16;1.39
449;1913.59;587.42;1.39
450;1928.24;587.42;1.39
451;1930.68;571.795;1.39
452;1918.47;593.524;1.39
453;1893.75;585.467;1.39
454;1883.68;607.196;1.39
455;1930.68;557.878;1.39
456;1960.28;581.561;1.39
457;1977.68;613.3;1.39
458;1975.23;548.112;1.39
459;1950.51;579.608;1.39
460;1910.84;579.608;1.4
461;1908.4;593.524;1.4
462;1930.68;575.701;1.4
463;1938;581.561;1.4
464;1940.75;563.738;1.4
465;1923.35;611.347;1.4
466;1888.87;585.467;1.4
467;1851.63;555.925;1.4
468;1881.24;623.066;1.4
469;1916.03;583.514;1.4
470;1928.24;587.42;1.4
471;1933.12;573.748;1.4
472;1925.79;591.571;1.4
473;1898.63;583.514;1.41
474;1891.31;605.243;1.41
475;1933.12;559.832;1.41
476;1962.72;583.514;1.41
477;1980.12;611.347;1.41
478;1980.12;544.206;1.41
479;1952.96;581.561;1.41
480;1918.47;581.561;1.41
481;1908.4;595.477;1.41
482;1935.56;575.701;1.41
483;1940.75;577.654;1.41
484;1943.19;565.935;1.41
485;1925.79;609.149;1.41
486;1891.31;583.514;1.41
487;1859.26;559.832;1.42
488;1881.24;623.066;1.42
489;1916.03;585.467;1.42
490;1930.68;581.561;1.42
491;1938;575.701;1.42
492;1925.79;591.571;1.42
493;1901.07;587.42;1.42
494;1891.31;603.29;1.42
495;1935.56;559.832;1.42
496;1965.16;587.42;1.42
497;1977.68;605.243;1.42
498;1980.12;550.066;1.42
499;1952.96;583.514;1.42
500;1918.47;581.561;1.42
501;1908.4;593.524;1.43
502;1933.12;571.795;1.43
503;1943.19;579.608;1.43
504;1945.63;557.878;1.43
505;1928.24;603.29;1.43
506;1893.75;589.618;1.43
507;1856.52;552.019;1.43
508;1883.68;603.29;1.43
509;1913.59;589.618;1.43
510;1930.68;591.571;1.43
511;1935.56;571.795;1.43
512;1925.79;595.477;1.43
513;1898.63;585.467;1.43
514;1888.87;611.347;1.43
515;1933.12;565.935;1.43
516;1965.16;579.608;1.43999
517;1982.56;617.206;1.43999
518;1982.56;559.832;1.43999
519;1957.84;577.654;1.43999
520;1923.35;577.654;1.43999
521;1910.84;595.477;1.43999
522;1935.56;571.795;1.43999
523;1945.63;579.608;1.43999
524;1948.07;557.878;1.43999
525;1930.68;609.149;1.43999
526;1893.75;587.42;1.43999
527;1861.71;550.066;1.43999
528;1883.68;609.149;1.43999
529;1920.91;587.42;1.43999
530;1935.56;591.571;1.45
531;1943.19;571.795;1.45
532;1933.12;595.477;1.45
533;1905.96;583.514;1.45
534;1893.75;609.149;1.45
535;1938;557.878;1.45
536;1967.91;579.608;1.45
537;1982.56;615.253;1.45
538;1982.56;552.019;1.45
539;1962.72;579.608;1.45
540;1925.79;577.654;1.45
541;1910.84;595.477;1.45
542;1938;573.748;1.45
543;1950.51;583.514;1.45
544;1948.07;559.832;1.45
545;1933.12;613.3;1.46
546;1898.63;589.618;1.46
547;1861.71;552.019;1.46
548;1883.68;613.3;1.46
549;1916.03;587.42;1.46
550;1933.12;589.618;1.46
551;1940.75;573.748;1.46
552;1920.91;595.477;1.46
553;1893.75;583.514;1.46
554;1903.52;607.196;1.46
555;1952.96;557.878;1.46
556;1975.23;581.561;1.46
557;1985;615.253;1.46
558;1980.12;550.066;1.46
559;1948.07;581.561;1.47
560;1913.59;579.608;1.47
561;1925.79;595.477;1.47
562;1945.63;573.748;1.47
563;1950.51;583.514;1.47
564;1945.63;561.785;1.47
565;1923.35;613.3;1.47
566;1886.43;583.514;1.47
567;1861.71;553.972;1.47
568;1898.63;621.113;1.47
569;1925.79;585.467;1.47
570;1940.75;587.42;1.47
571;1940.75;573.748;1.47
572;1925.79;593.524;1.47
573;1898.63;583.514;1.47
574;1905.96;607.196;1.48
575;1952.96;557.878;1.48
576;1975.23;583.514;1.48
577;1987.44;613.3;1.48
578;1980.12;548.112;1.48
579;1950.51;583.514;1.48
580;1916.03;579.608;1.48
581;1920.91;595.477;1.48
582;1945.63;577.654;1.48
583;1950.51;581.561;1.48
584;1948.07;563.738;1.48
585;1925.79;609.149;1.48
586;1886.43;585.467;1.48
587;1861.71;555.925;1.48
588;1898.63;625.019;1.48
589;1928.24;585.467;1.49
590;1938;585.467;1.49
591;1940.75;573.748;1.49
592;1923.35;591.571;1.49
593;1896.19;585.467;1.49
594;1903.52;601.337;1.49
595;1952.96;559.832;1.49
596;1972.79;585.467;1.49
597;1987.44;607.196;1.49
598;1980.12;546.159;1.49
599;1950.51;581.561;1.49
600;1918.47;583.514;1.49
601;1923.35;595.477;1.49
602;1945.63;575.701;1.49
603;1950.51;573.748;1.49
604;1948.07;567.888;1.5
605;1925.79;607.196;1.5
606;1886.43;577.654;1.5
607;1864.15;561.785;1.5
608;1901.07;615.253;1.5
609;1928.24;583.514;1.5
610;1938;587.42;1.5
611;1940.75;571.795;1.5
612;1928.24;591.571;1.5
613;1901.07;583.514;1.5
614;1908.4;605.243;1.5
615;1952.96;555.925;1.5
616;1975.23;579.608;1.5
617;1987.44;613.3;1.5
618;1980.12;548.112;1.5
619;1948.07;579.608;1.50999
620;1916.03;579.608;1.50999
621;1920.91;595.477;1.50999
622;1945.63;573.748;1.50999
623;1950.51;581.561;1.50999
624;1948.07;561.785;1.50999
625;1928.24;609.149;1.50999
626;1891.31;583.514;1.50999
627;1861.71;553.972;1.50999
628;1898.63;619.16;1.50999
629;1923.35;585.467;1.50999
630;1933.12;583.514;1.50999
631;1940.75;571.795;1.50999
632;1920.91;591.571;1.50999
633;1893.75;583.514;1.50999
634;1898.63;603.29;1.52
635;1948.07;557.878;1.52
636;1975.23;583.514;1.52
637;1987.44;611.347;1.52
638;1982.56;548.112;1.52
639;1950.51;579.608;1.52
640;1916.03;579.608;1.52
641;1918.47;591.571;1.52
642;1943.19;573.748;1.52
643;1948.07;577.654;1.52
644;1948.07;563.738;1.52
645;1930.68;607.196;1.52
646;1886.43;581.561;1.52
647;1866.59;555.925;1.52
648;1903.52;621.113;1.52
649;1928.24;583.514;1.52
650;1940.75;581.561;1.53
651;1943.19;575.701;1.53
652;1928.24;589.618;1.53
653;1903.52;585.467;1.53
654;1903.52;601.337;1.53
655;1950.51;557.878;1.53
656;1975.23;583.514;1.53
657;1989.88;607.196;1.53
658;1985;546.159;1.53
659;1955.4;581.561;1.53
660;1920.91;579.608;1.53
661;1925.79;593.524;1.53
662;1945.63;571.795;1.53
663;1952.96;581.561;1.53
664;1952.96;552.019;1.53
665;1930.68;601.337;1.53
666;1891.31;583.514;1.54
667;1864.15;548.112;1.54
668;1901.07;603.29;1.54
669;1928.24;587.42;1.54
670;1940.75;587.42;1.54
671;1945.63;569.842;1.54
672;1928.24;593.524;1.54
673;1901.07;583.514;1.54
674;1901.07;607.196;1.54
675;1948.07;565.935;1.54
676;1975.23;577.654;1.54
677;1985;613.3;1.54
678;1982.56;557.878;1.54
679;1955.4;573.748;1.54
680;1918.47;573.748;1.54
681;1918.47;591.571;1.54
682;1943.19;569.842;1.55
683;1952.96;579.608;1.55
684;1950.51;553.972;1.55
685;1928.24;603.29;1.55
686;1891.31;583.514;1.55
687;1864.15;546.159;1.55
688;1896.19;607.196;1.55
689;1925.79;583.514;1.55
690;1938;587.42;1.55
691;1943.19;567.888;1.55
692;1925.79;591.571;1.55
693;1901.07;579.608;1.55
694;1901.07;607.196;1.55
695;1945.63;557.878;1.55
696;1972.79;577.654;1.55
697;1985;615.253;1.55
698;1985;553.972;1.56
699;1952.96;577.654;1.56
700;1918.47;573.748;1.56
701;1918.47;587.42;1.56
702;1943.19;569.842;1.56
703;1948.07;579.608;1.56
704;1948.07;553.972;1.56
705;1930.68;607.196;1.56
706;1893.75;581.561;1.56
707;1864.15;548.112;1.56
708;1896.19;611.347;1.56
709;1928.24;581.561;1.56
710;1938;581.561;1.56
711;1943.19;567.888;1.56
712;1930.68;591.571;1.56
713;1901.07;577.654;1.56
714;1901.07;603.29;1.56
715;1948.07;553.972;1.57
716;1975.23;579.608;1.57
717;1985;611.347;1.57
718;1987.44;546.159;1.57
719;1955.4;577.654;1.57
720;1920.91;571.795;1.57
721;1918.47;589.618;1.57
722;1940.75;569.842;1.57
723;1950.51;575.701;1.57
724;1948.07;557.878;1.57
725;1920.91;607.196;1.57
726;1881.24;583.514;1.57
727;1861.71;550.066;1.57
728;1898.63;617.206;1.57
729;1925.79;581.561;1.57
730;1938;583.514;1.57
731;1940.75;569.842;1.58
732;1923.35;587.42;1.58
733;1896.19;579.608;1.58
734;1903.52;601.337;1.58
735;1950.51;552.019;1.58
736;1972.79;579.608;1.58
737;1987.44;607.196;1.58
738;1977.68;542.009;1.58
739;1948.07;577.654;1.58
740;1913.59;573.748;1.58
741;1923.35;589.618;1.58
742;1948.07;569.842;1.58
743;1950.51;577.654;1.58
744;1948.07;559.832;1.58
745;1923.35;605.243;1.58
746;1886.43;579.608;1.58
747;1864.15;552.019;1.59
748;1901.07;619.16;1.59
749;1925.79;579.608;1.59
750;1938;581.561;1.59
751;1940.75;567.888;1.59
752;1923.35;585.467;1.59
753;1896.19;581.561;1.59
754;1905.96;601.337;1.59
755;1950.51;555.925;1.59
756;1975.23;581.561;1.59
757;1992.32;603.29;1.59
758;1980.12;544.206;1.59
759;1950.51;577.654;1.59
760;1916.03;575.701;1.59
761;1923.35;589.618;1.59
762;1948.07;571.795;1.6
763;1952.96;573.748;1.6
764;1950.51;563.738;1.6
765;1928.24;603.29;1.6
766;1891.31;577.654;1.6
767;1866.59;555.925;1.6
768;1901.07;597.43;1.6
769;1930.68;587.42;1.6
770;1943.19;585.467;1.6
771;1948.07;567.888;1.6
772;1930.68;589.618;1.6
773;1903.52;579.608;1.6
774;1908.4;605.243;1.6
775;1952.96;563.738;1.6
776;1977.68;571.795;1.6
777;1992.32;613.3;1.6
778;1985;555.925;1.61
779;1952.96;573.748;1.61
780;1920.91;571.795;1.61
781;1925.79;589.618;1.61
782;1945.63;565.935;1.61
783;1955.4;577.654;1.61
784;1952.96;552.019;1.61
785;1930.68;599.384;1.61
786;1891.31;585.467;1.61
787;1869.03;546.159;1.61
788;1903.52;601.337;1.61
789;1930.68;579.608;1.61
790;1945.63;583.514;1.61
791;1948.07;563.738;1.61
792;1930.68;589.618;1.61
793;1903.52;579.608;1.61
794;1908.4;601.337;1.62
795;1952.96;557.878;1.62
796;1975.23;573.748;1.62
797;1989.88;611.347;1.62
798;1985;552.019;1.62
799;1955.4;573.748;1.62
800;1920.91;569.842;1.62
801;1925.79;589.618;1.62
802;1948.07;563.738;1.62
803;1952.96;577.654;1.62
804;1952.96;552.019;1.62
805;1930.68;605.243;1.62
806;1891.31;581.561;1.62
807;1866.59;544.206;1.62
808;1901.07;609.149;1.62
809;1930.68;581.561;1.62
810;1940.75;583.514;1.63
811;1945.63;565.935;1.63
812;1933.12;589.618;1.63
813;1903.52;577.654;1.63
814;1905.96;601.337;1.63
815;1952.96;553.972;1.63
816;1977.68;575.701;1.63
817;1989.88;609.149;1.63
818;1987.44;548.112;1.63
819;1955.4;575.701;1.63
820;1920.91;573.748;1.63
821;1925.79;589.618;1.63
822;1948.07;567.888;1.63
823;1955.4;577.654;1.63
824;1955.4;553.972;1.63
825;1935.56;607.196;1.64
826;1896.19;579.608;1.64
827;1869.03;546.159;1.64
828;1908.4;611.347;1.64
829;1935.56;581.561;1.64
830;1948.07;581.561;1.64
831;1950.51;567.888;1.64
832;1938;587.42;1.64
833;1908.4;577.654;1.64
834;1908.4;601.337;1.64
835;1955.4;550.066;1.64
836;1982.56;575.701;1.64
837;1995.07;605.243;1.64
838;1992.32;544.206;1.64
839;1962.72;575.701;1.64
840;1928.24;571.795;1.64
841;1928.24;587.42;1.65
842;1955.4;567.888;1.65
843;1957.84;571.795;1.65
844;1962.72;557.878;1.65
845;1938;605.243;1.65
846;1898.63;579.608;1.65
847;1871.47;550.066;1.65
848;1905.96;617.206;1.65
849;1933.12;577.654;1.65
850;1948.07;579.608;1.65
851;1948.07;569.842;1.65
852;1938;585.467;1.65
853;1908.4;579.608;1.65
854;1910.84;599.384;1.65
855;1955.4;553.972;1.65
856;1982.56;579.608;1.66
857;1995.07;605.243;1.66
858;1992.32;538.102;1.66
859;1960.28;577.654;1.66
860;1928.24;575.701;1.66
861;1925.79;585.467;1.66
862;1950.51;569.842;1.66
863;1957.84;573.748;1.66
864;1957.84;561.785;1.66
865;1938;603.29;1.66
866;1898.63;575.701;1.66
867;1869.03;553.972;1.66
868;1901.07;619.16;1.66
869;1930.68;577.654;1.66
870;1943.19;575.701;1.66
871;1945.63;567.888;1.66
872;1933.12;583.514;1.67
873;1905.96;581.561;1.67
874;1903.52;595.477;1.67
875;1950.51;555.925;1.67
876;1980.12;575.701;1.67
877;1995.07;609.149;1.67
878;1992.32;544.206;1.67
879;1960.28;573.748;1.67
880;1928.24;571.795;1.67
881;1923.35;587.42;1.67
882;1948.07;565.935;1.67
883;1952.96;573.748;1.67
884;1952.96;553.972;1.67
885;1935.56;605.243;1.67
886;1896.19;579.608;1.67
887;1869.03;548.112;1.67
888;1901.07;613.3;1.68
889;1933.12;577.654;1.68
890;1945.63;579.608;1.68
891;1950.51;567.888;1.68
892;1938;585.467;1.68
893;1908.4;577.654;1.68
894;1905.96;599.384;1.68
895;1952.96;550.066;1.68
896;1980.12;575.701;1.68
897;1995.07;605.243;1.68
898;1992.32;540.056;1.68
899;1965.16;575.701;1.68
900;1928.24;573.748;1.68
901;1925.79;585.467;1.68
902;1950.51;565.935;1.68
903;1955.4;571.795;1.68
904;1957.84;557.878;1.68999
905;1940.75;603.29;1.68999
906;1901.07;577.654;1.68999
907;1871.47;548.112;1.68999
908;1903.52;619.16;1.68999
909;1935.56;577.654;1.68999
910;1948.07;579.608;1.68999
911;1952.96;567.888;1.68999
912;1940.75;585.467;1.68999
913;1913.59;579.608;1.68999
914;1908.4;595.477;1.68999
915;1955.4;552.019;1.68999
916;1982.56;579.608;1.68999
917;1997.51;603.29;1.68999
918;1997.51;540.056;1.68999
919;1970.35;573.748;1.68999
920;1930.68;573.748;1.7
921;1928.24;587.42;1.7
922;1950.51;571.795;1.7
923;1960.28;571.795;1.7
924;1960.28;559.832;1.7
925;1943.19;601.337;1.7
926;1903.52;575.701;1.7
927;1876.35;552.019;1.7
928;1903.52;619.16;1.7
929;1933.12;577.654;1.7
930;1948.07;581.561;1.7
931;1955.4;565.935;1.7
932;1943.19;591.571;1.7
933;1913.59;577.654;1.7
934;1908.4;603.29;1.7
935;1957.84;561.785;1.71
936;1985;569.842;1.71
937;1997.51;611.347;1.71
938;1999.95;553.972;1.71
939;1972.79;571.795;1.71
940;1933.12;569.842;1.71
941;1930.68;587.42;1.71
942;1952.96;563.738;1.71
943;1962.72;573.748;1.71
944;1962.72;550.066;1.71
945;1948.07;599.384;1.71
946;1905.96;581.561;1.71
947;1876.35;542.009;1.71
948;1903.52;601.337;1.71
949;1938;583.514;1.71
950;1950.51;581.561;1.71
951;1957.84;565.935;1.72
952;1943.19;589.618;1.72
953;1916.03;577.654;1.72
954;1908.4;605.243;1.72
955;1952.96;557.878;1.72
956;1982.56;573.748;1.72
957;1997.51;609.149;1.72
958;1995.07;550.066;1.72
959;1967.91;571.795;1.72
960;1935.56;569.842;1.72
961;1928.24;587.42;1.72
962;1952.96;563.738;1.72
963;1965.16;573.748;1.72
964;1962.72;552.019;1.72
965;1948.07;603.29;1.72
966;1908.4;579.608;1.72
967;1873.91;542.009;1.73
968;1903.52;607.196;1.73
969;1935.56;581.561;1.73
970;1952.96;579.608;1.73
971;1960.28;563.738;1.73
972;1948.07;589.618;1.73
973;1920.91;575.701;1.73
974;1910.84;599.384;1.73
975;1955.4;552.019;1.73
976;1987.44;573.748;1.73
977;2002.4;607.196;1.73
978;1999.95;546.159;1.73
979;1977.68;573.748;1.73
980;1938;571.795;1.73
981;1930.68;587.42;1.73
982;1955.4;563.738;1.73
983;1967.91;573.748;1.74
984;1967.91;553.972;1.74
985;1952.96;605.243;1.74
986;1916.03;577.654;1.74
987;1878.8;546.159;1.74
988;1908.4;611.347;1.74
989;1943.19;577.654;1.74
990;1957.84;579.608;1.74
991;1965.16;565.935;1.74
992;1952.96;585.467;1.74
993;1923.35;577.654;1.74
994;1913.59;599.384;1.74
995;1960.28;548.112;1.74
996;1987.44;573.748;1.74
997;2002.4;605.243;1.74
998;2007.28;540.056;1.74
999;1977.68;573.748;1.75
1000;1940.75;571.795;1.75
1001;1930.68;587.42;1.75
1002;1957.84;565.935;1.75
1003;1970.35;571.795;1.75
1004;1967.91;555.925;1.75
1005;1955.4;605.243;1.75
1006;1913.59;575.701;1.75
1007;1881.24;546.159;1.75
1008;1905.96;615.253;1.75
1009;1943.19;577.654;1.75
1010;1955.4;579.608;1.75
1011;1962.72;565.935;1.75
1012;1952.96;585.467;1.75
1013;1923.35;577.654;1.75
1014;1913.59;595.477;1.75
1015;1957.84;552.019;1.75999
1016;1989.88;575.701;1.75999
1017;2004.84;601.337;1.75999
1018;2007.28;540.056;1.75999
1019;1982.56;573.748;1.75999
1020;1945.63;573.748;1.75999
1021;1933.12;585.467;1.75999
1022;1960.28;565.935;1.75999
1023;1970.35;569.842;1.75999
1024;1970.35;559.832;1.75999
1025;1955.4;601.337;1.75999
1026;1918.47;575.701;1.75999
1027;1883.68;550.066;1.75999
1028;1908.4;615.253;1.75999
1029;1943.19;575.701;1.75999
1030;1957.84;575.701;1.75999
1031;1965.16;567.888;1.77
1032;1957.84;583.514;1.77
1033;1928.24;579.608;1.77
1034;1916.03;593.524;1.77
1035;1957.84;552.019;1.77
1036;1992.32;577.654;1.77
1037;2007.28;609.149;1.77
1038;2007.28;557.878;1.77
1039;1985;567.888;1.77
1040;1948.07;569.842;1.77
1041;1935.56;585.467;1.77
1042;1960.28;563.738;1.77
1043;1972.79;573.748;1.77
1044;1972.79;548.112;1.77
1045;1960.28;593.524;1.77
1046;1923.35;579.608;1.77
1047;1886.43;542.009;1.78
1048;1908.4;597.43;1.78
1049;1948.07;583.514;1.78
1050;1960.28;579.608;1.78
1051;1970.35;563.738;1.78
1052;1957.84;589.618;1.78
1053;1928.24;575.701;1.78
1054;1918.47;601.337;1.78
1055;1962.72;557.878;1.78
1056;1992.32;571.795;1.78
1057;2007.28;609.149;1.78
1058;2009.72;552.019;1.78
1059;1987.44;571.795;1.78
1060;1945.63;567.888;1.78
1061;1935.56;587.42;1.78
1062;1957.84;563.738;1.78
1063;1972.79;573.748;1.78
1064;1972.79;548.112;1.79
1065;1945.63;603.29;1.79
1066;1905.96;579.608;1.79
1067;1886.43;542.009;1.79
1068;1923.35;603.29;1.79
1069;1948.07;579.608;1.79
1070;1962.72;581.561;1.79
1071;1965.16;565.935;1.79
1072;1945.63;589.618;1.79
1073;1918.47;575.701;1.79
1074;1928.24;599.384;1.79
1075;1972.79;552.019;1.79
1076;1997.51;571.795;1.79
1077;2009.72;609.149;1.79
1078;2002.4;548.112;1.79
1079;1970.35;571.795;1.79
1080;1935.56;565.935;1.79
1081;1943.19;585.467;1.79
1082;1965.16;565.935;1.8
1083;1972.79;571.795;1.8
1084;1970.35;552.019;1.8
1085;1943.19;605.243;1.8
1086;1905.96;577.654;1.8
1087;1883.68;544.206;1.8
1088;1920.91;607.196;1.8
1089;1948.07;577.654;1.8
1090;1960.28;581.561;1.8
1091;1962.72;563.738;1.8
1092;1948.07;585.467;1.8
1093;1916.03;575.701;1.8
1094;1925.79;601.337;1.8
1095;1975.23;548.112;1.8
1096;1997.51;571.795;1.8
1097;2007.28;607.196;1.8
1098;2004.84;540.056;1.8
1099;1975.23;573.748;1.8
1100;1940.75;571.795;1.81
1101;1945.63;587.42;1.81
1102;1970.35;565.935;1.81
1103;1977.68;573.748;1.81
1104;1975.23;553.972;1.81
1105;1950.51;603.29;1.81
1106;1910.84;575.701;1.81
1107;1888.87;544.206;1.81
1108;1925.79;613.3;1.81
1109;1952.96;575.701;1.81
1110;1965.16;577.654;1.81
1111;1967.91;563.738;1.81
1112;1950.51;585.467;1.81
1113;1925.79;577.654;1.81
1114;1925.79;597.43;1.81
1115;1977.68;550.066;1.81
1116;2002.4;575.701;1.81
1117;2014.6;605.243;1.82
1118;2012.16;536.149;1.82
1119;1980.12;573.748;1.82
1120;1945.63;573.748;1.82
1121;1950.51;585.467;1.82
1122;1972.79;569.842;1.82
1123;1977.68;569.842;1.82
1124;1977.68;557.878;1.82
1125;1955.4;601.337;1.82
1126;1913.59;573.748;1.82
1127;1891.31;550.066;1.82
1128;1925.79;617.206;1.82
1129;1955.4;573.748;1.82
1130;1967.91;577.654;1.82
1131;1967.91;565.935;1.82
1132;1950.51;583.514;1.82
1133;1920.91;577.654;1.82
1134;1928.24;595.477;1.83
1135;1977.68;550.066;1.83
1136;2004.84;575.701;1.83
1137;2017.04;601.337;1.83
1138;2014.6;534.196;1.83
1139;1982.56;573.748;1.83
1140;1945.63;571.795;1.83
1141;1950.51;585.467;1.83
1142;1972.79;565.935;1.83
1143;1982.56;567.888;1.83
1144;1977.68;552.019;1.83
1145;1957.84;605.243;1.83
1146;1918.47;579.608;1.83
1147;1891.31;540.056;1.83
1148;1928.24;609.149;1.83
1149;1957.84;577.654;1.83
1150;1970.35;579.608;1.83
1151;1977.68;563.738;1.84
1152;1957.84;587.42;1.84
1153;1930.68;577.654;1.84
1154;1933.12;597.43;1.84
1155;1982.56;548.112;1.84
1156;2009.72;573.748;1.84
1157;2022.23;607.196;1.84
1158;2017.04;542.009;1.84
1159;1987.44;571.795;1.84
1160;1950.51;571.795;1.84
1161;1955.4;585.467;1.84
1162;1980.12;565.935;1.84
1163;1985;571.795;1.84
1164;1985;552.019;1.84
1165;1960.28;601.337;1.84
1166;1920.91;575.701;1.84
1167;1893.75;546.159;1.85
1168;1930.68;615.253;1.85
1169;1962.72;577.654;1.85
1170;1975.23;577.654;1.85
1171;1982.56;563.738;1.85
1172;1962.72;583.514;1.85
1173;1938;577.654;1.85
1174;1933.12;597.43;1.85
1175;1982.56;550.066;1.85
1176;2009.72;573.748;1.85
1177;2022.23;601.337;1.85
1178;2017.04;538.102;1.85
1179;1987.44;571.795;1.85
1180;1950.51;571.795;1.85
1181;1952.96;585.467;1.85
1182;1977.68;567.888;1.85
1183;1987.44;567.888;1.86
1184;1987.44;557.878;1.86
1185;1967.91;603.29;1.86
1186;1923.35;571.795;1.86
1187;1901.07;548.112;1.86
1188;1933.12;617.206;1.86
1189;1962.72;575.701;1.86
1190;1975.23;575.701;1.86
1191;1980.12;565.935;1.86
1192;1965.16;581.561;1.86
1193;1938;581.561;1.86
1194;1935.56;593.524;1.86
1195;1985;553.972;1.86
1196;2014.6;577.654;1.86
1197;2024.67;607.196;1.86
1198;2024.67;553.972;1.86
1199;1997.51;567.888;1.87
1200;1960.28;567.888;1.87
1201;1957.84;587.42;1.87
1202;1980.12;563.738;1.87
1203;1987.44;571.795;1.87
1204;1989.88;550.066;1.87
1205;1967.91;593.524;1.87
1206;1930.68;581.561;1.87
1207;1903.52;540.056;1.87
1208;1935.56;595.477;1.87
1209;1967.91;583.514;1.87
1210;1982.56;579.608;1.87
1211;1987.44;561.785;1.87
1212;1970.35;587.42;1.87
1213;1943.19;575.701;1.87
1214;1940.75;601.337;1.87
1215;1987.44;557.878;1.88
1216;2014.6;571.795;1.88
1217;2029.56;609.149;1.88
1218;2027.12;552.019;1.88
1219;1995.07;569.842;1.88
1220;1960.28;567.888;1.88
1221;1960.28;585.467;1.88
1222;1985;561.785;1.88
1223;1992.32;573.748;1.88
1224;1992.32;548.112;1.88
1225;1972.79;599.384;1.88
1226;1930.68;577.654;1.88
1227;1903.52;540.056;1.88
1228;1933.12;601.337;1.88
1229;1965.16;579.608;1.88
1230;1980.12;579.608;1.88
1231;1985;563.738;1.89
1232;1970.35;587.42;1.89
1233;1940.75;577.654;1.89
1234;1938;601.337;1.89
1235;1982.56;552.019;1.89
1236;2012.16;571.795;1.89
1237;2029.56;609.149;1.89
1238;2027.12;546.159;1.89
1239;1997.51;569.842;1.89
1240;1957.84;569.842;1.89
1241;1955.4;587.42;1.89
1242;1985;561.785;1.89
1243;1992.32;573.748;1.89
1244;1992.32;550.066;1.89
1245;1977.68;603.29;1.89
1246;1935.56;577.654;1.89
1247;1905.96;540.056;1.9
1248;1933.12;605.243;1.9
1249;1967.91;579.608;1.9
1250;1980.12;581.561;1.9
1251;1985;561.785;1.9
1252;1972.79;585.467;1.9
1253;1943.19;575.701;1.9
1254;1938;601.337;1.9
1255;1985;548.112;1.9
1256;2017.04;571.795;1.9
1257;2032;607.196;1.9
1258;2032;542.009;1.9
1259;1999.95;569.842;1.9
1260;1967.91;567.888;1.9
1261;1960.28;585.467;1.91
1262;1989.88;561.785;1.91
1263;1997.51;571.795;1.91
1264;1997.51;552.019;1.91
1265;1982.56;605.243;1.91
1266;1940.75;577.654;1.91
1267;1908.4;544.206;1.91
1268;1938;611.347;1.91
1269;1972.79;575.701;1.91
1270;1982.56;575.701;1.91
1271;1992.32;563.738;1.91
1272;1977.68;583.514;1.91
1273;1948.07;573.748;1.91
1274;1940.75;597.43;1.91
1275;1992.32;548.112;1.91
1276;2019.49;573.748;1.91
1277;2036.88;601.337;1.92
1278;2034.44;538.102;1.92
1279;2007.28;573.748;1.92
1280;1970.35;573.748;1.92
1281;1962.72;585.467;1.92
1282;1989.88;565.935;1.92
1283;1997.51;571.795;1.92
1284;1999.95;555.925;1.92
1285;1982.56;601.337;1.92
1286;1943.19;573.748;1.92
1287;1910.84;548.112;1.92
1288;1938;617.206;1.92
1289;1972.79;577.654;1.92
1290;1987.44;577.654;1.92
1291;1995.07;563.738;1.92
1292;1980.12;581.561;1.93
1293;1952.96;581.561;1.93
1294;1943.19;597.43;1.93
1295;1989.88;550.066;1.93
1296;2022.23;575.701;1.93
1297;2036.88;599.384;1.93
1298;2036.88;534.196;1.93
1299;2009.72;571.795;1.93
1300;1970.35;573.748;1.93
1301;1965.16;583.514;1.93
1302;1992.32;567.888;1.93
1303;1999.95;567.888;1.93
1304;2002.4;546.159;1.93
1305;1985;593.524;1.93
1306;1945.63;579.608;1.93999
1307;1913.59;540.056;1.93999
1308;1938;595.477;1.93999
1309;1975.23;581.561;1.93999
1310;1989.88;577.654;1.93999
1311;1997.51;559.832;1.93999
1312;1985;587.42;1.93999
1313;1957.84;575.701;1.93999
1314;1948.07;601.337;1.93999
1315;1995.07;559.832;1.93999
1316;2027.12;569.842;1.93999
1317;2039.32;609.149;1.93999
1318;2041.76;550.066;1.93999
1319;2014.6;569.842;1.93999
1320;1977.68;565.935;1.93999
1321;1970.35;587.42;1.93999
1322;1995.07;561.785;1.95
1323;2007.28;573.748;1.95
1324;2007.28;548.112;1.95
1325;1992.32;595.477;1.95
1326;1952.96;579.608;1.95
1327;1918.47;540.056;1.95
1328;1943.19;597.43;1.95
1329;1980.12;579.608;1.95
1330;1997.51;581.561;1.95
1331;2004.84;561.785;1.95
1332;1987.44;585.467;1.95
1333;1962.72;573.748;1.95
1334;1950.51;599.384;1.95
1335;1997.51;552.019;1.95
1336;2029.56;569.842;1.95
1337;2046.65;609.149;1.96
1338;2046.65;548.112;1.96
1339;2019.49;569.842;1.96
1340;1982.56;565.935;1.96
1341;1972.79;585.467;1.96
1342;1999.95;559.832;1.96
1343;2009.72;571.795;1.96
1344;2012.16;550.066;1.96
1345;1997.51;601.337;1.96
1346;1957.84;579.608;1.96
1347;1920.91;540.056;1.96
1348;1943.19;601.337;1.96
1349;1982.56;579.608;1.96
1350;1997.51;579.608;1.96
1351;2004.84;561.785;1.96
1352;1992.32;585.467;1.97
1353;1965.16;575.701;1.97
1354;1950.51;601.337;1.97
1355;1997.51;548.112;1.97
1356;2034.44;571.795;1.97
1357;2049.39;607.196;1.97
1358;2049.39;544.206;1.97
1359;2024.67;571.795;1.97
1360;1985;567.888;1.97
1361;1975.23;585.467;1.97
1362;1999.95;561.785;1.97
1363;2009.72;571.795;1.97
1364;2014.6;552.019;1.97
1365;1999.95;603.29;1.97
1366;1962.72;577.654;1.97
1367;1923.35;544.206;1.98
1368;1945.63;609.149;1.98
1369;1982.56;577.654;1.98
1370;1999.95;577.654;1.98
1371;2007.28;561.785;1.98
1372;1992.32;585.467;1.98
1373;1967.91;573.748;1.98
1374;1950.51;599.384;1.98
1375;1997.51;548.112;1.98
1376;2032;571.795;1.98
1377;2049.39;603.29;1.98
1378;2051.84;540.056;1.98
1379;2024.67;571.795;1.98
1380;1989.88;569.842;1.98
1381;1977.68;585.467;1.99
1382;2004.84;563.738;1.99
1383;2012.16;573.748;1.99
1384;2014.6;553.972;1.99
1385;1999.95;603.29;1.99
1386;1960.28;575.701;1.99
1387;1923.35;546.159;1.99
1388;1948.07;615.253;1.99
1389;1985;575.701;1.99
1390;2002.4;573.748;1.99
1391;2012.16;561.785;1.99
1392;2002.4;581.561;1.99
1393;1972.79;575.701;1.99
1394;1957.84;595.477;1.99
1395;2002.4;548.112;1.99
1396;2036.88;573.748;2
1397;2051.84;599.384;2
1398;2054.28;536.149;2
1399;2032;571.795;2
1400;1995.07;573.748;2
1401;1980.12;585.467;2
1402;2007.28;565.935;2
1403;2019.49;569.842;2
1404;2019.49;555.925;2
1405;1992.32;601.337;2
1406;1950.51;575.701;2
1407;1928.24;550.066;2
1408;1970.35;615.253;2
1409;1997.51;573.748;2
1410;2009.72;573.748;2
1411;2014.6;561.785;2.00999
1412;1995.07;585.467;2.00999
1413;1962.72;573.748;2.00999
1414;1970.35;599.384;2.00999
1415;2022.23;548.112;2.00999
1416;2049.39;571.795;2.00999
1417;2059.16;605.243;2.00999
1418;2051.84;542.009;2.00999
1419;2017.04;571.795;2.00999
1420;1982.56;565.935;2.00999
1421;1989.88;583.514;2.00999
1422;2012.16;561.785;2.00999
1423;2019.49;571.795;2.00999
1424;2017.04;548.112;2.00999
1425;1995.07;603.29;2.00999
1426;1952.96;577.654;2.02
1427;1928.24;544.206;2.02
1428;1967.91;609.149;2.02
1429;1997.51;575.701;2.02
1430;2009.72;577.654;2.02
1431;2009.72;563.738;2.02
1432;1989.88;583.514;2.02
1433;1962.72;573.748;2.02
1434;1967.91;595.477;2.02
1435;2022.23;544.206;2.02
1436;2049.39;571.795;2.02
1437;2061.6;601.337;2.02
1438;2056.72;534.196;2.02
1439;2022.23;569.842;2.02
1440;1987.44;569.842;2.02
1441;1989.88;585.467;2.03
1442;2019.49;563.738;2.03
1443;2029.56;567.888;2.03
1444;2027.12;553.972;2.03
1445;1999.95;601.337;2.03
1446;1957.84;573.748;2.03
1447;1933.12;548.112;2.03
1448;1972.79;613.3;2.03
1449;2002.4;575.701;2.03
1450;2014.6;573.748;2.03
1451;2017.04;561.785;2.03
1452;1997.51;579.608;2.03
1453;1970.35;579.608;2.03
1454;1972.79;593.524;2.03
1455;2022.23;548.112;2.03
1456;2051.84;575.701;2.03
1457;2064.04;597.43;2.04
1458;2056.72;532.243;2.04
1459;2027.12;569.842;2.04
1460;1989.88;571.795;2.04
1461;1995.07;583.514;2.04
1462;2022.23;565.935;2.04
1463;2027.12;569.842;2.04
1464;2027.12;546.159;2.04
1465;2004.84;589.618;2.04
1466;1962.72;579.608;2.04
1467;1935.56;540.056;2.04
1468;1975.23;591.571;2.04
1469;2007.28;581.561;2.04
1470;2017.04;581.561;2.04
1471;2022.23;561.785;2.04
1472;2007.28;587.42;2.05
1473;1972.79;575.701;2.05
1474;1977.68;599.384;2.05
1475;2032;561.785;2.05
1476;2059.16;567.888;2.05
1477;2068.93;609.149;2.05
1478;2066.48;552.019;2.05
1479;2036.88;565.935;2.05
1480;1999.95;563.738;2.05
1481;2002.4;583.514;2.05
1482;2027.12;559.832;2.05
1483;2034.44;571.795;2.05
1484;2034.44;546.159;2.05
1485;2014.6;595.477;2.05
1486;1972.79;577.654;2.05
1487;1948.07;538.102;2.06
1488;1980.12;597.43;2.06
1489;2014.6;579.608;2.06
1490;2029.56;579.608;2.06
1491;2032;561.785;2.06
1492;2017.04;585.467;2.06
1493;1985;569.842;2.06
1494;1987.44;599.384;2.06
1495;2036.88;553.972;2.06
1496;2066.48;569.842;2.06
1497;2079;607.196;2.06
1498;2076.56;548.112;2.06
1499;2044.21;567.888;2.06
1500;2007.28;563.738;2.06
1501;2012.16;585.467;2.06
1502;2036.88;561.785;2.07
1503;2041.76;569.842;2.07
1504;2041.76;548.112;2.07
1505;2022.23;599.384;2.07
1506;1977.68;577.654;2.07
1507;1950.51;540.056;2.07
1508;1987.44;603.29;2.07
1509;2019.49;577.654;2.07
1510;2034.44;577.654;2.07
1511;2036.88;561.785;2.07
1512;2022.23;585.467;2.07
1513;1995.07;571.795;2.07
1514;1989.88;599.384;2.07
1515;2041.76;548.112;2.07
1516;2066.48;569.842;2.08
1517;2079;605.243;2.08
1518;2073.81;542.009;2.08
1519;2046.65;571.795;2.08
1520;2007.28;565.935;2.08
1521;2009.72;585.467;2.08
1522;2036.88;559.832;2.08
1523;2046.65;571.795;2.08
1524;2044.21;546.159;2.08
1525;2027.12;601.337;2.08
1526;1982.56;575.701;2.08
1527;1952.96;540.056;2.08
1528;1987.44;607.196;2.08
1529;2019.49;575.701;2.08
1530;2036.88;577.654;2.09
1531;2036.88;563.738;2.09
1532;2024.67;583.514;2.09
1533;1995.07;573.748;2.09
1534;1989.88;595.477;2.09
1535;2041.76;546.159;2.09
1536;2068.93;569.842;2.09
1537;2083.88;603.29;2.09
1538;2081.44;538.102;2.09
1539;2051.84;569.842;2.09
1540;2014.6;567.888;2.09
1541;2014.6;583.514;2.09
1542;2041.76;563.738;2.09
1543;2051.84;567.888;2.09
1544;2049.39;552.019;2.1
1545;2032;601.337;2.1
1546;1987.44;573.748;2.1
1547;1957.84;542.009;2.1
1548;1992.32;611.347;2.1
1549;2024.67;575.701;2.1
1550;2041.76;573.748;2.1
1551;2046.65;561.785;2.1
1552;2032;581.561;2.1
1553;1997.51;573.748;2.1
1554;1997.51;595.477;2.1
1555;2046.65;546.159;2.1
1556;2076.56;571.795;2.1
1557;2091.2;599.384;2.11
1558;2091.2;536.149;2.11
1559;2059.16;571.795;2.11
1560;2022.23;569.842;2.11
1561;2019.49;583.514;2.11
1562;2049.39;563.738;2.11
1563;2056.72;565.935;2.11
1564;2054.28;553.972;2.11
1565;2034.44;599.384;2.11
1566;1992.32;571.795;2.11
1567;1960.28;548.112;2.11
1568;1995.07;613.3;2.11
1569;2032;571.795;2.11
1570;2046.65;571.795;2.11
1571;2051.84;559.832;2.12
1572;2036.88;585.467;2.12
1573;2004.84;573.748;2.12
1574;1997.51;599.384;2.12
1575;2051.84;557.878;2.12
1576;2079;565.935;2.12
1577;2091.2;605.243;2.12
1578;2088.76;553.972;2.12
1579;2056.72;565.935;2.12
1580;2019.49;563.738;2.12
1581;2027.12;583.514;2.12
1582;2051.84;561.785;2.12
1583;2056.72;569.842;2.12
1584;2056.72;546.159;2.13
1585;2032;591.571;2.13
1586;1989.88;575.701;2.13
1587;1965.16;540.056;2.13
1588;2007.28;595.477;2.13
1589;2036.88;577.654;2.13
1590;2051.84;579.608;2.13
1591;2054.28;561.785;2.13
1592;2034.44;585.467;2.13
1593;2004.84;571.795;2.13
1594;2009.72;599.384;2.13
1595;2064.04;553.972;2.13
1596;2088.76;569.842;2.13
1597;2100.97;605.243;2.14
1598;2093.65;548.112;2.14
1599;2064.04;567.888;2.14
1600;2027.12;563.738;2.14
1601;2032;583.514;2.14
1602;2059.16;559.832;2.14
1603;2064.04;569.842;2.14
1604;2061.6;546.159;2.14
1605;2039.32;595.477;2.14
1606;1995.07;575.701;2.14
1607;1970.35;538.102;2.14
1608;2009.72;599.384;2.14
1609;2044.21;577.654;2.15
1610;2056.72;579.608;2.15
1611;2061.6;561.785;2.15
1612;2036.88;585.467;2.15
1613;2009.72;569.842;2.15
1614;2014.6;599.384;2.15
1615;2066.48;550.066;2.15
1616;2093.65;567.888;2.15
1617;2106.16;605.243;2.15
1618;2100.97;544.206;2.15
1619;2068.93;567.888;2.15
1620;2032;563.738;2.15
1621;2034.44;581.561;2.15
1622;2061.6;559.832;2.16
1623;2068.93;569.842;2.16
1624;2066.48;548.112;2.16
1625;2041.76;601.337;2.16
1626;1999.95;575.701;2.16
1627;1975.23;538.102;2.16
1628;2017.04;605.243;2.16
1629;2051.84;575.701;2.16
1630;2064.04;577.654;2.16
1631;2068.93;561.785;2.16
1632;2051.84;583.514;2.16
1633;2019.49;569.842;2.16
1634;2022.23;597.43;2.17
1635;2073.81;546.159;2.17
1636;2098.53;569.842;2.17
1637;2111.04;601.337;2.17
1638;2106.16;536.149;2.17
1639;2073.81;567.888;2.17
1640;2036.88;565.935;2.17
1641;2039.32;583.514;2.17
1642;2068.93;561.785;2.17
1643;2073.81;569.842;2.17
1644;2071.37;550.066;2.17
1645;2049.39;599.384;2.17
1646;2007.28;573.748;2.17
1647;1977.68;542.009;2.18
1648;2017.04;609.149;2.18
1649;2049.39;573.748;2.18
1650;2066.48;573.748;2.18
1651;2066.48;561.785;2.18
1652;2046.65;583.514;2.18
1653;2017.04;571.795;2.18
1654;2022.23;593.524;2.18
1655;2071.37;544.206;2.18
1656;2103.72;569.842;2.18
1657;2115.92;599.384;2.18
1658;2111.04;532.243;2.18
1659;2076.56;569.842;2.18999
1660;2039.32;567.888;2.18999
1661;2044.21;583.514;2.18999
1662;2071.37;565.935;2.18999
1663;2081.44;565.935;2.18999
1664;2076.56;553.972;2.18999
1665;2059.16;599.384;2.18999
1666;2014.6;571.795;2.18999
1667;1985;544.206;2.18999
1668;2022.23;613.3;2.18999
1669;2056.72;573.748;2.18999
1670;2068.93;573.748;2.18999
1671;2073.81;563.738;2.2
1672;2056.72;579.608;2.2
1673;2029.56;573.748;2.2
1674;2027.12;591.571;2.2
1675;2076.56;548.112;2.2
1676;2103.72;571.795;2.2
1677;2118.37;595.477;2.2
1678;2115.92;542.009;2.2
1679;2081.44;569.842;2.2
1680;2044.21;563.738;2.2
1681;2044.21;585.467;2.2
1682;2073.81;559.832;2.2
1683;2086.32;567.888;2.21
1684;2081.44;548.112;2.21
1685;2064.04;599.384;2.21
1686;2019.49;573.748;2.21
1687;1989.88;540.056;2.21
1688;2027.12;605.243;2.21
1689;2061.6;573.748;2.21
1690;2076.56;577.654;2.21
1691;2079;559.832;2.21
1692;2061.6;581.561;2.21
