<WeldAnalyseData xmlns:i="http:www.w3.org/2001/XMLSchema-instance">
<WeldParameter>
<TimeStamp>DT#2024-01-25-11:46:10</TimeStamp>
<Generator>SG-22-10000</Generator>
<GenFreq>20</GenFreq>
<MaxForce>8000</MaxForce>
<MaxPower>10000</MaxPower>
<RunupPressure>1.5</RunupPressure>
<RunupDist>10</RunupDist>
<RunPress>0.8</RunPress>
<ShakeDelay>0.03</ShakeDelay>
<ShakeTime>0.3</ShakeTime>
<RunBackPress1>6</RunBackPress1>
<RunBackPress2>2</RunBackPress2>
<RunBackDist>1</RunBackDist>
<TrigValue>500</TrigValue>
<TrigModeUnit>W</TrigModeUnit>
<WeldModeUnit>Ws</WeldModeUnit>
<PressNr>0</PressNr>
<MaxLoss>1500</MaxLoss>
</WeldParameter>
<WeldSets>
<WeldSet>
<PressRiseTime>0</PressRiseTime>
<RunPressure>1</RunPressure>
<Amplitude>86</Amplitude>
<WeldMode>3270</WeldMode>
</WeldSet>
</WeldSets>
<WeldValue>
<WeldNr>3003</WeldNr>
<RecipeName>RickStyle</RecipeName>
<WeldTime>1667</WeldTime>
<DistDiff>2.31</DistDiff>
<DistAbs>78.09</DistAbs>
<Energy>3270.93</Energy>
<MaxPower>2200</MaxPower>
<CycleTime>6080</CycleTime>
<TrigForce>504.654</TrigForce>
<TrigDist>75.78</TrigDist>
<RunSpeed>68.8283</RunSpeed>
<MaxForce>617.206</MaxForce>
<LossPower>320.826</LossPower>
</WeldValue>
</WeldAnalyseData>
#CSV-START#
ms;Power[W];Force[N];Distance[mm]
1;0;0;0
2;0;502.701;0
3;0;502.701;0.0100021
4;0;502.701;0.0100021
5;0;502.701;0.0100021
6;0;504.654;0.0100021
7;0;500.748;0.0100021
8;0;470.962;0.0100021
9;0;423.597;0.0200043
10;0;401.868;0.0500031
11;0;362.56;0.0800018
12;34.7148;362.56;0.110001
13;101.245;338.633;0.150002
14;182.73;311.045;0.190002
15;261.772;332.774;0.230003
16;325.861;301.279;0.279999
17;387.509;295.419;0.32
18;449.461;283.456;0.370003
19;508.667;297.372;0.410004
20;565.432;295.419;0.450005
21;629.521;312.998;0.489998
22;711.005;295.419;0.520004
23;794.931;309.091;0.550003
24;869.091;344.737;0.580002
25;940.809;317.148;0.599998
26;987.808;330.821;0.620003
27;1027.18;344.737;0.630005
28;1076.62;368.419;0.650002
29;1140.71;366.466;0.650002
30;1187.7;386.242;0.660004
31;1229.51;376.232;0.669998
32;1254.23;421.644;0.669998
33;1261.86;409.925;0.669998
34;1271.63;384.045;0.68
35;1321.07;433.607;0.68
36;1365.32;421.644;0.690002
37;1400.11;425.55;0.690002
38;1434.6;413.831;0.700005
39;1454.44;431.654;0.700005
40;1461.76;425.55;0.709999
41;1486.48;447.279;0.709999
42;1545.69;409.925;0.720001
43;1587.8;427.503;0.720001
44;1622.29;459.243;0.730003
45;1642.12;403.821;0.730003
46;1639.38;427.503;0.739998
47;1627.17;427.503;0.739998
48;1647.01;441.42;0.75
49;1691.26;425.55;0.760002
50;1715.98;435.56;0.760002
51;1735.82;421.644;0.770004
52;1735.82;463.149;0.779999
53;1715.98;441.42;0.779999
54;1708.66;415.784;0.790001
55;1758.1;475.112;0.790001
56;1804.79;453.383;0.800003
57;1834.7;455.336;0.809998
58;1856.67;443.373;0.809998
59;1856.67;463.149;0.82
60;1846.9;461.196;0.82
61;1861.86;479.019;0.830002
62;1921.06;439.467;0.830002
63;1957.99;463.149;0.840004
64;1987.59;492.691;0.840004
65;1994.92;433.607;0.849998
66;1975.39;470.962;0.849998
67;1948.23;472.915;0.860001
68;1957.99;482.925;0.860001
69;1994.92;467.055;0.860001
70;2019.64;475.112;0.870003
71;2027.27;467.055;0.870003
72;2014.76;504.654;0.870003
73;1977.83;480.972;0.880005
74;1955.55;465.102;0.880005
75;1997.67;522.477;0.880005
76;2041.92;490.738;0.889999
77;2064.2;486.831;0.889999
78;2073.96;482.925;0.900002
79;2061.75;498.795;0.900002
80;2037.03;494.644;0.900002
81;2041.92;508.56;0.910004
82;2096.24;469.008;0.910004
83;2133.47;500.748;0.919998
84;2153;516.373;0.919998
85;2153;461.196;0.919998
86;2120.96;492.691;0.93
87;2084.03;492.691;0.93
88;2086.47;510.514;0.93
89;2120.96;488.784;0.940002
90;2133.47;498.795;0.940002
91;2138.36;482.925;0.950005
92;2113.64;530.29;0.950005
93;2069.08;506.607;0.950005
94;2044.36;479.019;0.959999
95;2081.59;542.009;0.959999
96;2123.4;512.467;0.959999
97;2140.8;512.467;0.970001
98;2143.24;498.795;0.970001
99;2128.28;520.524;0.970001
100;2096.24;512.467;0.980003
101;2098.68;530.29;0.980003
102;2148.12;486.831;0.980003
103;2177.72;514.42;0.989998
104;2192.68;538.102;0.989998
105;2185.05;477.065;0.989998
106;2148.12;512.467;1
107;2106.31;512.467;1
108;2106.31;522.477;1
109;2135.91;504.654;1.01
110;2145.68;508.56;1.01
111;2145.68;502.701;1.01
112;2123.4;542.009;1.02
113;2079.15;512.467;1.02
114;2049.24;496.597;1.02
115;2086.47;555.925;1.02
116;2125.84;520.524;1.03
117;2145.68;518.326;1.03
118;2145.68;510.514;1.03
119;2128.28;526.383;1.04
120;2093.8;520.524;1.04
121;2093.8;548.112;1.04
122;2145.68;510.514;1.04
123;2172.84;514.42;1.05
124;2187.8;557.878;1.05
125;2177.72;504.654;1.05
126;2140.8;514.42;1.05
127;2096.24;516.373;1.06
128;2093.8;532.243;1.06
129;2120.96;514.42;1.06
130;2128.28;524.43;1.06
131;2125.84;498.795;1.07
132;2098.68;544.206;1.07
133;2054.43;530.29;1.07
134;2022.08;490.738;1.07
135;2059.31;548.112;1.08
136;2091.36;530.29;1.08
137;2108.75;534.196;1.08
138;2113.64;516.373;1.08
139;2093.8;540.056;1.09
140;2061.75;528.336;1.09
141;2064.2;555.925;1.09
142;2118.52;514.42;1.09
143;2145.68;526.383;1.1
144;2160.63;563.738;1.1
145;2155.45;508.56;1.1
146;2123.4;524.43;1.1
147;2086.47;522.477;1.1
148;2088.92;540.056;1.11
149;2113.64;520.524;1.11
150;2123.4;530.29;1.11
151;2120.96;508.56;1.11
152;2096.24;557.878;1.11
153;2044.36;534.196;1.12
154;2012.31;502.701;1.12
155;2046.8;561.785;1.12
156;2076.4;538.102;1.12
157;2088.92;536.149;1.12
158;2088.92;524.43;1.13
159;2069.08;546.159;1.13
160;2032.15;534.196;1.13
161;2029.71;555.925;1.13
162;2079.15;514.42;1.13
163;2106.31;534.196;1.14
164;2116.08;563.738;1.14
165;2106.31;508.56;1.14
166;2071.52;534.196;1.14
167;2032.15;530.29;1.14
168;2027.27;546.159;1.15
169;2051.99;528.336;1.15
170;2061.75;534.196;1.15
171;2061.75;524.43;1.15
172;2034.59;565.935;1.15
173;1992.48;542.009;1.15
174;1960.43;514.42;1.16
175;1994.92;575.701;1.16
176;2029.71;544.206;1.16
177;2044.36;544.206;1.16
178;2046.8;532.243;1.16
179;2029.71;552.019;1.17
180;1997.67;546.159;1.17
181;2000.11;559.832;1.17
182;2049.24;518.326;1.17
183;2076.4;544.206;1.17
184;2091.36;565.935;1.17
185;2088.92;508.56;1.18
186;2056.87;540.056;1.18
187;2017.2;542.009;1.18
188;2022.08;555.925;1.18
189;2046.8;536.149;1.18
190;2059.31;542.009;1.18
191;2059.31;520.524;1.19
192;2032.15;555.925;1.19
193;1990.04;550.066;1.19
194;1960.43;514.42;1.19
195;1994.92;559.832;1.19
196;2024.83;555.925;1.19
197;2039.48;555.925;1.2
198;2044.36;536.149;1.2
199;2024.83;559.832;1.2
200;1990.04;548.112;1.2
201;1990.04;573.748;1.2
202;2037.03;536.149;1.2
203;2064.2;542.009;1.2
204;2076.4;579.608;1.21
205;2069.08;530.29;1.21
206;2034.59;538.102;1.21
207;1994.92;540.056;1.21
208;1994.92;557.878;1.21
209;2019.64;538.102;1.21
210;2027.27;548.112;1.22
211;2027.27;526.383;1.22
212;2002.55;569.842;1.22
213;1955.55;555.925;1.22
214;1930.83;520.524;1.22
215;1962.87;575.701;1.22
216;1992.48;555.925;1.22
217;2009.87;557.878;1.23
218;2012.31;542.009;1.23
219;1992.48;563.738;1.23
220;1960.43;550.066;1.23
221;1960.43;575.701;1.23
222;2007.43;532.243;1.23
223;2032.15;548.112;1.23
224;2046.8;585.467;1.24
225;2041.92;526.383;1.24
226;2007.43;548.112;1.24
227;1970.5;548.112;1.24
228;1967.76;565.935;1.24
229;1997.67;542.009;1.24
230;2002.55;552.019;1.24
231;2004.99;534.196;1.25
232;1982.71;581.561;1.25
233;1940.6;559.832;1.25
234;1910.99;526.383;1.25
235;1945.78;585.467;1.25
236;1980.27;559.832;1.25
237;1994.92;559.832;1.25
238;2000.11;548.112;1.25
239;1980.27;565.935;1.26
240;1953.11;555.925;1.26
241;1955.55;577.654;1.26
242;2004.99;532.243;1.26
243;2029.71;555.925;1.26
244;2044.36;585.467;1.26
245;2039.48;524.43;1.26
246;2007.43;555.925;1.26
247;1970.5;555.925;1.27
248;1967.76;565.935;1.27
249;1994.92;550.066;1.27
250;2002.55;557.878;1.27
251;2002.55;542.009;1.27
252;1980.27;585.467;1.27
253;1935.71;561.785;1.27
254;1908.55;532.243;1.28
255;1940.6;593.524;1.28
256;1975.39;561.785;1.28
257;1987.59;569.842;1.28
258;1990.04;552.019;1.28
259;1972.95;573.748;1.28
260;1940.6;559.832;1.28
261;1943.34;587.42;1.28
262;1990.04;542.009;1.28
263;2017.2;559.832;1.29
264;2027.27;593.524;1.29
265;2022.08;538.102;1.29
266;1992.48;557.878;1.29
267;1955.55;557.878;1.29
268;1955.55;573.748;1.29
269;1980.27;553.972;1.29
270;1985.15;561.785;1.29
271;1985.15;542.009;1.3
272;1965.32;589.618;1.3
273;1921.06;567.888;1.3
274;1896.34;536.149;1.3
275;1925.95;593.524;1.3
276;1960.43;567.888;1.3
277;1975.39;571.795;1.3
278;1980.27;555.925;1.3
279;1960.43;575.701;1.3
280;1933.27;567.888;1.31
281;1935.71;587.42;1.31
282;1980.27;544.206;1.31
283;2004.99;567.888;1.31
284;2019.64;593.524;1.31
285;2012.31;536.149;1.31
286;1982.71;563.738;1.31
287;1945.78;565.935;1.31
288;1948.23;575.701;1.32
289;1972.95;559.832;1.32
290;1977.83;567.888;1.32
291;1980.27;553.972;1.32
292;1955.55;579.608;1.32
293;1916.18;575.701;1.32
294;1886.27;542.009;1.32
295;1921.06;583.514;1.32
296;1955.55;585.467;1.32
297;1967.76;579.608;1.33
298;1972.95;561.785;1.33
299;1953.11;581.561;1.33
300;1923.51;573.748;1.33
301;1923.51;601.337;1.33
302;1972.95;563.738;1.33
303;2000.11;567.888;1.33
304;2009.87;607.196;1.33
305;2007.43;559.832;1.33
306;1975.39;563.738;1.34
307;1940.6;563.738;1.34
308;1940.6;585.467;1.34
309;1965.32;563.738;1.34
310;1970.5;571.795;1.34
311;1970.5;548.112;1.34
312;1950.67;587.42;1.34
313;1906.11;579.608;1.34
314;1878.95;540.056;1.34
315;1913.43;593.524;1.35
316;1948.23;585.467;1.35
317;1960.43;585.467;1.35
318;1962.87;563.738;1.35
319;1945.78;587.42;1.35
320;1918.62;579.608;1.35
321;1916.18;605.243;1.35
322;1965.32;561.785;1.35
323;1990.04;573.748;1.35
324;2002.55;609.149;1.36
325;1997.67;559.832;1.36
326;1970.5;571.795;1.36
327;1933.27;569.842;1.36
328;1933.27;587.42;1.36
329;1957.99;567.888;1.36
330;1965.32;575.701;1.36
331;1965.32;555.925;1.36
332;1943.34;601.337;1.36
333;1901.23;581.561;1.36
334;1874.07;548.112;1.37
335;1908.55;603.29;1.37
336;1940.6;585.467;1.37
337;1955.55;587.42;1.37
338;1960.43;571.795;1.37
339;1940.6;593.524;1.37
340;1913.43;581.561;1.37
341;1913.43;603.29;1.37
342;1960.43;559.832;1.37
343;1982.71;577.654;1.37
344;2000.11;613.3;1.38
345;1992.48;555.925;1.38
346;1962.87;577.654;1.38
347;1930.83;575.701;1.38
348;1918.62;589.618;1.38
349;1943.34;571.795;1.38
350;1955.55;581.561;1.38
351;1960.43;561.785;1.38
352;1948.23;607.196;1.38
353;1910.99;583.514;1.38
354;1874.07;553.972;1.39
355;1883.83;613.3;1.39
356;1923.51;587.42;1.39
357;1943.34;585.467;1.39
358;1955.55;573.748;1.39
359;1945.78;591.571;1.39
360;1918.62;583.514;1.39
361;1901.23;609.149;1.39
362;1935.71;577.654;1.39
363;1972.95;575.701;1.39
364;1992.48;613.3;1.39
365;1997.67;575.701;1.4
366;1977.83;571.795;1.4
367;1940.6;575.701;1.4
368;1921.06;593.524;1.4
369;1943.34;579.608;1.4
370;1957.99;581.561;1.4
371;1957.99;557.878;1.4
372;1948.23;593.524;1.4
373;1913.43;589.618;1.4
374;1876.51;552.019;1.4
375;1883.83;597.43;1.4
376;1925.95;595.477;1.41
377;1943.34;589.618;1.41
378;1953.11;571.795;1.41
379;1945.78;595.477;1.41
380;1921.06;585.467;1.41
381;1901.23;611.347;1.41
382;1938.15;575.701;1.41
383;1975.39;579.608;1.41
384;1994.92;615.253;1.41
385;2000.11;569.842;1.41
386;1977.83;575.701;1.41
387;1943.34;573.748;1.42
388;1923.51;597.43;1.42
389;1945.78;573.748;1.42
390;1955.55;581.561;1.42
391;1957.99;557.878;1.42
392;1948.23;599.384;1.42
393;1910.99;589.618;1.42
394;1876.51;552.019;1.42
395;1886.27;603.29;1.42
396;1923.51;595.477;1.42
397;1943.34;593.524;1.42
398;1955.55;573.748;1.42
399;1948.23;595.477;1.43
400;1921.06;585.467;1.43
401;1901.23;611.347;1.43
402;1935.71;569.842;1.43
403;1975.39;579.608;1.43
404;1990.04;615.253;1.43
405;1997.67;561.785;1.43
406;1977.83;579.608;1.43
407;1938.15;575.701;1.43
408;1918.62;593.524;1.43
409;1943.34;573.748;1.43
410;1957.99;583.514;1.43
411;1960.43;559.832;1.44
412;1950.67;609.149;1.44
413;1913.43;589.618;1.44
414;1876.51;552.019;1.44
415;1889.02;609.149;1.44
416;1930.83;587.42;1.44
417;1948.23;587.42;1.44
418;1955.55;575.701;1.44
419;1950.67;595.477;1.44
420;1921.06;585.467;1.44
421;1908.55;607.196;1.44
422;1940.6;561.785;1.44
423;1980.27;579.608;1.45
424;1994.92;613.3;1.45
425;2002.55;557.878;1.45
426;1980.27;581.561;1.45
427;1943.34;579.608;1.45
428;1923.51;595.477;1.45
429;1945.78;573.748;1.45
430;1955.55;581.561;1.45
431;1960.43;555.925;1.45
432;1950.67;603.29;1.45
433;1910.99;589.618;1.45
434;1871.62;552.019;1.45
435;1883.83;605.243;1.45
436;1928.39;591.571;1.46
437;1943.34;591.571;1.46
438;1955.55;577.654;1.46
439;1948.23;595.477;1.46
440;1918.62;583.514;1.46
441;1901.23;609.149;1.46
442;1935.71;569.842;1.46
443;1975.39;579.608;1.46
444;1990.04;617.206;1.46
445;1994.92;563.738;1.46
446;1975.39;579.608;1.46
447;1938.15;575.701;1.46
448;1921.06;593.524;1.47
449;1943.34;571.795;1.47
450;1955.55;581.561;1.47
451;1957.99;561.785;1.47
452;1945.78;609.149;1.47
453;1910.99;587.42;1.47
454;1874.07;555.925;1.47
455;1883.83;611.347;1.47
456;1925.95;591.571;1.47
457;1943.34;589.618;1.47
458;1953.11;575.701;1.47
459;1948.23;595.477;1.47
460;1918.62;583.514;1.47
461;1903.67;605.243;1.48
462;1935.71;581.561;1.48
463;1972.95;575.701;1.48
464;1992.48;613.3;1.48
465;1994.92;579.608;1.48
466;1977.83;569.842;1.48
467;1940.6;579.608;1.48
468;1921.06;593.524;1.48
469;1945.78;585.467;1.48
470;1955.55;581.561;1.48
471;1957.99;557.878;1.48
472;1948.23;593.524;1.48
473;1910.99;591.571;1.48
474;1874.07;553.972;1.49
475;1883.83;593.524;1.49
476;1925.95;599.384;1.49
477;1943.34;589.618;1.49
478;1953.11;575.701;1.49
479;1948.23;591.571;1.49
480;1921.06;587.42;1.49
481;1903.67;611.347;1.49
482;1938.15;579.608;1.49
483;1975.39;577.654;1.49
484;1992.48;615.253;1.49
485;1997.67;573.748;1.49
486;1975.39;573.748;1.49
487;1938.15;575.701;1.5
488;1918.62;595.477;1.5
489;1943.34;575.701;1.5
490;1955.55;579.608;1.5
491;1960.43;557.878;1.5
492;1950.67;597.43;1.5
493;1913.43;589.618;1.5
494;1876.51;552.019;1.5
495;1889.02;601.337;1.5
496;1930.83;593.524;1.5
497;1948.23;593.524;1.5
498;1955.55;575.701;1.5
499;1950.67;597.43;1.5
500;1923.51;583.514;1.51
501;1903.67;611.347;1.51
502;1940.6;573.748;1.51
503;1980.27;579.608;1.51
504;1994.92;615.253;1.51
505;2000.11;567.888;1.51
506;1977.83;577.654;1.51
507;1940.6;575.701;1.51
508;1923.51;595.477;1.51
509;1945.78;571.795;1.51
510;1957.99;583.514;1.51
511;1962.87;559.832;1.51
512;1950.67;605.243;1.51
513;1916.18;587.42;1.52
514;1876.51;552.019;1.52
515;1886.27;607.196;1.52
516;1928.39;593.524;1.52
517;1945.78;591.571;1.52
518;1955.55;571.795;1.52
519;1950.67;595.477;1.52
520;1923.51;585.467;1.52
521;1903.67;607.196;1.52
522;1940.6;567.888;1.52
523;1980.27;579.608;1.52
524;1994.92;615.253;1.52
525;2000.11;561.785;1.52
526;1977.83;579.608;1.53
527;1940.6;579.608;1.53
528;1923.51;595.477;1.53
529;1943.34;573.748;1.53
530;1957.99;583.514;1.53
531;1962.87;561.785;1.53
532;1950.67;589.618;1.53
533;1916.18;593.524;1.53
534;1876.51;557.878;1.53
535;1891.46;587.42;1.53
536;1930.83;605.243;1.53
537;1948.23;587.42;1.53
538;1953.11;573.748;1.53
539;1948.23;585.467;1.54
540;1923.51;585.467;1.54
541;1906.11;611.347;1.54
542;1943.34;585.467;1.54
543;1980.27;577.654;1.54
544;1997.67;615.253;1.54
545;2002.55;577.654;1.54
546;1980.27;571.795;1.54
547;1943.34;581.561;1.54
548;1923.51;593.524;1.54
549;1948.23;581.561;1.54
550;1960.43;583.514;1.54
551;1965.32;559.832;1.54
552;1953.11;595.477;1.54
553;1918.62;593.524;1.55
554;1881.39;553.972;1.55
555;1891.46;593.524;1.55
556;1933.27;599.384;1.55
557;1950.67;591.571;1.55
558;1957.99;573.748;1.55
559;1955.55;591.571;1.55
560;1923.51;587.42;1.55
561;1908.55;613.3;1.55
562;1943.34;577.654;1.55
563;1982.71;577.654;1.55
564;1997.67;615.253;1.55
565;2004.99;571.795;1.55
566;1982.71;575.701;1.55
567;1945.78;575.701;1.56
568;1928.39;593.524;1.56
569;1948.23;575.701;1.56
570;1962.87;581.561;1.56
571;1967.76;559.832;1.56
572;1955.55;597.43;1.56
573;1921.06;591.571;1.56
574;1883.83;553.972;1.56
575;1893.9;599.384;1.56
576;1933.27;595.477;1.56
577;1953.11;591.571;1.56
578;1960.43;571.795;1.56
579;1953.11;595.477;1.56
580;1930.83;585.467;1.56
581;1910.99;609.149;1.57
582;1945.78;571.795;1.57
583;1982.71;579.608;1.57
584;2000.11;615.253;1.57
585;2004.99;563.738;1.57
586;1982.71;577.654;1.57
587;1945.78;575.701;1.57
588;1923.51;593.524;1.57
589;1948.23;571.795;1.57
590;1962.87;581.561;1.57
591;1965.32;561.785;1.57
592;1955.55;605.243;1.57
593;1921.06;587.42;1.57
594;1881.39;553.972;1.57
595;1893.9;605.243;1.58
596;1935.71;591.571;1.58
597;1950.67;591.571;1.58
598;1960.43;571.795;1.58
599;1950.67;595.477;1.58
600;1923.51;585.467;1.58
601;1908.55;609.149;1.58
602;1945.78;577.654;1.58
603;1982.71;579.608;1.58
604;2000.11;615.253;1.58
605;2007.43;569.842;1.58
606;1985.15;573.748;1.58
607;1943.34;577.654;1.58
608;1925.95;591.571;1.58
609;1950.67;573.748;1.58
610;1960.43;581.561;1.59
611;1965.32;559.832;1.59
612;1953.11;599.384;1.59
613;1918.62;585.467;1.59
614;1883.83;550.066;1.59
615;1896.34;601.337;1.59
616;1935.71;591.571;1.59
617;1953.11;593.524;1.59
618;1960.43;573.748;1.59
619;1957.99;593.524;1.59
620;1928.39;583.514;1.59
621;1908.55;609.149;1.59
622;1950.67;569.842;1.59
623;1985.15;579.608;1.59
624;2002.55;615.253;1.59
625;2007.43;561.785;1.6
626;1987.59;577.654;1.6
627;1950.67;575.701;1.6
628;1933.27;595.477;1.6
629;1953.11;569.842;1.6
630;1967.76;581.561;1.6
631;1967.76;559.832;1.6
632;1960.43;605.243;1.6
633;1921.06;585.467;1.6
634;1883.83;559.832;1.6
635;1896.34;581.561;1.6
636;1938.15;605.243;1.6
637;1957.99;585.467;1.6
638;1965.32;569.842;1.6
639;1957.99;577.654;1.6
640;1930.83;585.467;1.61
641;1913.43;603.29;1.61
642;1950.67;583.514;1.61
643;1985.15;573.748;1.61
644;2002.55;607.196;1.61
645;2009.87;579.608;1.61
646;1987.59;565.935;1.61
647;1950.67;579.608;1.61
648;1930.83;589.618;1.61
649;1957.99;587.42;1.61
650;1967.76;579.608;1.61
651;1970.5;557.878;1.61
652;1957.99;587.42;1.61
653;1923.51;589.618;1.61
654;1883.83;552.019;1.61
655;1896.34;585.467;1.61
656;1938.15;597.43;1.62
657;1957.99;583.514;1.62
658;1965.32;573.748;1.62
659;1957.99;583.514;1.62
660;1933.27;585.467;1.62
661;1910.99;605.243;1.62
662;1948.23;581.561;1.62
663;1985.15;573.748;1.62
664;2000.11;613.3;1.62
665;2007.43;571.795;1.62
666;1982.71;567.888;1.62
667;1948.23;577.654;1.62
668;1930.83;593.524;1.62
669;1957.99;575.701;1.62
670;1970.5;579.608;1.62
671;1972.95;553.972;1.62
672;1962.87;595.477;1.63
673;1923.51;585.467;1.63
674;1886.27;548.112;1.63
675;1901.23;595.477;1.63
676;1943.34;591.571;1.63
677;1957.99;589.618;1.63
678;1965.32;569.842;1.63
679;1957.99;589.618;1.63
680;1933.27;583.514;1.63
681;1913.43;609.149;1.63
682;1955.55;571.795;1.63
683;1990.04;577.654;1.63
684;2007.43;615.253;1.63
685;2009.87;561.785;1.63
686;1987.59;573.748;1.63
687;1953.11;571.795;1.64
688;1933.27;591.571;1.64
689;1957.99;571.795;1.64
690;1972.95;577.654;1.64
691;1975.39;552.019;1.64
692;1962.87;599.384;1.64
693;1923.51;585.467;1.64
694;1889.02;546.159;1.64
695;1901.23;601.337;1.64
696;1940.6;585.467;1.64
697;1955.55;587.42;1.64
698;1970.5;569.842;1.64
699;1960.43;589.618;1.64
700;1933.27;581.561;1.64
701;1913.43;605.243;1.64
702;1953.11;579.608;1.64
703;1990.04;569.842;1.65
704;2007.43;601.337;1.65
705;2014.76;579.608;1.65
706;1992.48;559.832;1.65
707;1953.11;579.608;1.65
708;1935.71;591.571;1.65
709;1960.43;589.618;1.65
710;1975.39;577.654;1.65
711;1977.83;557.878;1.65
712;1962.87;585.467;1.65
713;1928.39;589.618;1.65
714;1889.02;553.972;1.65
715;1903.67;583.514;1.65
716;1940.6;601.337;1.65
717;1957.99;581.561;1.65
718;1965.32;567.888;1.66
719;1960.43;579.608;1.66
720;1930.83;583.514;1.66
721;1913.43;603.29;1.66
722;1955.55;577.654;1.66
723;1987.59;569.842;1.66
724;2004.99;607.196;1.66
725;2009.87;573.748;1.66
726;1990.04;563.738;1.66
727;1950.67;573.748;1.66
728;1933.27;591.571;1.66
729;1957.99;581.561;1.66
730;1970.5;575.701;1.66
731;1972.95;550.066;1.66
732;1962.87;589.618;1.66
733;1925.95;585.467;1.66
734;1889.02;546.159;1.67
735;1901.23;591.571;1.67
736;1943.34;595.477;1.67
737;1960.43;583.514;1.67
738;1967.76;567.888;1.67
739;1962.87;587.42;1.67
740;1938.15;579.608;1.67
741;1916.18;603.29;1.67
742;1955.55;575.701;1.67
743;1992.48;573.748;1.67
744;2007.43;609.149;1.67
745;2014.76;569.842;1.67
746;1992.48;567.888;1.67
747;1955.55;573.748;1.67
748;1935.71;587.42;1.67
749;1960.43;571.795;1.68
750;1972.95;577.654;1.68
751;1975.39;553.972;1.68
752;1965.32;591.571;1.68
753;1930.83;585.467;1.68
754;1893.9;546.159;1.68
755;1903.67;595.477;1.68
756;1943.34;589.618;1.68
757;1962.87;585.467;1.68
758;1970.5;569.842;1.68
759;1960.43;589.618;1.68
760;1933.27;579.608;1.68
761;1913.43;603.29;1.68
762;1953.11;569.842;1.68
763;1992.48;575.701;1.68
764;2009.87;611.347;1.68
765;2017.2;565.935;1.69
766;1992.48;571.795;1.69
767;1955.55;571.795;1.69
768;1938.15;587.42;1.69
769;1960.43;569.842;1.69
770;1972.95;577.654;1.69
771;1975.39;553.972;1.69
772;1965.32;585.467;1.69
773;1928.39;587.42;1.69
774;1891.46;550.066;1.69
775;1903.67;585.467;1.69
776;1940.6;593.524;1.69
777;1957.99;583.514;1.69
778;1967.76;569.842;1.69
779;1960.43;585.467;1.69
780;1935.71;579.608;1.69
781;1916.18;605.243;1.7
782;1955.55;571.795;1.7
783;1990.04;573.748;1.7
784;2007.43;609.149;1.7
785;2009.87;569.842;1.7
786;1990.04;569.842;1.7
787;1953.11;571.795;1.7
788;1935.71;589.618;1.7
789;1957.99;571.795;1.7
790;1972.95;575.701;1.7
791;1975.39;553.972;1.7
792;1962.87;587.42;1.7
793;1928.39;583.514;1.7
794;1891.46;546.159;1.7
795;1903.67;593.524;1.7
796;1943.34;587.42;1.7
797;1962.87;589.618;1.71
798;1970.5;571.795;1.71
799;1960.43;591.571;1.71
800;1935.71;581.561;1.71
801;1918.62;603.29;1.71
802;1957.99;573.748;1.71
803;1994.92;573.748;1.71
804;2009.87;609.149;1.71
805;2014.76;583.514;1.71
806;1992.48;552.019;1.71
807;1955.55;577.654;1.71
808;1938.15;585.467;1.71
809;1962.87;587.42;1.71
810;1975.39;575.701;1.71
811;1977.83;555.925;1.71
812;1967.76;579.608;1.72
813;1933.27;591.571;1.72
814;1893.9;557.878;1.72
815;1906.11;577.654;1.72
816;1945.78;605.243;1.72
817;1962.87;579.608;1.72
818;1972.95;569.842;1.72
819;1960.43;571.795;1.72
820;1935.71;583.514;1.72
821;1916.18;601.337;1.72
822;1955.55;579.608;1.72
823;1992.48;567.888;1.72
824;2012.31;605.243;1.72
825;2014.76;579.608;1.72
826;1992.48;557.878;1.72
827;1955.55;573.748;1.72
828;1938.15;589.618;1.73
829;1960.43;583.514;1.73
830;1975.39;573.748;1.73
831;1980.27;553.972;1.73
832;1967.76;581.561;1.73
833;1930.83;587.42;1.73
834;1893.9;553.972;1.73
835;1906.11;581.561;1.73
836;1945.78;597.43;1.73
837;1960.43;579.608;1.73
838;1970.5;567.888;1.73
839;1960.43;579.608;1.73
840;1933.27;581.561;1.73
841;1916.18;605.243;1.73
842;1955.55;575.701;1.73
843;1994.92;571.795;1.73
844;2012.31;607.196;1.74
845;2017.2;571.795;1.74
846;1992.48;565.935;1.74
847;1953.11;573.748;1.74
848;1940.6;587.42;1.74
849;1962.87;575.701;1.74
850;1975.39;573.748;1.74
851;1977.83;553.972;1.74
852;1965.32;585.467;1.74
853;1930.83;585.467;1.74
854;1893.9;548.112;1.74
855;1906.11;587.42;1.74
856;1945.78;593.524;1.74
857;1965.32;585.467;1.74
858;1972.95;569.842;1.74
859;1967.76;589.618;1.74
860;1938.15;579.608;1.75
861;1921.06;601.337;1.75
862;1955.55;571.795;1.75
863;1992.48;571.795;1.75
864;2009.87;609.149;1.75
865;2014.76;565.935;1.75
866;1994.92;567.888;1.75
867;1955.55;569.842;1.75
868;1938.15;587.42;1.75
869;1962.87;567.888;1.75
870;1975.39;575.701;1.75
871;1977.83;552.019;1.75
872;1967.76;593.524;1.75
873;1930.83;583.514;1.75
874;1896.34;559.832;1.75
875;1908.55;569.842;1.75
876;1948.23;607.196;1.76
877;1965.32;575.701;1.76
878;1975.39;567.888;1.76
879;1965.32;569.842;1.76
880;1938.15;581.561;1.76
881;1918.62;595.477;1.76
882;1960.43;583.514;1.76
883;1997.67;561.785;1.76
884;2014.76;595.477;1.76
885;2022.08;579.608;1.76
886;2000.11;552.019;1.76
887;1962.87;573.748;1.76
888;1943.34;585.467;1.76
889;1967.76;581.561;1.76
890;1980.27;573.748;1.76
891;1982.71;555.925;1.76
892;1970.5;575.701;1.77
893;1935.71;589.618;1.77
894;1901.23;553.972;1.77
895;1910.99;573.748;1.77
896;1953.11;601.337;1.77
897;1970.5;577.654;1.77
898;1977.83;565.935;1.77
899;1970.5;569.842;1.77
900;1943.34;579.608;1.77
901;1923.51;601.337;1.77
902;1962.87;579.608;1.77
903;2002.55;567.888;1.77
904;2017.2;601.337;1.77
905;2022.08;575.701;1.77
906;2002.55;557.878;1.77
907;1962.87;573.748;1.77
908;1945.78;589.618;1.78
909;1970.5;581.561;1.78
910;1982.71;573.748;1.78
911;1985.15;552.019;1.78
912;1972.95;581.561;1.78
913;1938.15;583.514;1.78
914;1901.23;550.066;1.78
915;1913.43;581.561;1.78
916;1950.67;595.477;1.78
917;1970.5;579.608;1.78
918;1977.83;565.935;1.78
919;1970.5;577.654;1.78
920;1943.34;579.608;1.78
921;1923.51;601.337;1.78
922;1965.32;575.701;1.78
923;2000.11;569.842;1.78
924;2017.2;609.149;1.79
925;2019.64;569.842;1.79
926;2000.11;563.738;1.79
927;1960.43;569.842;1.79
928;1943.34;585.467;1.79
929;1967.76;573.748;1.79
930;1980.27;571.795;1.79
931;1985.15;552.019;1.79
932;1972.95;587.42;1.79
933;1935.71;581.561;1.79
934;1898.79;546.159;1.79
935;1910.99;585.467;1.79
936;1950.67;591.571;1.79
937;1970.5;583.514;1.79
938;1977.83;567.888;1.79
939;1967.76;587.42;1.79
940;1940.6;579.608;1.8
941;1925.95;603.29;1.8
942;1962.87;569.842;1.8
943;2000.11;567.888;1.8
944;2019.64;603.29;1.8
945;2022.08;573.748;1.8
946;2000.11;559.832;1.8
947;1960.43;573.748;1.8
948;1948.23;585.467;1.8
949;1970.5;581.561;1.8
950;1982.71;573.748;1.8
951;1985.15;550.066;1.8
952;1972.95;581.561;1.8
953;1938.15;583.514;1.8
954;1898.79;548.112;1.8
955;1910.99;579.608;1.8
956;1953.11;593.524;1.81
957;1967.76;581.561;1.81
958;1975.39;565.935;1.81
959;1967.76;579.608;1.81
960;1943.34;579.608;1.81
961;1925.95;599.384;1.81
962;1962.87;571.795;1.81
963;2000.11;565.935;1.81
964;2014.76;609.149;1.81
965;2022.08;569.842;1.81
966;2000.11;565.935;1.81
967;1962.87;569.842;1.81
968;1945.78;587.42;1.81
969;1970.5;573.748;1.81
970;1982.71;573.748;1.81
971;1985.15;550.066;1.81
972;1972.95;585.467;1.82
973;1935.71;583.514;1.82
974;1898.79;544.206;1.82
975;1910.99;589.618;1.82
976;1953.11;589.618;1.82
977;1970.5;577.654;1.82
978;1977.83;567.888;1.82
979;1970.5;571.795;1.82
980;1945.78;581.561;1.82
981;1928.39;589.618;1.82
982;1967.76;585.467;1.82
983;2002.55;561.785;1.82
984;2019.64;591.571;1.82
985;2022.08;583.514;1.82
986;2000.11;546.159;1.82
987;1965.32;575.701;1.82
988;1945.78;583.514;1.83
989;1970.5;585.467;1.83
990;1985.15;569.842;1.83
991;1987.59;557.878;1.83
992;1975.39;573.748;1.83
993;1935.71;589.618;1.83
994;1898.79;555.925;1.83
995;1910.99;573.748;1.83
996;1955.55;603.29;1.83
997;1972.95;577.654;1.83
998;1982.71;565.935;1.83
999;1975.39;569.842;1.83
1000;1948.23;579.608;1.83
1001;1925.95;599.384;1.83
1002;1967.76;579.608;1.83
1003;2002.55;563.738;1.83
1004;2019.64;597.43;1.83
1005;2024.83;579.608;1.84
1006;2002.55;553.972;1.84
1007;1962.87;571.795;1.84
1008;1948.23;585.467;1.84
1009;1970.5;585.467;1.84
1010;1982.71;573.748;1.84
1011;1982.71;552.019;1.84
1012;1975.39;577.654;1.84
1013;1938.15;585.467;1.84
1014;1898.79;550.066;1.84
1015;1908.55;577.654;1.84
1016;1948.23;597.43;1.84
1017;1970.5;577.654;1.84
1018;1975.39;563.738;1.84
1019;1967.76;571.795;1.84
1020;1943.34;577.654;1.84
1021;1923.51;599.384;1.84
1022;1960.43;573.748;1.85
1023;2000.11;565.935;1.85
1024;2014.76;603.29;1.85
1025;2022.08;573.748;1.85
1026;2000.11;557.878;1.85
1027;1962.87;569.842;1.85
1028;1945.78;585.467;1.85
1029;1972.95;577.654;1.85
1030;1985.15;571.795;1.85
1031;1987.59;550.066;1.85
1032;1977.83;583.514;1.85
1033;1940.6;583.514;1.85
1034;1901.23;544.206;1.85
1035;1916.18;583.514;1.85
1036;1955.55;591.571;1.85
1037;1972.95;579.608;1.85
1038;1982.71;567.888;1.85
1039;1975.39;579.608;1.85
1040;1948.23;579.608;1.86
1041;1930.83;601.337;1.86
1042;1967.76;573.748;1.86
1043;2004.99;569.842;1.86
1044;2019.64;607.196;1.86
1045;2024.83;565.935;1.86
1046;2000.11;542.009;1.86
1047;1962.87;575.701;1.86
1048;1948.23;583.514;1.86
1049;1972.95;583.514;1.86
1050;1987.59;567.888;1.86
1051;1990.04;559.832;1.86
1052;1977.83;573.748;1.86
1053;1940.6;593.524;1.86
1054;1903.67;561.785;1.86
1055;1916.18;565.935;1.86
1056;1957.99;609.149;1.86
1057;1975.39;575.701;1.87
1058;1985.15;565.935;1.87
1059;1975.39;569.842;1.87
1060;1962.87;581.561;1.87
1061;1933.27;595.477;1.87
1062;1950.67;583.514;1.87
1063;1994.92;557.878;1.87
1064;2017.2;593.524;1.87
1065;2027.27;583.514;1.87
1066;2014.76;550.066;1.87
1067;1980.27;573.748;1.87
1068;1950.67;583.514;1.87
1069;1962.87;581.561;1.87
1070;1985.15;571.795;1.87
1071;1990.04;553.972;1.87
1072;1990.04;575.701;1.87
1073;1960.43;589.618;1.87
1074;1918.62;555.925;1.88
1075;1906.11;571.795;1.88
1076;1945.78;605.243;1.88
1077;1970.5;575.701;1.88
1078;1982.71;563.738;1.88
1079;1982.71;569.842;1.88
1080;1962.87;579.608;1.88
1081;1930.83;597.43;1.88
1082;1950.67;577.654;1.88
1083;1994.92;563.738;1.88
1084;2019.64;599.384;1.88
1085;2027.27;573.748;1.88
1086;2019.64;555.925;1.88
1087;1982.71;575.701;1.88
1088;1953.11;583.514;1.88
1089;1965.32;583.514;1.88
1090;1987.59;569.842;1.89
1091;1992.48;552.019;1.89
1092;1990.04;577.654;1.89
1093;1962.87;583.514;1.89
1094;1918.62;548.112;1.89
1095;1908.55;577.654;1.89
1096;1945.78;599.384;1.89
1097;1972.95;577.654;1.89
1098;1985.15;563.738;1.89
1099;1982.71;573.748;1.89
1100;1962.87;577.654;1.89
1101;1933.27;599.384;1.89
1102;1953.11;575.701;1.89
1103;1997.67;567.888;1.89
1104;2019.64;603.29;1.89
1105;2032.15;569.842;1.89
1106;2017.2;559.832;1.9
1107;1985.15;571.795;1.9
1108;1953.11;585.467;1.9
1109;1967.76;573.748;1.9
1110;1987.59;571.795;1.9
1111;1994.92;548.112;1.9
1112;1990.04;581.561;1.9
1113;1960.43;581.561;1.9
1114;1921.06;544.206;1.9
1115;1908.55;573.748;1.9
1116;1950.67;601.337;1.9
1117;1975.39;575.701;1.9
1118;1990.04;563.738;1.9
1119;1990.04;567.888;1.9
1120;1967.76;579.608;1.9
1121;1940.6;601.337;1.9
1122;1955.55;575.701;1.9
1123;2004.99;561.785;1.91
1124;2024.83;601.337;1.91
1125;2034.59;575.701;1.91
1126;2024.83;552.019;1.91
1127;1990.04;573.748;1.91
1128;1957.99;587.42;1.91
1129;1970.5;581.561;1.91
1130;1987.59;571.795;1.91
1131;1997.67;552.019;1.91
1132;1992.48;579.608;1.91
1133;1965.32;585.467;1.91
1134;1921.06;546.159;1.91
1135;1910.99;579.608;1.91
1136;1953.11;595.477;1.91
1137;1980.27;575.701;1.91
1138;1992.48;565.935;1.92
1139;1990.04;571.795;1.92
1140;1970.5;577.654;1.92
1141;1940.6;599.384;1.92
1142;1957.99;573.748;1.92
1143;2002.55;563.738;1.92
1144;2027.27;605.243;1.92
1145;2034.59;569.842;1.92
1146;2024.83;559.832;1.92
1147;1992.48;569.842;1.92
1148;1957.99;587.42;1.92
1149;1972.95;581.561;1.92
1150;1994.92;567.888;1.92
1151;2000.11;561.785;1.92
1152;1992.48;567.888;1.92
1153;1970.5;595.477;1.92
1154;1925.95;565.935;1.93
1155;1910.99;561.785;1.93
1156;1953.11;609.149;1.93
1157;1980.27;575.701;1.93
1158;1990.04;567.888;1.93
1159;1990.04;565.935;1.93
1160;1970.5;581.561;1.93
1161;1938.15;589.618;1.93
1162;1955.55;581.561;1.93
1163;2004.99;557.878;1.93
1164;2029.71;589.618;1.93
1165;2039.48;583.514;1.93
1166;2029.71;544.206;1.93
1167;1994.92;573.748;1.93
1168;1962.87;581.561;1.93
1169;1970.5;581.561;1.93
1170;1997.67;569.842;1.94
1171;2000.11;557.878;1.94
1172;1997.67;571.795;1.94
1173;1967.76;591.571;1.94
1174;1925.95;557.878;1.94
1175;1913.43;567.888;1.94
1176;1955.55;605.243;1.94
1177;1980.27;575.701;1.94
1178;1994.92;561.785;1.94
1179;1992.48;567.888;1.94
1180;1972.95;579.608;1.94
1181;1943.34;595.477;1.94
1182;1962.87;579.608;1.94
1183;2004.99;559.832;1.94
1184;2032.15;595.477;1.94
1185;2039.48;577.654;1.95
1186;2027.27;548.112;1.95
1187;1992.48;573.748;1.95
1188;1965.32;587.42;1.95
1189;1975.39;581.561;1.95
1190;2000.11;569.842;1.95
1191;2004.99;552.019;1.95
1192;2000.11;573.748;1.95
1193;1970.5;587.42;1.95
1194;1928.39;552.019;1.95
1195;1916.18;573.748;1.95
1196;1957.99;599.384;1.95
1197;1985.15;575.701;1.95
1198;1997.67;563.738;1.95
1199;1994.92;569.842;1.95
1200;1975.39;577.654;1.96
1201;1943.34;597.43;1.96
1202;1965.32;573.748;1.96
1203;2012.31;563.738;1.96
1204;2034.59;603.29;1.96
1205;2044.36;573.748;1.96
1206;2034.59;555.925;1.96
1207;1997.67;571.795;1.96
1208;1967.76;585.467;1.96
1209;1980.27;583.514;1.96
1210;2002.55;571.795;1.96
1211;2009.87;548.112;1.96
1212;2002.55;581.561;1.96
1213;1975.39;581.561;1.96
1214;1930.83;546.159;1.97
1215;1921.06;579.608;1.97
1216;1962.87;593.524;1.97
1217;1987.59;577.654;1.97
1218;2000.11;569.842;1.97
1219;2000.11;567.888;1.97
1220;1977.83;581.561;1.97
1221;1950.67;583.514;1.97
1222;1967.76;585.467;1.97
1223;2014.76;553.972;1.97
1224;2037.03;581.561;1.97
1225;2049.24;589.618;1.97
1226;2039.48;542.009;1.97
1227;2002.55;571.795;1.97
1228;1970.5;579.608;1.97
1229;1987.59;581.561;1.98
1230;2007.43;567.888;1.98
1231;2012.31;561.785;1.98
1232;2009.87;565.935;1.98
1233;1982.71;595.477;1.98
1234;1943.34;563.738;1.98
1235;1923.51;561.785;1.98
1236;1970.5;609.149;1.98
1237;1997.67;573.748;1.98
1238;2009.87;565.935;1.98
1239;2007.43;569.842;1.98
1240;1985.15;579.608;1.98
1241;1957.99;589.618;1.98
1242;1975.39;581.561;1.98
1243;2027.27;557.878;1.98
1244;2044.36;587.42;1.99
1245;2056.87;585.467;1.99
1246;2044.36;546.159;1.99
1247;2009.87;571.795;1.99
1248;1980.27;581.561;1.99
1249;1990.04;583.514;1.99
1250;2012.31;569.842;1.99
1251;2019.64;553.972;1.99
1252;2014.76;573.748;1.99
1253;1987.59;593.524;1.99
1254;1940.6;555.925;1.99
1255;1930.83;567.888;1.99
1256;1972.95;601.337;1.99
1257;2000.11;575.701;1.99
1258;2012.31;563.738;1.99
1259;2012.31;565.935;2
1260;1992.48;579.608;2
1261;1962.87;595.477;2
1262;1982.71;577.654;2
1263;2027.27;561.785;2
1264;2049.24;597.43;2
1265;2059.31;575.701;2
1266;2046.8;550.066;2
1267;2014.76;573.748;2
1268;1982.71;585.467;2
1269;1994.92;583.514;2
1270;2019.64;569.842;2
1271;2022.08;550.066;2
1272;2019.64;577.654;2
1273;1987.59;583.514;2
1274;1948.23;548.112;2.01
1275;1933.27;577.654;2.01
1276;1977.83;597.43;2.01
1277;2004.99;577.654;2.01
1278;2017.2;561.785;2.01
1279;2019.64;569.842;2.01
1280;1997.67;575.701;2.01
1281;1967.76;601.337;2.01
1282;1985.15;573.748;2.01
1283;2034.59;563.738;2.01
1284;2054.43;603.29;2.01
1285;2066.64;569.842;2.01
1286;2056.87;546.159;2.01
1287;2017.2;571.795;2.01
1288;1987.59;581.561;2.01
1289;2000.11;583.514;2.02
1290;2019.64;569.842;2.02
1291;2027.27;553.972;2.02
1292;2022.08;573.748;2.02
1293;1990.04;587.42;2.02
1294;1948.23;553.972;2.02
1295;1938.15;571.795;2.02
1296;1982.71;603.29;2.02
1297;2009.87;573.748;2.02
1298;2022.08;563.738;2.02
1299;2022.08;569.842;2.02
1300;1997.67;579.608;2.02
1301;1970.5;595.477;2.02
1302;1990.04;577.654;2.02
1303;2039.48;559.832;2.03
1304;2056.87;597.43;2.03
1305;2066.64;573.748;2.03
1306;2051.99;552.019;2.03
1307;2019.64;573.748;2.03
1308;1987.59;583.514;2.03
1309;2004.99;581.561;2.03
1310;2024.83;571.795;2.03
1311;2032.15;550.066;2.03
1312;2027.27;579.608;2.03
1313;2000.11;585.467;2.03
1314;1953.11;548.112;2.03
1315;1940.6;575.701;2.03
1316;1985.15;599.384;2.03
1317;2012.31;573.748;2.03
1318;2024.83;563.738;2.04
1319;2027.27;569.842;2.04
1320;2002.55;577.654;2.04
1321;1972.95;581.561;2.04
1322;1992.48;589.618;2.04
1323;2037.03;550.066;2.04
1324;2064.2;577.654;2.04
1325;2071.52;591.571;2.04
1326;2061.75;538.102;2.04
1327;2027.27;571.795;2.04
1328;1994.92;575.701;2.04
1329;2007.43;581.561;2.04
1330;2029.71;567.888;2.04
1331;2037.03;563.738;2.04
1332;2032.15;565.935;2.05
1333;2002.55;597.43;2.05
1334;1960.43;567.888;2.05
1335;1945.78;557.878;2.05
1336;1990.04;611.347;2.05
1337;2019.64;573.748;2.05
1338;2032.15;569.842;2.05
1339;2032.15;567.888;2.05
1340;2009.87;579.608;2.05
1341;1982.71;585.467;2.05
1342;2000.11;583.514;2.05
1343;2046.8;553.972;2.05
1344;2069.08;583.514;2.05
1345;2079.15;585.467;2.05
1346;2069.08;542.009;2.05
1347;2032.15;571.795;2.06
1348;2000.11;579.608;2.06
1349;2014.76;581.561;2.06
1350;2034.59;569.842;2.06
1351;2041.92;557.878;2.06
1352;2034.59;567.888;2.06
1353;2009.87;591.571;2.06
1354;1967.76;559.832;2.06
1355;1953.11;565.935;2.06
1356;2000.11;605.243;2.06
1357;2027.27;575.701;2.06
1358;2039.48;565.935;2.06
1359;2037.03;567.888;2.06
1360;2019.64;577.654;2.06
1361;1985.15;591.571;2.06
1362;2007.43;579.608;2.07
1363;2054.43;555.925;2.07
1364;2076.4;591.571;2.07
1365;2088.92;577.654;2.07
1366;2073.96;548.112;2.07
1367;2039.48;571.795;2.07
1368;2007.43;583.514;2.07
1369;2019.64;581.561;2.07
1370;2046.8;569.842;2.07
1371;2051.99;552.019;2.07
1372;2046.8;573.748;2.07
1373;2017.2;587.42;2.07
1374;1972.95;550.066;2.07
1375;1962.87;571.795;2.07
1376;2007.43;601.337;2.08
1377;2032.15;573.748;2.08
1378;2044.36;561.785;2.08
1379;2044.36;567.888;2.08
1380;2022.08;577.654;2.08
1381;1992.48;595.477;2.08
1382;2012.31;573.748;2.08
1383;2059.31;561.785;2.08
1384;2079.15;597.43;2.08
1385;2088.92;573.748;2.08
1386;2079.15;553.972;2.08
1387;2044.36;569.842;2.08
1388;2014.76;585.467;2.08
1389;2027.27;583.514;2.08
1390;2049.24;565.935;2.08
1391;2054.43;565.935;2.09
1392;2049.24;557.878;2.09
1393;2022.08;599.384;2.09
1394;1977.83;571.795;2.09
1395;1965.32;552.019;2.09
1396;2007.43;611.347;2.09
1397;2037.03;575.701;2.09
1398;2049.24;573.748;2.09
1399;2046.8;563.738;2.09
1400;2024.83;579.608;2.09
1401;1997.67;579.608;2.09
1402;2014.76;587.42;2.09
1403;2064.2;550.066;2.09
1404;2086.47;577.654;2.09
1405;2093.8;591.571;2.09
1406;2084.03;538.102;2.1
1407;2049.24;573.748;2.1
1408;2017.2;575.701;2.1
1409;2032.15;579.608;2.1
1410;2056.87;567.888;2.1
1411;2061.75;561.785;2.1
1412;2054.43;563.738;2.1
1413;2029.71;597.43;2.1
1414;1985.15;565.935;2.1
1415;1972.95;559.832;2.1
1416;2017.2;611.347;2.1
1417;2046.8;573.748;2.1
1418;2059.31;567.888;2.1
1419;2056.87;567.888;2.1
1420;2034.59;579.608;2.1
1421;2004.99;587.42;2.11
1422;2022.08;581.561;2.11
1423;2069.08;553.972;2.11
1424;2093.8;585.467;2.11
1425;2106.31;583.514;2.11
1426;2091.36;544.206;2.11
1427;2051.99;573.748;2.11
1428;2022.08;579.608;2.11
1429;2037.03;581.561;2.11
1430;2061.75;567.888;2.11
1431;2069.08;557.878;2.11
1432;2064.2;569.842;2.11
1433;2034.59;591.571;2.11
1434;1992.48;559.832;2.11
1435;1980.27;567.888;2.11
1436;2022.08;605.243;2.12
1437;2046.8;573.748;2.12
1438;2064.2;563.738;2.12
1439;2059.31;567.888;2.12
1440;2039.48;579.608;2.12
1441;2007.43;591.571;2.12
1442;2029.71;575.701;2.12
1443;2076.4;557.878;2.12
1444;2098.68;595.477;2.12
1445;2108.75;575.701;2.12
1446;2098.68;546.159;2.12
1447;2061.75;571.795;2.12
1448;2029.71;585.467;2.12
1449;2044.36;579.608;2.12
1450;2069.08;567.888;2.13
1451;2073.96;552.019;2.13
1452;2071.52;577.654;2.13
1453;2039.48;587.42;2.13
1454;2000.11;552.019;2.13
1455;1985.15;571.795;2.13
1456;2032.15;601.337;2.13
1457;2056.87;573.748;2.13
1458;2071.52;567.888;2.13
1459;2069.08;569.842;2.13
1460;2046.8;577.654;2.13
1461;2017.2;587.42;2.13
1462;2037.03;583.514;2.13
1463;2084.03;553.972;2.13
1464;2108.75;585.467;2.14
1465;2120.96;581.561;2.14
1466;2108.75;542.009;2.14
1467;2071.52;571.795;2.14
1468;2039.48;581.561;2.14
1469;2051.99;579.608;2.14
1470;2079.15;567.888;2.14
1471;2081.59;557.878;2.14
1472;2076.4;569.842;2.14
1473;2046.8;589.618;2.14
1474;2002.55;557.878;2.14
1475;1990.04;567.888;2.14
1476;2037.03;603.29;2.14
1477;2066.64;569.842;2.14
1478;2079.15;563.738;2.15
1479;2076.4;563.738;2.15
1480;2054.43;579.608;2.15
1481;2024.83;593.524;2.15
1482;2044.36;577.654;2.15
1483;2093.8;557.878;2.15
1484;2116.08;591.571;2.15
1485;2128.28;579.608;2.15
1486;2113.64;548.112;2.15
1487;2079.15;571.795;2.15
1488;2046.8;583.514;2.15
1489;2061.75;583.514;2.15
1490;2086.47;569.842;2.15
1491;2088.92;550.066;2.16
1492;2088.92;555.925;2.16
1493;2056.87;599.384;2.16
1494;2012.31;575.701;2.16
1495;2000.11;546.159;2.16
1496;2046.8;605.243;2.16
1497;2076.4;575.701;2.16
1498;2086.47;573.748;2.16
1499;2086.47;565.935;2.16
1500;2064.2;579.608;2.16
1501;2034.59;575.701;2.16
1502;2054.43;587.42;2.16
1503;2103.56;550.066;2.16
1504;2125.84;573.748;2.17
1505;2135.91;595.477;2.17
1506;2123.4;540.056;2.17
1507;2086.47;571.795;2.17
1508;2054.43;571.795;2.17
1509;2071.52;577.654;2.17
1510;2091.36;565.935;2.17
1511;2098.68;563.738;2.17
1512;2093.8;559.832;2.17
1513;2064.2;597.43;2.17
1514;2022.08;569.842;2.17
1515;2007.43;552.019;2.17
1516;2054.43;611.347;2.17
1517;2079.15;575.701;2.18
1518;2091.36;567.888;2.18
1519;2091.36;565.935;2.18
1520;2066.64;577.654;2.18
1521;2034.59;579.608;2.18
1522;2056.87;585.467;2.18
1523;2108.75;550.066;2.18
1524;2130.73;579.608;2.18
1525;2143.24;591.571;2.18
1526;2133.47;538.102;2.18
1527;2093.8;573.748;2.18
1528;2061.75;575.701;2.18
1529;2076.4;579.608;2.18
1530;2101.12;565.935;2.19
1531;2106.31;561.785;2.19
1532;2101.12;565.935;2.19
1533;2073.96;593.524;2.19
1534;2032.15;563.738;2.19
1535;2017.2;559.832;2.19
1536;2064.2;609.149;2.19
1537;2091.36;571.795;2.19
1538;2101.12;565.935;2.19
1539;2106.31;565.935;2.19
1540;2081.59;579.608;2.19
1541;2049.24;589.618;2.19
1542;2071.52;583.514;2.2
1543;2120.96;553.972;2.2
1544;2143.24;585.467;2.2
1545;2153;581.561;2.2
1546;2143.24;542.009;2.2
1547;2106.31;571.795;2.2
1548;2069.08;581.561;2.2
1549;2086.47;579.608;2.2
1550;2108.75;569.842;2.2
1551;2113.64;553.972;2.2
1552;2108.75;571.795;2.2
1553;2079.15;591.571;2.2
1554;2032.15;553.972;2.21
1555;2022.08;567.888;2.21
1556;2069.08;603.29;2.21
1557;2098.68;573.748;2.21
1558;2111.19;559.832;2.21
1559;2108.75;565.935;2.21
1560;2084.03;581.561;2.21
1561;2059.31;573.748;2.21
1562;2073.96;595.477;2.21
1563;2125.84;548.112;2.21
1564;2150.56;571.795;2.21
1565;2160.63;601.337;2.21
1566;2148.12;542.009;2.21
1567;2111.19;569.842;2.22
1568;2076.4;567.888;2.22
1569;2091.36;579.608;2.22
1570;2116.08;561.785;2.22
1571;2120.96;567.888;2.22
1572;2118.52;555.925;2.22
1573;2088.92;597.43;2.22
1574;2046.8;571.795;2.22
1575;2029.71;544.206;2.22
1576;2073.96;607.196;2.22
1577;2101.12;573.748;2.22
1578;2116.08;573.748;2.23
1579;2113.64;565.935;2.23
1580;2091.36;579.608;2.23
1581;2061.75;575.701;2.23
1582;2081.59;589.618;2.23
1583;2133.47;550.066;2.23
1584;2160.63;571.795;2.23
1585;2170.4;595.477;2.23
1586;2157.89;538.102;2.23
1587;2118.52;569.842;2.23
1588;2084.03;571.795;2.23
1589;2101.12;579.608;2.23
1590;2125.84;563.738;2.23
1591;2133.47;563.738;2.24
1592;2125.84;559.832;2.24
1593;2098.68;595.477;2.24
1594;2051.99;567.888;2.24
1595;2037.03;555.925;2.24
1596;2081.59;611.347;2.24
1597;2111.19;571.795;2.24
1598;2125.84;569.842;2.24
1599;2123.4;567.888;2.24
1600;2101.12;577.654;2.24
1601;2069.08;581.561;2.24
1602;2088.92;581.561;2.24
1603;2143.24;552.019;2.25
1604;2165.52;581.561;2.25
1605;2177.72;585.467;2.25
1606;2165.52;538.102;2.25
1607;2125.84;571.795;2.25
1608;2091.36;577.654;2.25
1609;2111.19;579.608;2.25
1610;2133.47;565.935;2.25
1611;2138.36;555.925;2.25
1612;2133.47;565.935;2.25
1613;2103.56;591.571;2.25
1614;2059.31;563.738;2.26
1615;2046.8;561.785;2.26
1616;2093.8;607.196;2.26
1617;2120.96;571.795;2.26
1618;2135.91;563.738;2.26
1619;2133.47;565.935;2.26
1620;2111.19;577.654;2.26
1621;2079.15;585.467;2.26
1622;2096.24;577.654;2.26
1623;2153;553.972;2.26
1624;2175.28;589.618;2.26
1625;2185.05;579.608;2.26
1626;2170.4;544.206;2.27
1627;2130.73;569.842;2.27
1628;2098.68;573.748;2.27
1629;2116.08;577.654;2.27
1630;2140.8;565.935;2.27
1631;2148.12;561.785;2.27
1632;2143.24;561.785;2.27
1633;2111.19;593.524;2.27
1634;2064.2;567.888;2.27
1635;2051.99;553.972;2.27
1636;2096.24;611.347;2.27
1637;2128.28;571.795;2.28
1638;2140.8;569.842;2.28
1639;2135.91;567.888;2.28
1640;2113.64;581.561;2.28
1641;2084.03;579.608;2.28
1642;2101.12;581.561;2.28
1643;2153;550.066;2.28
1644;2180.17;581.561;2.28
1645;2190.24;585.467;2.28
1646;2177.72;540.056;2.28
1647;2140.8;571.795;2.28
1648;2106.31;575.701;2.29
1649;2120.96;579.608;2.29
1650;2145.68;565.935;2.29
1651;2150.56;557.878;2.29
1652;2148.12;567.888;2.29
1653;2118.52;589.618;2.29
1654;2069.08;561.785;2.29
1655;2056.87;561.785;2.29
1656;2101.12;607.196;2.29
1657;2133.47;571.795;2.29
1658;2145.68;561.785;2.29
1659;2143.24;565.935;2.3
1660;2118.52;575.701;2.3
1661;2088.92;589.618;2.3
1662;2111.19;577.654;2.3
1663;2163.08;552.019;2.3
1664;2187.8;569.842;2.3
1665;2200;605.243;2.3
1666;2187.8;544.206;2.3
1667;2148.12;567.888;2.3
