<WeldAnalyseData xmlns:i="http:www.w3.org/2001/XMLSchema-instance">
<WeldParameter>
<TimeStamp>DT#2024-01-25-14:03:28</TimeStamp>
<Generator>SG-22-10000</Generator>
<GenFreq>20</GenFreq>
<MaxForce>8000</MaxForce>
<MaxPower>10000</MaxPower>
<RunupPressure>1.5</RunupPressure>
<RunupDist>10</RunupDist>
<RunPress>0.8</RunPress>
<ShakeDelay>0.03</ShakeDelay>
<ShakeTime>0.3</ShakeTime>
<RunBackPress1>6</RunBackPress1>
<RunBackPress2>2</RunBackPress2>
<RunBackDist>1</RunBackDist>
<TrigValue>500</TrigValue>
<TrigModeUnit>W</TrigModeUnit>
<WeldModeUnit>Ws</WeldModeUnit>
<PressNr>0</PressNr>
<MaxLoss>1500</MaxLoss>
</WeldParameter>
<WeldSets>
<WeldSet>
<PressRiseTime>0</PressRiseTime>
<RunPressure>1</RunPressure>
<Amplitude>86</Amplitude>
<WeldMode>3270</WeldMode>
</WeldSet>
</WeldSets>
<WeldValue>
<WeldNr>3015</WeldNr>
<RecipeName>RickStyle</RecipeName>
<WeldTime>1668</WeldTime>
<DistDiff>2.35</DistDiff>
<DistAbs>78.21</DistAbs>
<Energy>3270.86</Energy>
<MaxPower>2180.81</MaxPower>
<CycleTime>6070</CycleTime>
<TrigForce>502.701</TrigForce>
<TrigDist>75.86</TrigDist>
<RunSpeed>68.901</RunSpeed>
<MaxForce>617.206</MaxForce>
<LossPower>320.177</LossPower>
</WeldValue>
</WeldAnalyseData>
#CSV-START#
ms;Power[W];Force[N];Distance[mm]
1;0;0;0
2;0;506.607;0
3;0;504.654;0
4;0;506.607;0
5;0;504.654;0
6;0;506.607;0
7;0;506.607;0
8;0;470.962;0
9;0;427.503;0.0100021
10;0;407.971;0.0400009
11;0;372.326;0.0699997
12;32.6167;358.409;0.0999985
13;99.4522;338.633;0.150002
14;178.495;326.914;0.190002
15;252.655;323.008;0.229996
16;314.302;303.232;0.279999
17;371.067;293.222;0.32
18;432.714;293.222;0.360001
19;489.479;307.138;0.400002
20;546.243;299.326;0.440002
21;613.079;301.279;0.470001
22;689.68;330.821;0.5
23;763.535;321.055;0.529999
24;830.371;330.821;0.550003
25;894.459;336.68;0.57
26;943.899;352.55;0.589996
27;988.456;374.279;0.599998
28;1062.31;374.279;0.610001
29;1123.96;374.279;0.620003
30;1175.84;407.971;0.629997
31;1225.28;405.774;0.629997
32;1250;394.055;0.639999
33;1259.77;411.878;0.639999
34;1274.72;419.691;0.650002
35;1316.84;419.691;0.650002
36;1353.76;415.784;0.650002
37;1385.81;401.868;0.659996
38;1410.53;423.597;0.669998
39;1415.41;429.456;0.669998
40;1415.41;403.821;0.68
41;1449.9;425.55;0.690002
42;1501.78;443.373;0.690002
43;1541.45;431.654;0.699997
44;1573.5;423.597;0.699997
45;1595.77;431.654;0.709999
46;1595.77;435.56;0.720001
47;1605.54;457.289;0.720001
48;1662.31;435.56;0.729996
49;1716.63;431.654;0.729996
50;1756.3;463.149;0.739998
51;1781.02;433.607;0.75
52;1781.02;429.456;0.75
53;1766.07;435.56;0.760002
54;1770.95;453.383;0.769997
55;1813.07;439.467;0.779999
56;1845.11;443.373;0.779999
57;1867.39;423.597;0.790001
58;1872.27;463.149;0.800003
59;1847.55;461.196;0.800003
60;1827.72;427.503;0.809998
61;1849.99;472.915;0.809998
62;1901.88;472.915;0.82
63;1931.48;469.008;0.82
64;1951.32;455.336;0.830002
65;1951.32;479.019;0.830002
66;1936.36;469.008;0.839996
67;1926.6;500.748;0.839996
68;1983.36;463.149;0.849998
69;2030.36;467.055;0.849998
70;2055.08;506.607;0.860001
71;2067.29;459.243;0.860001
72;2049.89;470.962;0.870003
73;2020.29;472.915;0.870003
74;2010.52;492.691;0.879997
75;2047.45;470.962;0.879997
76;2069.73;484.878;0.889999
77;2082.24;465.102;0.889999
78;2074.61;484.878;0.900002
79;2037.68;500.748;0.900002
80;1998.31;470.962;0.900002
81;2017.85;484.878;0.909996
82;2064.84;522.477;0.909996
83;2087.12;496.597;0.919998
84;2096.89;484.878;0.919998
85;2087.12;490.738;0.93
86;2062.4;500.748;0.93
87;2049.89;520.524;0.940002
88;2096.89;504.654;0.940002
89;2143.89;488.784;0.940002
90;2168.61;526.383;0.949997
91;2173.49;504.654;0.949997
92;2151.21;482.925;0.959999
93;2109.4;502.701;0.959999
94;2096.89;516.373;0.959999
95;2128.93;516.373;0.970001
96;2146.33;504.654;0.970001
97;2151.21;482.925;0.970001
98;2139;512.467;0.979996
99;2096.89;522.477;0.979996
100;2052.64;486.831;0.979996
101;2069.73;514.42;0.989998
102;2114.28;532.243;0.989998
103;2131.37;516.373;0.989998
104;2139;500.748;1
105;2126.49;512.467;1
106;2089.56;518.326;1
107;2074.61;540.056;1
108;2121.61;512.467;1.01
109;2161.28;506.607;1.01
110;2180.81;544.206;1.01
111;2180.81;508.56;1.02
112;2153.65;500.748;1.02
113;2114.28;512.467;1.02
114;2096.89;528.336;1.03
115;2126.49;516.373;1.03
116;2141.45;514.42;1.03
117;2146.33;492.691;1.03
118;2131.37;530.29;1.04
119;2087.12;526.383;1.04
120;2045.01;490.738;1.04
121;2059.96;532.243;1.04
122;2101.77;534.196;1.05
123;2119.17;530.29;1.05
124;2126.49;514.42;1.05
125;2111.84;534.196;1.05
126;2079.8;526.383;1.06
127;2062.4;553.972;1.06
128;2106.96;516.373;1.06
129;2146.33;522.477;1.06
130;2161.28;559.832;1.07
131;2163.72;512.467;1.07
132;2134.12;520.524;1.07
133;2094.45;522.477;1.07
134;2077.05;538.102;1.08
135;2106.96;518.326;1.08
136;2119.17;526.383;1.08
137;2124.05;502.701;1.08
138;2106.96;546.159;1.09
139;2064.84;538.102;1.09
140;2020.29;506.607;1.09
141;2040.12;534.196;1.09
142;2079.8;548.112;1.09
143;2094.45;534.196;1.1
144;2099.33;520.524;1.1
145;2084.68;536.149;1.1
146;2057.52;534.196;1.1
147;2030.36;557.878;1.11
148;2069.73;528.336;1.11
149;2111.84;526.383;1.11
150;2134.12;563.738;1.11
151;2139;524.43;1.11
152;2111.84;522.477;1.12
153;2074.61;524.43;1.12
154;2049.89;548.112;1.12
155;2074.61;528.336;1.12
156;2089.56;534.196;1.12
157;2092.01;508.56;1.13
158;2082.24;546.159;1.13
159;2040.12;540.056;1.13
160;1993.13;508.56;1.13
161;1998.31;552.019;1.13
162;2040.12;548.112;1.14
163;2057.52;544.206;1.14
164;2067.29;526.383;1.14
165;2055.08;552.019;1.14
166;2025.48;540.056;1.14
167;2000.76;569.842;1.15
168;2040.12;530.29;1.15
169;2079.8;536.149;1.15
170;2099.33;575.701;1.15
171;2101.77;550.066;1.15
172;2082.24;516.373;1.16
173;2040.12;542.009;1.16
174;2020.29;550.066;1.16
175;2042.57;552.019;1.16
176;2062.4;538.102;1.16
177;2064.84;526.383;1.16
178;2052.64;540.056;1.17
179;2015.4;557.878;1.17
180;1968.41;524.43;1.17
181;1978.48;538.102;1.17
182;2017.85;571.795;1.17
183;2035.24;544.206;1.18
184;2045.01;538.102;1.18
185;2032.8;538.102;1.18
186;2003.2;548.112;1.18
187;1980.92;567.888;1.18
188;2020.29;548.112;1.18
189;2062.4;532.243;1.19
190;2079.8;569.842;1.19
191;2084.68;546.159;1.19
192;2062.4;528.336;1.19
193;2022.73;542.009;1.19
194;2005.64;553.972;1.19
195;2030.36;553.972;1.2
196;2045.01;540.056;1.2
197;2047.45;522.477;1.2
198;2037.68;552.019;1.2
199;1995.57;555.925;1.2
200;1951.32;522.477;1.2
201;1961.08;550.066;1.21
202;2003.2;567.888;1.21
203;2020.29;552.019;1.21
204;2025.48;536.149;1.21
205;2015.4;552.019;1.21
206;1985.8;552.019;1.21
207;1963.52;575.701;1.21
208;2003.2;546.159;1.22
209;2040.12;542.009;1.22
210;2059.96;581.561;1.22
211;2062.4;542.009;1.22
212;2042.57;538.102;1.22
213;2003.2;546.159;1.22
214;1983.36;561.785;1.22
215;2008.08;546.159;1.23
216;2022.73;550.066;1.23
217;2030.36;524.43;1.23
218;2012.96;563.738;1.23
219;1976.04;557.878;1.23
220;1933.92;524.43;1.23
221;1943.99;567.888;1.23
222;1983.36;563.738;1.24
223;2003.2;559.832;1.24
224;2010.52;542.009;1.24
225;2000.76;565.935;1.24
226;1973.59;555.925;1.24
227;1951.32;583.514;1.24
228;1990.68;546.159;1.24
229;2032.8;552.019;1.25
230;2047.45;589.618;1.25
231;2052.64;538.102;1.25
232;2027.92;546.159;1.25
233;1990.68;548.112;1.25
234;1971.15;563.738;1.25
235;1998.31;565.935;1.25
236;2015.4;550.066;1.26
237;2020.29;538.102;1.26
238;2008.08;553.972;1.26
239;1971.15;569.842;1.26
240;1924.15;540.056;1.26
241;1938.8;550.066;1.26
242;1978.48;581.561;1.26
243;1998.31;557.878;1.26
244;2005.64;550.066;1.27
245;1993.13;552.019;1.27
246;1963.52;561.785;1.27
247;1943.99;581.561;1.27
248;1985.8;561.785;1.27
249;2022.73;544.206;1.27
250;2040.12;581.561;1.27
251;2045.01;561.785;1.27
252;2022.73;538.102;1.28
253;1985.8;555.925;1.28
254;1965.96;569.842;1.28
255;1993.13;567.888;1.28
256;2008.08;555.925;1.28
257;2010.52;536.149;1.28
258;2000.76;563.738;1.28
259;1958.64;571.795;1.28
260;1921.71;536.149;1.29
261;1931.48;563.738;1.29
262;1973.59;579.608;1.29
263;1990.68;567.888;1.29
264;2000.76;552.019;1.29
265;1988.24;565.935;1.29
266;1961.08;563.738;1.29
267;1941.24;589.618;1.29
268;1980.92;559.832;1.3
269;2017.85;555.925;1.3
270;2037.68;591.571;1.3
271;2037.68;555.925;1.3
272;2012.96;552.019;1.3
273;1976.04;559.832;1.3
274;1963.52;577.654;1.3
275;1988.24;561.785;1.3
276;2000.76;561.785;1.3
277;2005.64;540.056;1.31
278;1993.13;577.654;1.31
279;1953.76;573.748;1.31
280;1911.64;538.102;1.31
281;1926.6;579.608;1.31
282;1965.96;581.561;1.31
283;1983.36;575.701;1.31
284;1990.68;557.878;1.31
285;1978.48;581.561;1.31
286;1951.32;573.748;1.32
287;1933.92;597.43;1.32
288;1973.59;561.785;1.32
289;2010.52;563.738;1.32
290;2027.92;601.337;1.32
291;2030.36;553.972;1.32
292;2010.52;563.738;1.32
293;1965.96;563.738;1.32
294;1956.2;581.561;1.32
295;1983.36;559.832;1.33
296;1995.57;569.842;1.33
297;1998.31;548.112;1.33
298;1988.24;577.654;1.33
299;1951.32;579.608;1.33
300;1911.64;546.159;1.33
301;1921.71;581.561;1.33
302;1963.52;589.618;1.33
303;1978.48;575.701;1.33
304;1985.8;561.785;1.34
305;1973.59;579.608;1.34
306;1946.43;575.701;1.34
307;1926.6;601.337;1.34
308;1971.15;569.842;1.34
309;2008.08;569.842;1.34
310;2025.48;607.196;1.34
311;2025.48;565.935;1.34
312;2003.2;565.935;1.34
313;1963.52;567.888;1.34
314;1951.32;587.42;1.35
315;1978.48;567.888;1.35
316;1990.68;573.748;1.35
317;1993.13;550.066;1.35
318;1980.92;589.618;1.35
319;1941.24;583.514;1.35
320;1901.88;546.159;1.35
321;1921.71;593.524;1.35
322;1958.64;589.618;1.35
323;1973.59;583.514;1.35
324;1980.92;563.738;1.36
325;1965.96;591.571;1.36
326;1938.8;581.561;1.36
327;1921.71;605.243;1.36
328;1965.96;585.467;1.36
329;2003.2;563.738;1.36
330;2020.29;597.43;1.36
331;2022.73;587.42;1.36
332;1995.57;552.019;1.36
333;1973.59;579.608;1.36
334;1943.99;587.42;1.37
335;1963.52;587.42;1.37
336;1985.8;577.654;1.37
337;1988.24;561.785;1.37
338;1985.8;579.608;1.37
339;1953.76;593.524;1.37
340;1914.08;561.785;1.37
341;1904.32;573.748;1.37
342;1943.99;605.243;1.37
343;1968.41;581.561;1.37
344;1976.04;573.748;1.37
345;1971.15;575.701;1.38
346;1948.87;585.467;1.38
347;1919.27;603.29;1.38
348;1946.43;583.514;1.38
349;1990.68;569.842;1.38
350;2012.96;603.29;1.38
351;2022.73;579.608;1.38
352;2010.52;563.738;1.38
353;1976.04;579.608;1.38
354;1948.87;589.618;1.38
355;1965.96;585.467;1.38
356;1985.8;577.654;1.38
357;1990.68;559.832;1.39
358;1983.36;587.42;1.39
359;1953.76;589.618;1.39
360;1909.2;555.925;1.39
361;1904.32;587.42;1.39
362;1941.24;597.43;1.39
363;1968.41;585.467;1.39
364;1980.92;573.748;1.39
365;1976.04;587.42;1.39
366;1951.32;585.467;1.39
367;1926.6;609.149;1.39
368;1948.87;577.654;1.4
369;1993.13;573.748;1.4
370;2012.96;611.347;1.4
371;2025.48;573.748;1.4
372;2008.08;571.795;1.4
373;1973.59;577.654;1.4
374;1948.87;595.477;1.4
375;1965.96;573.748;1.4
376;1988.24;581.561;1.4
377;1990.68;555.925;1.4
378;1985.8;593.524;1.4
379;1951.32;589.618;1.4
380;1911.64;552.019;1.41
381;1901.88;599.384;1.41
382;1943.99;593.524;1.41
383;1963.52;591.571;1.41
384;1976.04;571.795;1.41
385;1971.15;595.477;1.41
386;1946.43;585.467;1.41
387;1919.27;611.347;1.41
388;1946.43;575.701;1.41
389;1993.13;579.608;1.41
390;2012.96;617.206;1.41
391;2022.73;591.571;1.41
392;2008.08;557.878;1.42
393;1973.59;583.514;1.42
394;1946.43;589.618;1.42
395;1963.52;593.524;1.42
396;1985.8;581.561;1.42
397;1985.8;563.738;1.42
398;1980.92;581.561;1.42
399;1948.87;597.43;1.42
400;1906.76;567.888;1.42
401;1901.88;579.608;1.42
402;1943.99;611.347;1.42
403;1963.52;585.467;1.42
404;1973.59;575.701;1.43
405;1968.41;577.654;1.43
406;1946.43;587.42;1.43
407;1916.83;605.243;1.43
408;1946.43;587.42;1.43
409;1990.68;571.795;1.43
410;2010.52;605.243;1.43
411;2020.29;583.514;1.43
412;2003.2;563.738;1.43
413;1968.41;583.514;1.43
414;1943.99;591.571;1.43
415;1961.08;589.618;1.43
416;1980.92;581.561;1.43
417;1985.8;561.785;1.44
418;1978.48;585.467;1.44
419;1948.87;593.524;1.44
420;1904.32;557.878;1.44
421;1901.88;587.42;1.44
422;1946.43;603.29;1.44
423;1965.96;589.618;1.44
424;1976.04;575.701;1.44
425;1971.15;587.42;1.44
426;1946.43;589.618;1.44
427;1921.71;609.149;1.44
428;1946.43;579.608;1.44
429;1990.68;575.701;1.44
430;2012.96;613.3;1.45
431;2020.29;577.654;1.45
432;2005.64;573.748;1.45
433;1968.41;577.654;1.45
434;1943.99;593.524;1.45
435;1965.96;579.608;1.45
436;1980.92;583.514;1.45
437;1985.8;559.832;1.45
438;1978.48;595.477;1.45
439;1946.43;593.524;1.45
440;1906.76;553.972;1.45
441;1904.32;599.384;1.45
442;1946.43;595.477;1.45
443;1963.52;587.42;1.46
444;1976.04;573.748;1.46
445;1968.41;597.43;1.46
446;1943.99;585.467;1.46
447;1919.27;611.347;1.46
448;1948.87;573.748;1.46
449;1990.68;579.608;1.46
450;2012.96;615.253;1.46
451;2022.73;569.842;1.46
452;2005.64;577.654;1.46
453;1968.41;577.654;1.46
454;1943.99;593.524;1.46
455;1965.96;585.467;1.46
456;1983.36;579.608;1.46
457;1988.24;559.832;1.47
458;1980.92;589.618;1.47
459;1943.99;591.571;1.47
460;1904.32;555.925;1.47
461;1904.32;593.524;1.47
462;1943.99;601.337;1.47
463;1965.96;587.42;1.47
464;1976.04;573.748;1.47
465;1973.59;593.524;1.47
466;1943.99;587.42;1.47
467;1919.27;609.149;1.47
468;1951.32;577.654;1.47
469;1993.13;579.608;1.47
470;2010.52;613.3;1.48
471;2020.29;573.748;1.48
472;2003.2;575.701;1.48
473;1963.52;577.654;1.48
474;1943.99;597.43;1.48
475;1968.41;575.701;1.48
476;1983.36;583.514;1.48
477;1985.8;557.878;1.48
478;1980.92;597.43;1.48
479;1943.99;589.618;1.48
480;1904.32;553.972;1.48
481;1904.32;603.29;1.48
482;1946.43;597.43;1.48
483;1965.96;593.524;1.49
484;1976.04;577.654;1.49
485;1968.41;577.654;1.49
486;1941.24;589.618;1.49
487;1919.27;599.384;1.49
488;1951.32;593.524;1.49
489;1993.13;571.795;1.49
490;2012.96;603.29;1.49
491;2020.29;593.524;1.49
492;2003.2;563.738;1.49
493;1965.96;585.467;1.49
494;1943.99;593.524;1.49
495;1963.52;593.524;1.49
496;1983.36;581.561;1.49
497;1988.24;565.935;1.5
498;1978.48;585.467;1.5
499;1948.87;599.384;1.5
500;1904.32;565.935;1.5
501;1904.32;585.467;1.5
502;1946.43;609.149;1.5
503;1963.52;583.514;1.5
504;1973.59;577.654;1.5
505;1965.96;581.561;1.5
506;1938.8;589.618;1.5
507;1916.83;607.196;1.5
508;1951.32;587.42;1.5
509;1995.57;577.654;1.5
510;2012.96;611.347;1.5
511;2020.29;583.514;1.5
512;2003.2;569.842;1.51
513;1965.96;583.514;1.51
514;1943.99;593.524;1.51
515;1965.96;589.618;1.51
516;1980.92;581.561;1.51
517;1988.24;561.785;1.51
518;1978.48;593.524;1.51
519;1943.99;595.477;1.51
520;1901.88;559.832;1.51
521;1906.76;593.524;1.51
522;1948.87;601.337;1.51
523;1968.41;589.618;1.51
524;1976.04;577.654;1.51
525;1971.15;593.524;1.51
526;1941.24;587.42;1.52
527;1921.71;613.3;1.52
528;1956.2;579.608;1.52
529;1993.13;579.608;1.52
530;2015.4;617.206;1.52
531;2020.29;577.654;1.52
532;2003.2;571.795;1.52
533;1963.52;579.608;1.52
534;1941.24;595.477;1.52
535;1965.96;579.608;1.52
536;1980.92;583.514;1.52
537;1985.8;561.785;1.52
538;1976.04;601.337;1.52
539;1941.24;593.524;1.52
540;1904.32;557.878;1.52
541;1906.76;601.337;1.53
542;1948.87;599.384;1.53
543;1968.41;593.524;1.53
544;1976.04;575.701;1.53
545;1971.15;599.384;1.53
546;1941.24;589.618;1.53
547;1919.27;603.29;1.53
548;1953.76;593.524;1.53
549;1995.57;571.795;1.53
550;2012.96;603.29;1.53
551;2017.85;597.43;1.53
552;2003.2;561.785;1.53
553;1961.08;587.42;1.53
554;1943.99;593.524;1.53
555;1963.52;593.524;1.53
556;1983.36;581.561;1.54
557;1988.24;567.888;1.54
558;1976.04;585.467;1.54
559;1941.24;599.384;1.54
560;1901.88;567.888;1.54
561;1909.2;583.514;1.54
562;1948.87;613.3;1.54
563;1965.96;587.42;1.54
564;1976.04;575.701;1.54
565;1965.96;579.608;1.54
566;1938.8;589.618;1.54
567;1916.83;607.196;1.54
568;1956.2;589.618;1.54
569;1995.57;577.654;1.54
570;2012.96;609.149;1.54
571;2017.85;585.467;1.55
572;2000.76;569.842;1.55
573;1963.52;583.514;1.55
574;1946.43;595.477;1.55
575;1968.41;591.571;1.55
576;1983.36;581.561;1.55
577;1988.24;561.785;1.55
578;1976.04;591.571;1.55
579;1941.24;597.43;1.55
580;1904.32;561.785;1.55
581;1911.64;593.524;1.55
582;1948.87;603.29;1.55
583;1968.41;591.571;1.55
584;1976.04;577.654;1.55
585;1968.41;593.524;1.55
586;1941.24;589.618;1.56
587;1921.71;611.347;1.56
588;1958.64;583.514;1.56
589;1998.31;579.608;1.56
590;2015.4;617.206;1.56
591;2020.29;575.701;1.56
592;2003.2;575.701;1.56
593;1968.41;579.608;1.56
594;1943.99;593.524;1.56
595;1968.41;581.561;1.56
596;1985.8;583.514;1.56
597;1985.8;557.878;1.56
598;1978.48;597.43;1.56
599;1941.24;595.477;1.56
600;1901.88;557.878;1.56
601;1909.2;599.384;1.57
602;1948.87;597.43;1.57
603;1968.41;591.571;1.57
604;1976.04;573.748;1.57
605;1968.41;597.43;1.57
606;1938.8;587.42;1.57
607;1919.27;613.3;1.57
608;1961.08;577.654;1.57
609;1998.31;581.561;1.57
610;2015.4;611.347;1.57
611;2017.85;583.514;1.57
612;1998.31;571.795;1.57
613;1961.08;581.561;1.57
614;1943.99;595.477;1.57
615;1968.41;585.467;1.58
616;1983.36;579.608;1.58
617;1985.8;563.738;1.58
618;1976.04;595.477;1.58
619;1938.8;593.524;1.58
620;1901.88;557.878;1.58
621;1909.2;595.477;1.58
622;1951.32;599.384;1.58
623;1968.41;589.618;1.58
624;1973.59;575.701;1.58
625;1968.41;593.524;1.58
626;1938.8;589.618;1.58
627;1919.27;611.347;1.58
628;1961.08;577.654;1.58
629;1998.31;581.561;1.58
630;2015.4;617.206;1.59
631;2020.29;571.795;1.59
632;1998.31;575.701;1.59
633;1961.08;577.654;1.59
634;1943.99;593.524;1.59
635;1971.15;573.748;1.59
636;1985.8;583.514;1.59
637;1988.24;557.878;1.59
638;1978.48;599.384;1.59
639;1941.24;589.618;1.59
640;1904.32;555.925;1.59
641;1911.64;573.748;1.59
642;1951.32;615.253;1.59
643;1965.96;585.467;1.59
644;1973.59;577.654;1.6
645;1963.52;577.654;1.6
646;1933.92;587.42;1.6
647;1919.27;601.337;1.6
648;1956.2;591.571;1.6
649;1998.31;571.795;1.6
650;2015.4;603.29;1.6
651;2017.85;591.571;1.6
652;1995.57;561.785;1.6
653;1956.2;585.467;1.6
654;1943.99;591.571;1.6
655;1968.41;593.524;1.6
656;1983.36;581.561;1.6
657;1983.36;563.738;1.6
658;1973.59;585.467;1.6
659;1933.92;595.477;1.61
660;1896.99;563.738;1.61
661;1909.2;583.514;1.61
662;1946.43;607.196;1.61
663;1963.52;585.467;1.61
664;1971.15;573.748;1.61
665;1961.08;581.561;1.61
666;1931.48;589.618;1.61
667;1916.83;605.243;1.61
668;1956.2;583.514;1.61
669;1995.57;573.748;1.61
670;2012.96;609.149;1.61
671;2017.85;585.467;1.61
672;1990.68;565.935;1.61
673;1956.2;581.561;1.61
674;1941.24;595.477;1.62
675;1968.41;587.42;1.62
676;1980.92;581.561;1.62
677;1983.36;559.832;1.62
678;1968.41;593.524;1.62
679;1931.48;593.524;1.62
680;1894.55;555.925;1.62
681;1906.76;593.524;1.62
682;1948.87;599.384;1.62
683;1963.52;587.42;1.62
684;1971.15;573.748;1.62
685;1961.08;593.524;1.62
686;1931.48;587.42;1.62
687;1916.83;611.347;1.62
688;1958.64;577.654;1.63
689;1998.31;575.701;1.63
690;2012.96;611.347;1.63
691;2015.4;571.795;1.63
692;1995.57;573.748;1.63
693;1958.64;577.654;1.63
694;1943.99;593.524;1.63
695;1968.41;575.701;1.63
696;1983.36;581.561;1.63
697;1985.8;557.878;1.63
698;1971.15;599.384;1.63
699;1933.92;591.571;1.63
700;1894.55;553.972;1.63
701;1911.64;599.384;1.63
702;1951.32;593.524;1.63
703;1965.96;585.467;1.64
704;1973.59;575.701;1.64
705;1961.08;577.654;1.64
706;1933.92;587.42;1.64
707;1914.08;599.384;1.64
708;1961.08;591.571;1.64
709;1993.13;567.888;1.64
710;2012.96;601.337;1.64
711;2015.4;591.571;1.64
712;1993.13;555.925;1.64
713;1953.76;583.514;1.64
714;1941.24;589.618;1.64
715;1965.96;591.571;1.64
716;1978.48;579.608;1.64
717;1983.36;563.738;1.64
718;1976.04;583.514;1.65
719;1946.43;595.477;1.65
720;1904.32;563.738;1.65
721;1894.55;581.561;1.65
722;1936.36;607.196;1.65
723;1956.2;583.514;1.65
724;1968.41;573.748;1.65
725;1965.96;577.654;1.65
726;1941.24;585.467;1.65
727;1914.08;605.243;1.65
728;1936.36;585.467;1.65
729;1983.36;573.748;1.65
730;2005.64;609.149;1.65
731;2015.4;583.514;1.65
732;2000.76;563.738;1.66
733;1968.41;581.561;1.66
734;1936.36;591.571;1.66
735;1953.76;589.618;1.66
736;1973.59;581.561;1.66
737;1980.92;559.832;1.66
738;1976.04;589.618;1.66
739;1946.43;593.524;1.66
740;1904.32;555.925;1.66
741;1894.55;589.618;1.66
742;1933.92;599.384;1.66
743;1956.2;587.42;1.66
744;1965.96;573.748;1.66
745;1961.08;587.42;1.66
746;1941.24;585.467;1.66
747;1911.64;609.149;1.67
748;1936.36;579.608;1.67
749;1983.36;577.654;1.67
750;2005.64;613.3;1.67
751;2015.4;573.748;1.67
752;2000.76;571.795;1.67
753;1965.96;579.608;1.67
754;1936.36;593.524;1.67
755;1953.76;577.654;1.67
756;1976.04;579.608;1.67
757;1978.48;557.878;1.67
758;1973.59;597.43;1.67
759;1943.99;589.618;1.67
760;1901.88;552.019;1.67
761;1894.55;597.43;1.68
762;1933.92;595.477;1.68
763;1956.2;587.42;1.68
764;1968.41;571.795;1.68
765;1965.96;595.477;1.68
766;1938.8;585.467;1.68
767;1911.64;607.196;1.68
768;1933.92;583.514;1.68
769;1980.92;575.701;1.68
770;2005.64;609.149;1.68
771;2012.96;579.608;1.68
772;1998.31;567.888;1.68
773;1965.96;577.654;1.68
774;1938.8;593.524;1.68
775;1953.76;585.467;1.68
776;1976.04;577.654;1.69
777;1980.92;559.832;1.69
778;1976.04;591.571;1.69
779;1943.99;591.571;1.69
780;1904.32;555.925;1.69
781;1899.43;595.477;1.69
782;1941.24;599.384;1.69
783;1956.2;587.42;1.69
784;1971.15;571.795;1.69
785;1965.96;591.571;1.69
786;1943.99;585.467;1.69
787;1916.83;611.347;1.69
788;1941.24;573.748;1.69
789;1985.8;575.701;1.69
790;2008.08;615.253;1.7
791;2015.4;569.842;1.7
792;2003.2;573.748;1.7
793;1968.41;577.654;1.7
794;1941.24;595.477;1.7
795;1961.08;575.701;1.7
796;1980.92;579.608;1.7
797;1983.36;555.925;1.7
798;1978.48;577.654;1.7
799;1946.43;599.384;1.7
800;1904.32;567.888;1.7
801;1899.43;571.795;1.7
802;1943.99;613.3;1.7
803;1961.08;583.514;1.7
804;1973.59;573.748;1.7
805;1965.96;575.701;1.71
806;1941.24;587.42;1.71
807;1914.08;599.384;1.71
808;1941.24;587.42;1.71
809;1985.8;569.842;1.71
810;2005.64;599.384;1.71
811;2012.96;589.618;1.71
812;1998.31;557.878;1.71
813;1963.52;579.608;1.71
814;1938.8;589.618;1.71
815;1958.64;591.571;1.71
816;1978.48;581.561;1.71
817;1983.36;561.785;1.71
818;1973.59;581.561;1.71
819;1943.99;593.524;1.71
820;1899.43;559.832;1.72
821;1899.43;581.561;1.72
822;1938.8;607.196;1.72
823;1958.64;583.514;1.72
824;1968.41;573.748;1.72
825;1965.96;577.654;1.72
826;1941.24;585.467;1.72
827;1914.08;605.243;1.72
828;1941.24;583.514;1.72
829;1985.8;571.795;1.72
830;2003.2;609.149;1.72
831;2012.96;579.608;1.72
832;1998.31;567.888;1.72
833;1961.08;577.654;1.72
834;1931.48;593.524;1.72
835;1956.2;583.514;1.73
836;1976.04;579.608;1.73
837;1978.48;557.878;1.73
838;1971.15;591.571;1.73
839;1941.24;591.571;1.73
840;1899.43;555.925;1.73
841;1894.55;591.571;1.73
842;1936.36;599.384;1.73
843;1956.2;585.467;1.73
844;1963.52;571.795;1.73
845;1961.08;591.571;1.73
846;1933.92;583.514;1.73
847;1911.64;609.149;1.73
848;1938.8;575.701;1.73
849;1983.36;575.701;1.74
850;2000.76;615.253;1.74
851;2010.52;569.842;1.74
852;1993.13;571.795;1.74
853;1956.2;575.701;1.74
854;1933.92;593.524;1.74
855;1953.76;575.701;1.74
856;1973.59;579.608;1.74
857;1976.04;555.925;1.74
858;1971.15;597.43;1.74
859;1938.8;589.618;1.74
860;1901.88;569.842;1.74
861;1896.99;569.842;1.74
862;1933.92;615.253;1.74
863;1956.2;583.514;1.74
864;1963.52;575.701;1.75
865;1961.08;573.748;1.75
866;1933.92;585.467;1.75
867;1911.64;597.43;1.75
868;1941.24;591.571;1.75
869;1983.36;567.888;1.75
870;2003.2;601.337;1.75
871;2012.96;587.42;1.75
872;1995.57;557.878;1.75
873;1958.64;579.608;1.75
874;1933.92;589.618;1.75
875;1958.64;591.571;1.75
876;1973.59;577.654;1.75
877;1980.92;559.832;1.75
878;1968.41;583.514;1.75
879;1936.36;595.477;1.76
880;1894.55;559.832;1.76
881;1896.99;581.561;1.76
882;1933.92;605.243;1.76
883;1958.64;585.467;1.76
884;1965.96;575.701;1.76
885;1963.52;575.701;1.76
886;1933.92;585.467;1.76
887;1911.64;607.196;1.76
888;1943.99;581.561;1.76
889;1985.8;571.795;1.76
890;2005.64;605.243;1.76
891;2012.96;579.608;1.76
892;1998.31;565.935;1.76
893;1961.08;579.608;1.76
894;1936.36;591.571;1.77
895;1961.08;587.42;1.77
896;1976.04;577.654;1.77
897;1983.36;555.925;1.77
898;1976.04;589.618;1.77
899;1941.24;591.571;1.77
900;1899.43;557.878;1.77
901;1899.43;587.42;1.77
902;1938.8;601.337;1.77
903;1961.08;587.42;1.77
904;1965.96;571.795;1.77
905;1963.52;587.42;1.77
906;1933.92;581.561;1.77
907;1911.64;607.196;1.77
908;1943.99;577.654;1.77
909;1988.24;575.701;1.77
910;2010.52;613.3;1.77
911;2017.85;571.795;1.78
912;1998.31;571.795;1.78
913;1961.08;575.701;1.78
914;1938.8;589.618;1.78
915;1961.08;573.748;1.78
916;1978.48;577.654;1.78
917;1983.36;557.878;1.78
918;1976.04;593.524;1.78
919;1941.24;589.618;1.78
920;1899.43;553.972;1.78
921;1901.88;595.477;1.78
922;1941.24;593.524;1.78
923;1963.52;583.514;1.78
924;1971.15;571.795;1.78
925;1965.96;579.608;1.78
926;1938.8;583.514;1.78
927;1916.83;605.243;1.79
928;1951.32;579.608;1.79
929;1995.57;573.748;1.79
930;2015.4;607.196;1.79
931;2022.73;575.701;1.79
932;2003.2;567.888;1.79
933;1968.41;577.654;1.79
934;1948.87;591.571;1.79
935;1971.15;579.608;1.79
936;1985.8;579.608;1.79
937;1988.24;553.972;1.79
938;1980.92;589.618;1.79
939;1943.99;589.618;1.79
940;1904.32;553.972;1.79
941;1906.76;591.571;1.79
942;1946.43;595.477;1.79
943;1963.52;587.42;1.8
944;1968.41;571.795;1.8
945;1963.52;593.524;1.8
946;1938.8;585.467;1.8
947;1914.08;609.149;1.8
948;1951.32;573.748;1.8
949;1993.13;579.608;1.8
950;2010.52;615.253;1.8
951;2015.4;565.935;1.8
952;2000.76;573.748;1.8
953;1963.52;573.748;1.8
954;1938.8;585.467;1.8
955;1965.96;591.571;1.8
956;1980.92;577.654;1.8
957;1983.36;567.888;1.8
958;1973.59;575.701;1.81
959;1941.24;597.43;1.81
960;1901.88;567.888;1.81
961;1904.32;571.795;1.81
962;1946.43;611.347;1.81
963;1963.52;581.561;1.81
964;1971.15;573.748;1.81
965;1963.52;573.748;1.81
966;1936.36;585.467;1.81
967;1914.08;599.384;1.81
968;1951.32;585.467;1.81
969;1995.57;565.935;1.81
970;2012.96;603.29;1.81
971;2020.29;585.467;1.81
972;2000.76;559.832;1.81
973;1963.52;577.654;1.81
974;1943.99;585.467;1.82
975;1971.15;587.42;1.82
976;1983.36;577.654;1.82
977;1988.24;561.785;1.82
978;1978.48;583.514;1.82
979;1943.99;593.524;1.82
980;1904.32;561.785;1.82
981;1911.64;581.561;1.82
982;1951.32;603.29;1.82
983;1965.96;585.467;1.82
984;1976.04;571.795;1.82
985;1968.41;579.608;1.82
986;1938.8;587.42;1.82
987;1919.27;605.243;1.82
988;1956.2;579.608;1.82
989;1998.31;571.795;1.83
990;2015.4;607.196;1.83
991;2025.48;579.608;1.83
992;2005.64;567.888;1.83
993;1971.15;577.654;1.83
994;1948.87;591.571;1.83
995;1971.15;583.514;1.83
996;1985.8;577.654;1.83
997;1990.68;555.925;1.83
998;1980.92;591.571;1.83
999;1943.99;589.618;1.83
1000;1901.88;552.019;1.83
1001;1909.2;589.618;1.83
1002;1951.32;597.43;1.83
1003;1968.41;585.467;1.83
1004;1978.48;573.748;1.84
1005;1968.41;591.571;1.84
1006;1941.24;583.514;1.84
1007;1921.71;607.196;1.84
1008;1961.08;575.701;1.84
1009;1998.31;573.748;1.84
1010;2015.4;613.3;1.84
1011;2022.73;569.842;1.84
1012;2003.2;569.842;1.84
1013;1965.96;575.701;1.84
1014;1946.43;591.571;1.84
1015;1973.59;571.795;1.84
1016;1990.68;581.561;1.84
1017;1990.68;563.738;1.84
1018;1978.48;573.748;1.84
1019;1943.99;599.384;1.84
1020;1904.32;567.888;1.85
1021;1914.08;567.888;1.85
1022;1956.2;611.347;1.85
1023;1973.59;579.608;1.85
1024;1980.92;573.748;1.85
1025;1971.15;575.701;1.85
1026;1943.99;585.467;1.85
1027;1924.15;599.384;1.85
1028;1963.52;591.571;1.85
1029;2000.76;567.888;1.85
1030;2017.85;597.43;1.85
1031;2022.73;589.618;1.85
1032;2003.2;559.832;1.85
1033;1963.52;579.608;1.85
1034;1948.87;587.42;1.85
1035;1976.04;589.618;1.86
1036;1988.24;575.701;1.86
1037;1990.68;559.832;1.86
1038;1980.92;583.514;1.86
1039;1946.43;593.524;1.86
1040;1904.32;561.785;1.86
1041;1914.08;579.608;1.86
1042;1953.76;607.196;1.86
1043;1973.59;583.514;1.86
1044;1978.48;573.748;1.86
1045;1971.15;575.701;1.86
1046;1941.24;585.467;1.86
1047;1924.15;603.29;1.86
1048;1965.96;583.514;1.86
1049;2003.2;571.795;1.87
1050;2020.29;607.196;1.87
1051;2025.48;579.608;1.87
1052;2000.76;565.935;1.87
1053;1963.52;575.701;1.87
1054;1946.43;591.571;1.87
1055;1973.59;585.467;1.87
1056;1988.24;579.608;1.87
1057;1993.13;555.925;1.87
1058;1980.92;587.42;1.87
1059;1946.43;591.571;1.87
1060;1906.76;555.925;1.87
1061;1919.27;589.618;1.87
1062;1961.08;597.43;1.87
1063;1980.92;585.467;1.87
1064;1985.8;569.842;1.88
1065;1976.04;587.42;1.88
1066;1948.87;583.514;1.88
1067;1929.04;607.196;1.88
1068;1971.15;575.701;1.88
1069;2008.08;575.701;1.88
1070;2025.48;611.347;1.88
1071;2030.36;571.795;1.88
1072;2010.52;567.888;1.88
1073;1971.15;575.701;1.88
1074;1953.76;589.618;1.88
1075;1980.92;573.748;1.88
1076;1995.57;577.654;1.88
1077;1995.57;555.925;1.88
1078;1985.8;593.524;1.89
1079;1948.87;589.618;1.89
1080;1909.2;555.925;1.89
1081;1921.71;583.514;1.89
1082;1963.52;601.337;1.89
1083;1980.92;581.561;1.89
1084;1988.24;569.842;1.89
1085;1980.92;581.561;1.89
1086;1951.32;585.467;1.89
1087;1933.92;605.243;1.89
1088;1973.59;579.608;1.89
1089;2010.52;577.654;1.89
1090;2027.92;607.196;1.89
1091;2030.36;575.701;1.89
1092;2010.52;565.935;1.9
1093;1973.59;577.654;1.9
1094;1958.64;589.618;1.9
1095;1983.36;579.608;1.9
1096;1995.57;579.608;1.9
1097;1998.31;553.972;1.9
1098;1985.8;591.571;1.9
1099;1948.87;587.42;1.9
1100;1911.64;552.019;1.9
1101;1926.6;591.571;1.9
1102;1968.41;595.477;1.9
1103;1983.36;587.42;1.9
1104;1990.68;569.842;1.9
1105;1980.92;589.618;1.9
1106;1953.76;583.514;1.9
1107;1936.36;607.196;1.91
1108;1965.96;573.748;1.91
1109;2010.52;573.748;1.91
1110;2027.92;611.347;1.91
1111;2035.24;567.888;1.91
1112;2017.85;552.019;1.91
1113;1980.92;579.608;1.91
1114;1956.2;585.467;1.91
1115;1978.48;587.42;1.91
1116;1998.31;575.701;1.91
1117;2003.2;561.785;1.91
1118;1998.31;575.701;1.91
1119;1963.52;597.43;1.91
1120;1921.71;563.738;1.91
1121;1924.15;573.748;1.92
1122;1968.41;609.149;1.92
1123;1985.8;579.608;1.92
1124;1995.57;573.748;1.92
1125;1988.24;573.748;1.92
1126;1961.08;583.514;1.92
1127;1938.8;601.337;1.92
1128;1971.15;587.42;1.92
1129;2012.96;569.842;1.92
1130;2035.24;601.337;1.92
1131;2040.12;585.467;1.92
1132;2022.73;557.878;1.92
1133;1985.8;579.608;1.92
1134;1961.08;589.618;1.92
1135;1983.36;591.571;1.92
1136;2003.2;577.654;1.93
1137;2008.08;557.878;1.93
1138;1998.31;581.561;1.93
1139;1963.52;591.571;1.93
1140;1921.71;557.878;1.93
1141;1924.15;581.561;1.93
1142;1968.41;599.384;1.93
1143;1988.24;581.561;1.93
1144;1993.13;569.842;1.93
1145;1988.24;577.654;1.93
1146;1963.52;581.561;1.93
1147;1938.8;605.243;1.93
1148;1973.59;579.608;1.93
1149;2017.85;569.842;1.93
1150;2035.24;607.196;1.94
1151;2040.12;575.701;1.94
1152;2020.29;565.935;1.94
1153;1983.36;575.701;1.94
1154;1963.52;593.524;1.94
1155;1988.24;581.561;1.94
1156;2005.64;577.654;1.94
1157;2012.96;553.972;1.94
1158;2000.76;587.42;1.94
1159;1965.96;589.618;1.94
1160;1921.71;553.972;1.94
1161;1929.04;589.618;1.94
1162;1971.15;593.524;1.94
1163;1988.24;583.514;1.94
1164;1995.57;571.795;1.95
1165;1990.68;587.42;1.95
1166;1961.08;583.514;1.95
1167;1941.24;607.196;1.95
1168;1976.04;575.701;1.95
1169;2012.96;575.701;1.95
1170;2032.8;613.3;1.95
1171;2040.12;569.842;1.95
1172;2020.29;569.842;1.95
1173;1980.92;571.795;1.95
1174;1963.52;583.514;1.95
1175;1988.24;587.42;1.95
1176;2008.08;573.748;1.95
1177;2010.52;563.738;1.95
1178;2003.2;575.701;1.96
1179;1965.96;597.43;1.96
1180;1924.15;565.935;1.96
1181;1929.04;569.842;1.96
1182;1971.15;609.149;1.96
1183;1990.68;579.608;1.96
1184;1998.31;573.748;1.96
1185;1993.13;573.748;1.96
1186;1961.08;583.514;1.96
1187;1941.24;599.384;1.96
1188;1978.48;587.42;1.96
1189;2017.85;563.738;1.96
1190;2040.12;597.43;1.96
1191;2045.01;587.42;1.96
1192;2025.48;555.925;1.96
1193;1988.24;579.608;1.97
1194;1968.41;585.467;1.97
1195;1993.13;587.42;1.97
1196;2010.52;575.701;1.97
1197;2010.52;557.878;1.97
1198;2003.2;579.608;1.97
1199;1963.52;593.524;1.97
1200;1924.15;555.925;1.97
1201;1931.48;579.608;1.97
1202;1976.04;601.337;1.97
1203;1995.57;581.561;1.97
1204;2003.2;569.842;1.97
1205;1995.57;575.701;1.97
1206;1968.41;583.514;1.97
1207;1946.43;601.337;1.98
1208;1983.36;579.608;1.98
1209;2025.48;567.888;1.98
1210;2042.57;603.29;1.98
1211;2045.01;577.654;1.98
1212;2022.73;563.738;1.98
1213;1988.24;575.701;1.98
1214;1971.15;589.618;1.98
1215;1995.57;583.514;1.98
1216;2010.52;575.701;1.98
1217;2010.52;553.972;1.98
1218;2000.76;587.42;1.98
1219;1965.96;585.467;1.98
1220;1924.15;552.019;1.98
1221;1929.04;585.467;1.99
1222;1976.04;595.477;1.99
1223;1990.68;585.467;1.99
1224;2000.76;567.888;1.99
1225;1990.68;585.467;1.99
1226;1965.96;581.561;1.99
1227;1943.99;605.243;1.99
1228;1985.8;573.748;1.99
1229;2025.48;575.701;1.99
1230;2042.57;611.347;1.99
1231;2049.89;567.888;1.99
1232;2025.48;567.888;1.99
1233;1988.24;573.748;1.99
1234;1973.59;589.618;1.99
1235;1998.31;571.795;1.99
1236;2012.96;577.654;2
1237;2017.85;555.925;2
1238;2005.64;583.514;2
1239;1968.41;589.618;2
1240;1929.04;557.878;2
1241;1936.36;583.514;2
1242;1978.48;601.337;2
1243;1998.31;581.561;2
1244;2005.64;569.842;2
1245;1995.57;579.608;2
1246;1965.96;581.561;2
1247;1943.99;603.29;2
1248;1985.8;577.654;2
1249;2027.92;571.795;2
1250;2045.01;607.196;2.01
1251;2049.89;573.748;2.01
1252;2025.48;565.935;2.01
1253;1988.24;573.748;2.01
1254;1973.59;589.618;2.01
1255;1998.31;577.654;2.01
1256;2015.4;575.701;2.01
1257;2017.85;553.972;2.01
1258;2008.08;587.42;2.01
1259;1971.15;587.42;2.01
1260;1931.48;552.019;2.01
1261;1941.24;591.571;2.01
1262;1983.36;591.571;2.01
1263;2000.76;583.514;2.01
1264;2008.08;565.935;2.01
1265;1995.57;589.618;2.02
1266;1971.15;581.561;2.02
1267;1948.87;605.243;2.02
1268;1988.24;571.795;2.02
1269;2030.36;561.785;2.02
1270;2045.01;589.618;2.02
1271;2049.89;589.618;2.02
1272;2025.48;552.019;2.02
1273;1990.68;579.608;2.02
1274;1973.59;583.514;2.02
1275;2000.76;585.467;2.02
1276;2017.85;577.654;2.02
1277;2020.29;561.785;2.02
1278;2008.08;579.608;2.02
1279;1971.15;593.524;2.02
1280;1931.48;561.785;2.03
1281;1943.99;571.795;2.03
1282;1985.8;607.196;2.03
1283;2003.2;577.654;2.03
1284;2010.52;571.795;2.03
1285;2003.2;573.748;2.03
1286;1971.15;583.514;2.03
1287;1953.76;599.384;2.03
1288;1995.57;583.514;2.03
1289;2032.8;567.888;2.03
1290;2049.89;599.384;2.03
1291;2052.64;581.561;2.03
1292;2030.36;555.925;2.03
1293;1993.13;577.654;2.03
1294;1976.04;587.42;2.04
1295;2005.64;587.42;2.04
1296;2020.29;573.748;2.04
1297;2025.48;555.925;2.04
1298;2012.96;583.514;2.04
1299;1976.04;589.618;2.04
1300;1936.36;555.925;2.04
1301;1951.32;581.561;2.04
1302;1990.68;601.337;2.04
1303;2008.08;581.561;2.04
1304;2015.4;567.888;2.04
1305;2008.08;579.608;2.04
1306;1976.04;583.514;2.04
1307;1958.64;603.29;2.04
1308;1978.48;575.701;2.04
1309;2027.92;569.842;2.05
1310;2049.89;605.243;2.05
1311;2064.84;575.701;2.05
1312;2049.89;561.785;2.05
1313;2017.85;575.701;2.05
1314;1985.8;589.618;2.05
1315;2000.76;577.654;2.05
1316;2022.73;575.701;2.05
1317;2027.92;553.972;2.05
1318;2025.48;587.42;2.05
1319;1990.68;589.618;2.05
1320;1951.32;550.066;2.05
1321;1938.8;589.618;2.05
1322;1983.36;593.524;2.06
1323;2008.08;583.514;2.06
1324;2017.85;567.888;2.06
1325;2017.85;587.42;2.06
1326;1993.13;579.608;2.06
1327;1961.08;607.196;2.06
1328;1980.92;571.795;2.06
1329;2027.92;573.748;2.06
1330;2049.89;611.347;2.06
1331;2059.96;591.571;2.06
1332;2047.45;550.066;2.06
1333;2012.96;577.654;2.06
1334;1983.36;583.514;2.06
1335;2000.76;587.42;2.06
1336;2022.73;575.701;2.07
1337;2027.92;563.738;2.07
1338;2022.73;573.748;2.07
1339;1993.13;595.477;2.07
1340;1951.32;563.738;2.07
1341;1936.36;569.842;2.07
1342;1983.36;609.149;2.07
1343;2005.64;577.654;2.07
1344;2017.85;569.842;2.07
1345;2015.4;569.842;2.07
1346;1993.13;583.514;2.07
1347;1963.52;597.43;2.07
1348;1985.8;583.514;2.07
1349;2030.36;565.935;2.08
1350;2055.08;597.43;2.08
1351;2064.84;583.514;2.08
1352;2052.64;553.972;2.08
1353;2015.4;577.654;2.08
1354;1983.36;585.467;2.08
1355;2005.64;587.42;2.08
1356;2027.92;575.701;2.08
1357;2032.8;555.925;2.08
1358;2027.92;579.608;2.08
1359;1998.31;589.618;2.08
1360;1953.76;555.925;2.08
1361;1946.43;579.608;2.08
1362;1988.24;601.337;2.09
1363;2012.96;579.608;2.09
1364;2020.29;567.888;2.09
1365;2017.85;575.701;2.09
1366;1993.13;581.561;2.09
1367;1963.52;603.29;2.09
1368;1988.24;579.608;2.09
1369;2035.24;569.842;2.09
1370;2059.96;605.243;2.09
1371;2069.73;573.748;2.09
1372;2055.08;561.785;2.09
1373;2020.29;573.748;2.09
1374;1988.24;589.618;2.09
1375;2008.08;579.608;2.09
1376;2032.8;571.795;2.1
1377;2035.24;553.972;2.1
1378;2030.36;587.42;2.1
1379;2000.76;585.467;2.1
1380;1958.64;550.066;2.1
1381;1951.32;585.467;2.1
1382;1993.13;595.477;2.1
1383;2017.85;583.514;2.1
1384;2030.36;565.935;2.1
1385;2022.73;587.42;2.1
1386;1998.31;579.608;2.1
1387;1968.41;605.243;2.1
1388;1998.31;571.795;2.1
1389;2045.01;571.795;2.11
1390;2067.29;607.196;2.11
1391;2074.61;563.738;2.11
1392;2062.4;567.888;2.11
1393;2027.92;571.795;2.11
1394;1998.31;585.467;2.11
1395;2020.29;583.514;2.11
1396;2040.12;573.748;2.11
1397;2047.45;552.019;2.11
1398;2040.12;583.514;2.11
1399;2010.52;587.42;2.11
1400;1968.41;553.972;2.11
1401;1961.08;581.561;2.12
1402;2003.2;597.43;2.12
1403;2025.48;577.654;2.12
1404;2037.68;565.935;2.12
1405;2032.8;579.608;2.12
1406;2005.64;579.608;2.12
1407;1980.92;603.29;2.12
1408;2008.08;573.748;2.12
1409;2055.08;569.842;2.12
1410;2069.73;607.196;2.12
1411;2082.24;569.842;2.12
1412;2067.29;563.738;2.12
1413;2032.8;569.842;2.12
1414;2000.76;587.42;2.13
1415;2022.73;575.701;2.13
1416;2047.45;573.748;2.13
1417;2049.89;552.019;2.13
1418;2047.45;589.618;2.13
1419;2012.96;583.514;2.13
1420;1968.41;548.112;2.13
1421;1961.08;589.618;2.13
1422;2010.52;591.571;2.13
1423;2032.8;585.467;2.13
1424;2042.57;565.935;2.13
1425;2037.68;587.42;2.13
1426;2012.96;583.514;2.14
1427;1983.36;589.618;2.14
1428;2010.52;589.618;2.14
1429;2059.96;559.832;2.14
1430;2077.05;591.571;2.14
1431;2084.68;587.42;2.14
1432;2069.73;550.066;2.14
1433;2032.8;577.654;2.14
1434;2008.08;581.561;2.14
1435;2030.36;583.514;2.14
1436;2052.64;573.748;2.14
1437;2055.08;559.832;2.14
1438;2049.89;571.795;2.15
1439;2017.85;593.524;2.15
1440;1971.15;559.832;2.15
1441;1968.41;571.795;2.15
1442;2012.96;607.196;2.15
1443;2035.24;575.701;2.15
1444;2047.45;569.842;2.15
1445;2040.12;571.795;2.15
1446;2015.4;581.561;2.15
1447;1985.8;597.43;2.15
1448;2015.4;581.561;2.15
1449;2062.4;563.738;2.15
1450;2082.24;597.43;2.15
1451;2089.56;581.561;2.16
1452;2074.61;555.925;2.16
1453;2040.12;575.701;2.16
1454;2010.52;585.467;2.16
1455;2035.24;583.514;2.16
1456;2055.08;573.748;2.16
1457;2059.96;553.972;2.16
1458;2055.08;577.654;2.16
1459;2022.73;587.42;2.16
1460;1978.48;552.019;2.16
1461;1973.59;577.654;2.16
1462;2017.85;599.384;2.16
1463;2037.68;577.654;2.17
1464;2049.89;565.935;2.17
1465;2042.57;573.748;2.17
1466;2015.4;579.608;2.17
1467;1990.68;601.337;2.17
1468;2020.29;573.748;2.17
1469;2067.29;567.888;2.17
1470;2089.56;605.243;2.17
1471;2096.89;571.795;2.17
1472;2079.8;561.785;2.17
1473;2042.57;571.795;2.17
1474;2020.29;587.42;2.17
1475;2040.12;577.654;2.18
1476;2062.4;573.748;2.18
1477;2067.29;552.019;2.18
1478;2057.52;585.467;2.18
1479;2027.92;583.514;2.18
1480;1980.92;550.066;2.18
1481;1978.48;589.618;2.18
1482;2025.48;591.571;2.18
1483;2047.45;581.561;2.18
1484;2057.52;565.935;2.18
1485;2049.89;585.467;2.18
1486;2025.48;577.654;2.18
1487;1995.57;603.29;2.19
1488;2027.92;571.795;2.19
1489;2074.61;559.832;2.19
1490;2094.45;589.618;2.19
1491;2101.77;589.618;2.19
1492;2084.68;546.159;2.19
1493;2047.45;575.701;2.19
1494;2025.48;579.608;2.19
1495;2047.45;583.514;2.19
1496;2064.84;569.842;2.19
1497;2069.73;557.878;2.19
1498;2062.4;571.795;2.2
1499;2030.36;593.524;2.2
1500;1985.8;557.878;2.2
1501;1983.36;569.842;2.2
1502;2032.8;607.196;2.2
1503;2055.08;575.701;2.2
1504;2062.4;567.888;2.2
1505;2057.52;567.888;2.2
1506;2030.36;579.608;2.2
1507;2003.2;595.477;2.2
1508;2035.24;579.608;2.2
1509;2082.24;561.785;2.2
1510;2104.21;595.477;2.21
1511;2111.84;581.561;2.21
1512;2094.45;553.972;2.21
1513;2055.08;575.701;2.21
1514;2032.8;585.467;2.21
1515;2055.08;583.514;2.21
1516;2074.61;571.795;2.21
1517;2079.8;552.019;2.21
1518;2072.17;577.654;2.21
1519;2037.68;589.618;2.21
1520;1993.13;552.019;2.21
1521;1990.68;577.654;2.21
1522;2040.12;595.477;2.22
1523;2059.96;577.654;2.22
1524;2069.73;565.935;2.22
1525;2062.4;569.842;2.22
1526;2030.36;577.654;2.22
1527;2008.08;601.337;2.22
1528;2042.57;575.701;2.22
1529;2089.56;565.935;2.22
1530;2109.4;603.29;2.22
1531;2119.17;571.795;2.22
1532;2101.77;559.832;2.22
1533;2064.84;571.795;2.23
1534;2037.68;587.42;2.23
1535;2064.84;577.654;2.23
1536;2079.8;573.748;2.23
1537;2084.68;552.019;2.23
1538;2077.05;583.514;2.23
1539;2037.68;585.467;2.23
1540;1995.57;548.112;2.23
1541;1998.31;585.467;2.23
1542;2045.01;591.571;2.23
1543;2067.29;581.561;2.23
1544;2077.05;561.785;2.23
1545;2064.84;583.514;2.24
1546;2042.57;579.608;2.24
1547;2015.4;601.337;2.24
1548;2049.89;567.888;2.24
1549;2092.01;569.842;2.24
1550;2111.84;609.149;2.24
1551;2121.61;579.608;2.24
1552;2099.33;555.925;2.24
1553;2062.4;573.748;2.24
1554;2037.68;585.467;2.24
1555;2062.4;581.561;2.24
1556;2084.68;571.795;2.25
1557;2089.56;550.066;2.25
1558;2082.24;579.608;2.25
1559;2042.57;585.467;2.25
1560;2000.76;548.112;2.25
1561;2003.2;581.561;2.25
1562;2049.89;595.477;2.25
1563;2069.73;577.654;2.25
1564;2077.05;563.738;2.25
1565;2072.17;577.654;2.25
1566;2042.57;577.654;2.25
1567;2020.29;599.384;2.26
1568;2055.08;571.795;2.26
1569;2099.33;567.888;2.26
1570;2119.17;605.243;2.26
1571;2126.49;567.888;2.26
1572;2106.96;563.738;2.26
1573;2067.29;567.888;2.26
1574;2045.01;587.42;2.26
1575;2072.17;571.795;2.26
1576;2092.01;569.842;2.26
1577;2094.45;548.112;2.26
1578;2087.12;585.467;2.27
1579;2049.89;581.561;2.27
1580;2008.08;544.206;2.27
1581;2012.96;587.42;2.27
1582;2057.52;587.42;2.27
1583;2077.05;575.701;2.27
1584;2084.68;565.935;2.27
1585;2077.05;567.888;2.27
1586;2047.45;581.561;2.27
1587;2025.48;589.618;2.27
1588;2064.84;583.514;2.27
1589;2106.96;557.878;2.28
1590;2124.05;589.618;2.28
1591;2131.37;587.42;2.28
1592;2109.4;546.159;2.28
1593;2072.17;571.795;2.28
1594;2052.64;581.561;2.28
1595;2079.8;583.514;2.28
1596;2099.33;569.842;2.28
1597;2101.77;557.878;2.28
1598;2092.01;569.842;2.28
1599;2057.52;589.618;2.28
1600;2012.96;555.925;2.29
1601;2020.29;569.842;2.29
1602;2062.4;603.29;2.29
1603;2084.68;573.748;2.29
1604;2094.45;563.738;2.29
1605;2084.68;567.888;2.29
1606;2057.52;579.608;2.29
1607;2032.8;595.477;2.29
1608;2069.73;577.654;2.29
1609;2111.84;561.785;2.29
1610;2131.37;595.477;2.29
1611;2139;577.654;2.3
1612;2116.73;550.066;2.3
1613;2074.61;573.748;2.3
1614;2057.52;583.514;2.3
1615;2082.24;583.514;2.3
1616;2099.33;569.842;2.3
1617;2104.21;550.066;2.3
1618;2094.45;579.608;2.3
1619;2055.08;585.467;2.3
1620;2012.96;548.112;2.3
1621;2025.48;575.701;2.3
1622;2067.29;595.477;2.31
1623;2087.12;577.654;2.31
1624;2094.45;563.738;2.31
1625;2084.68;573.748;2.31
1626;2055.08;577.654;2.31
1627;2030.36;599.384;2.31
1628;2069.73;573.748;2.31
1629;2114.28;565.935;2.31
1630;2131.37;601.337;2.31
1631;2139;567.888;2.31
1632;2114.28;559.832;2.31
1633;2074.61;569.842;2.32
1634;2055.08;583.514;2.32
1635;2084.68;571.795;2.32
1636;2101.77;569.842;2.32
1637;2104.21;546.159;2.32
1638;2094.45;585.467;2.32
1639;2057.52;581.561;2.32
1640;2015.4;544.206;2.32
1641;2025.48;587.42;2.32
1642;2069.73;587.42;2.32
1643;2092.01;579.608;2.33
1644;2099.33;561.785;2.33
1645;2087.12;583.514;2.33
1646;2059.96;579.608;2.33
1647;2037.68;585.467;2.33
1648;2079.8;585.467;2.33
1649;2124.05;553.972;2.33
1650;2141.45;585.467;2.33
1651;2148.77;585.467;2.33
1652;2124.05;544.206;2.33
1653;2087.12;573.748;2.33
1654;2064.84;579.608;2.34
1655;2094.45;581.561;2.34
1656;2111.84;567.888;2.34
1657;2114.28;555.925;2.34
1658;2104.21;569.842;2.34
1659;2064.84;589.618;2.34
1660;2020.29;557.878;2.34
1661;2032.8;565.935;2.34
1662;2077.05;603.29;2.34
1663;2099.33;573.748;2.34
1664;2106.96;563.738;2.34
1665;2094.45;563.738;2.35
1666;2064.84;577.654;2.35
1667;2042.57;593.524;2.35
1668;2084.68;577.654;2.35
