<WeldAnalyseData xmlns:i="http:www.w3.org/2001/XMLSchema-instance">
<WeldParameter>
<TimeStamp>DT#2024-01-25-14:26:27</TimeStamp>
<Generator>SG-22-10000</Generator>
<GenFreq>20</GenFreq>
<MaxForce>8000</MaxForce>
<MaxPower>10000</MaxPower>
<RunupPressure>1.5</RunupPressure>
<RunupDist>10</RunupDist>
<RunPress>0.8</RunPress>
<ShakeDelay>0.03</ShakeDelay>
<ShakeTime>0.3</ShakeTime>
<RunBackPress1>6</RunBackPress1>
<RunBackPress2>2</RunBackPress2>
<RunBackDist>1</RunBackDist>
<TrigValue>500</TrigValue>
<TrigModeUnit>W</TrigModeUnit>
<WeldModeUnit>Ws</WeldModeUnit>
<PressNr>0</PressNr>
<MaxLoss>1500</MaxLoss>
</WeldParameter>
<WeldSets>
<WeldSet>
<PressRiseTime>0</PressRiseTime>
<RunPressure>1</RunPressure>
<Amplitude>86</Amplitude>
<WeldMode>3270</WeldMode>
</WeldSet>
</WeldSets>
<WeldValue>
<WeldNr>3023</WeldNr>
<RecipeName>RickStyle</RecipeName>
<WeldTime>1657</WeldTime>
<DistDiff>2.24001</DistDiff>
<DistAbs>77.98</DistAbs>
<Energy>3271.58</Energy>
<MaxPower>2180.03</MaxPower>
<CycleTime>6080</CycleTime>
<TrigForce>500.748</TrigForce>
<TrigDist>75.74</TrigDist>
<RunSpeed>68.1728</RunSpeed>
<MaxForce>625.019</MaxForce>
<LossPower>320.959</LossPower>
</WeldValue>
</WeldAnalyseData>
#CSV-START#
ms;Power[W];Force[N];Distance[mm]
1;0;0;0
2;0;500.748;0
3;0;500.748;0
4;0;500.748;0.0100021
5;0;502.701;0.0100021
6;0;500.748;0.0100021
7;0;504.654;0.0100021
8;0;467.055;0.0100021
9;0;431.654;0.0200043
10;0;413.831;0.0400009
11;0;380.139;0.0800018
12;34.5813;366.466;0.110001
13;103.553;332.774;0.150002
14;185.038;323.008;0.190002
15;261.639;324.961;0.240005
16;320.845;281.503;0.279999
17;377.609;289.315;0.330002
18;434.374;285.409;0.380005
19;496.021;295.419;0.420006
20;560.415;293.222;0.459999
21;626.946;297.372;0.5
22;693.781;295.419;0.529999
23;757.87;326.914;0.560005
24;809.751;321.055;0.580002
25;876.282;317.148;0.610001
26;952.883;366.466;0.620003
27;1014.84;352.55;0.639999
28;1074.04;364.513;0.650002
29;1120.73;366.466;0.660004
30;1153.08;390.149;0.670006
31;1177.5;403.821;0.670006
32;1234.57;411.878;0.68
33;1283.7;392.102;0.68
34;1323.38;417.737;0.690002
35;1360.31;423.597;0.690002
36;1380.14;388.195;0.700005
37;1382.58;411.878;0.700005
38;1394.79;421.644;0.709999
39;1436.91;425.55;0.720001
40;1476.28;417.737;0.720001
41;1506.18;407.971;0.730003
42;1528.16;421.644;0.730003
43;1525.72;441.42;0.740005
44;1513.51;417.737;0.740005
45;1538.23;423.597;0.75
46;1594.99;455.336;0.75
47;1629.48;433.607;0.760002
48;1656.64;429.456;0.760002
49;1676.48;429.456;0.770004
50;1671.59;441.42;0.770004
51;1674.04;461.196;0.779999
52;1723.17;445.326;0.790001
53;1777.49;433.607;0.790001
54;1814.73;467.055;0.800003
55;1839.45;451.186;0.800003
56;1839.45;431.654;0.810005
57;1824.49;451.186;0.82
58;1814.73;463.149;0.82
59;1854.09;465.102;0.830002
60;1883.7;461.196;0.830002
61;1905.98;443.373;0.840004
62;1908.42;467.055;0.840004
63;1883.7;480.972;0.849998
64;1854.09;445.326;0.849998
65;1871.49;470.962;0.849998
66;1923.37;492.691;0.860001
67;1955.42;479.019;0.860001
68;1975.25;465.102;0.870003
69;1977.69;480.972;0.870003
70;1960.3;482.925;0.870003
71;1943.21;488.784;0.880005
72;1987.46;498.795;0.880005
73;2034.46;461.196;0.889999
74;2064.06;490.738;0.889999
75;2076.27;504.654;0.889999
76;2066.5;451.186;0.900002
77;2036.9;486.831;0.900002
78;2012.18;492.691;0.900002
79;2041.78;500.748;0.910004
80;2071.39;484.878;0.910004
81;2086.34;480.972;0.910004
82;2088.78;484.878;0.920006
83;2059.18;518.326;0.920006
84;2019.51;486.831;0.93
85;2012.18;482.925;0.93
86;2066.5;534.196;0.93
87;2091.22;498.795;0.940002
88;2111.06;494.644;0.940002
89;2108.62;494.644;0.940002
90;2086.34;508.56;0.950005
91;2059.18;520.524;0.950005
92;2088.78;514.42;0.950005
93;2138.22;486.831;0.959999
94;2162.94;522.477;0.959999
95;2177.59;520.524;0.959999
96;2165.38;480.972;0.970001
97;2123.27;510.514;0.970001
98;2093.67;518.326;0.970001
99;2118.39;518.326;0.980003
100;2143.1;508.56;0.980003
101;2152.87;494.644;0.980003
102;2150.43;512.467;0.980003
103;2108.62;526.383;0.990005
104;2064.06;496.597;0.990005
105;2054.3;506.607;0.990005
106;2103.43;544.206;1
107;2128.15;512.467;1
108;2143.1;506.607;1
109;2135.78;506.607;1.01
110;2106.18;518.326;1.01
111;2076.27;536.149;1.01
112;2098.55;520.524;1.02
113;2147.99;500.748;1.02
114;2170.27;540.056;1.02
115;2180.03;522.477;1.02
116;2160.5;494.644;1.03
117;2118.39;516.373;1.03
118;2088.78;528.336;1.03
119;2108.62;528.336;1.03
120;2130.59;520.524;1.04
121;2138.22;498.795;1.04
122;2130.59;524.43;1.04
123;2093.67;534.196;1.04
124;2046.67;496.597;1.05
125;2036.9;524.43;1.05
126;2083.9;546.159;1.05
127;2106.18;530.29;1.05
128;2115.94;514.42;1.06001
129;2111.06;526.383;1.06001
130;2081.46;528.336;1.06001
131;2051.85;552.019;1.06001
132;2076.27;534.196;1.07
133;2123.27;510.514;1.07
134;2145.55;544.206;1.07
135;2150.43;536.149;1.07
136;2130.59;504.654;1.08
137;2088.78;528.336;1.08
138;2061.62;536.149;1.08
139;2081.46;538.102;1.08
140;2103.43;526.383;1.09
141;2113.5;510.514;1.09
142;2106.18;532.243;1.09
143;2068.95;542.009;1.09
144;2021.95;512.467;1.09
145;2017.06;526.383;1.1
146;2059.18;555.925;1.1
147;2081.46;534.196;1.1
148;2088.78;524.43;1.1
149;2081.46;524.43;1.1
150;2054.3;538.102;1.11
151;2024.69;555.925;1.11
152;2051.85;536.149;1.11
153;2096.11;522.477;1.11
154;2118.39;559.832;1.11
155;2125.71;532.243;1.12
156;2106.18;516.373;1.12
157;2064.06;530.29;1.12
158;2036.9;546.159;1.12
159;2056.74;542.009;1.12
160;2076.27;532.243;1.13
161;2081.46;512.467;1.13
162;2071.39;542.009;1.13
163;2036.9;561.785;1.13
164;1992.34;536.149;1.13
165;1989.9;518.326;1.13
166;2032.02;579.608;1.14
167;2054.3;540.056;1.14
168;2061.62;538.102;1.14
169;2056.74;532.243;1.14
170;2027.13;548.112;1.14
171;1997.53;548.112;1.14
172;2027.13;557.878;1.15
173;2071.39;518.326;1.15
174;2093.67;548.112;1.15
175;2100.99;561.785;1.15
176;2081.46;510.514;1.15
177;2041.78;540.056;1.15
178;2014.62;544.206;1.16
179;2034.46;552.019;1.16
180;2051.85;534.196;1.16
181;2059.18;532.243;1.16
182;2049.11;532.243;1.16
183;2014.62;563.738;1.16
184;1972.81;532.243;1.16
185;1967.62;530.29;1.17001
186;2014.62;581.561;1.17001
187;2036.9;546.159;1.17001
188;2049.11;536.149;1.17001
189;2041.78;538.102;1.17001
190;2012.18;550.066;1.17001
191;1985.02;559.832;1.18
192;2009.74;553.972;1.18
193;2054.3;528.336;1.18
194;2071.39;561.785;1.18
195;2081.46;557.878;1.18
196;2061.62;518.326;1.18
197;2019.51;546.159;1.19
198;1992.34;552.019;1.19
199;2014.62;557.878;1.19
200;2034.46;544.206;1.19
201;2039.34;530.29;1.19
202;2027.13;544.206;1.19
203;1992.34;563.738;1.19
204;1950.53;532.243;1.2
205;1948.09;542.009;1.2
206;1992.34;577.654;1.2
207;2014.62;550.066;1.2
208;2024.69;542.009;1.2
209;2017.06;544.206;1.2
210;1987.46;553.972;1.2
211;1962.74;569.842;1.21
212;1987.46;553.972;1.21
213;2034.46;540.056;1.21
214;2051.85;571.795;1.21
215;2059.18;555.925;1.21
216;2041.78;530.29;1.21
217;2002.41;548.112;1.21
218;1980.14;563.738;1.22
219;2002.41;561.785;1.22
220;2021.95;548.112;1.22
221;2027.13;528.336;1.22
222;2017.06;555.925;1.22
223;1982.58;565.935;1.22
224;1938.02;528.336;1.22
225;1938.02;532.243;1.23
226;1980.14;593.524;1.23
227;1999.97;555.925;1.23
228;2012.18;553.972;1.23
229;2004.86;546.159;1.23
230;1977.69;561.785;1.23
231;1950.53;561.785;1.23
232;1980.14;573.748;1.23
233;2021.95;534.196;1.24001
234;2041.78;559.832;1.24001
235;2046.67;575.701;1.24001
236;2029.58;520.524;1.24001
237;1989.9;553.972;1.24001
238;1962.74;555.925;1.24001
239;1987.46;565.935;1.24001
240;2004.86;550.066;1.24001
241;2009.74;546.159;1.25
242;2004.86;546.159;1.25
243;1970.37;575.701;1.25
244;1930.7;548.112;1.25
245;1928.25;540.056;1.25
246;1972.81;591.571;1.25
247;1994.79;557.878;1.25
248;2002.41;553.972;1.26
249;1997.53;552.019;1.26
250;1970.37;563.738;1.26
251;1940.46;569.842;1.26
252;1975.25;569.842;1.26
253;2017.06;538.102;1.26
254;2039.34;571.795;1.26
255;2044.23;573.748;1.26
256;2027.13;530.29;1.27
257;1989.9;561.785;1.27
258;1962.74;563.738;1.27
259;1987.46;567.888;1.27
260;2007.3;555.925;1.27
261;2007.3;542.009;1.27
262;1997.53;553.972;1.27
263;1982.58;575.701;1.27
264;1935.58;546.159;1.27
265;1913.3;553.972;1.28
266;1952.97;591.571;1.28
267;1982.58;561.785;1.28
268;1997.53;553.972;1.28
269;1997.53;555.925;1.28
270;1975.25;565.935;1.28
271;1943.21;581.561;1.28
272;1950.53;567.888;1.28
273;1999.97;552.019;1.29
274;2021.95;585.467;1.29
275;2034.46;567.888;1.29
276;2024.69;542.009;1.29
277;1992.34;561.785;1.29
278;1955.42;575.701;1.29
279;1962.74;573.748;1.29
280;1989.9;561.785;1.29
281;1997.53;544.206;1.29
282;1994.79;567.888;1.3
283;1972.81;579.608;1.3
284;1928.25;544.206;1.3
285;1905.98;567.888;1.3
286;1945.65;589.618;1.3
287;1972.81;567.888;1.3
288;1987.46;563.738;1.3
289;1989.9;559.832;1.3
290;1967.62;571.795;1.3
291;1935.58;583.514;1.31001
292;1948.09;581.561;1.31001
293;1997.53;555.925;1.31001
294;2021.95;583.514;1.31001
295;2034.46;577.654;1.31001
296;2027.13;542.009;1.31001
297;1994.79;569.842;1.31001
298;1957.86;577.654;1.31001
299;1965.18;579.608;1.32
300;1987.46;567.888;1.32
301;1994.79;552.019;1.32
302;1992.34;571.795;1.32
303;1970.37;585.467;1.32
304;1925.81;553.972;1.32
305;1903.53;567.888;1.32
306;1943.21;599.384;1.32
307;1975.25;571.795;1.32
308;1987.46;563.738;1.33
309;1987.46;565.935;1.33
310;1967.62;575.701;1.33
311;1938.02;593.524;1.33
312;1945.65;577.654;1.33
313;1992.34;563.738;1.33
314;2014.62;599.384;1.33
315;2027.13;575.701;1.33
316;2019.51;552.019;1.33
317;1982.58;573.748;1.34
318;1950.53;573.748;1.34
319;1955.42;587.42;1.34
320;1982.58;567.888;1.34
321;1989.9;569.842;1.34
322;1987.46;559.832;1.34
323;1962.74;601.337;1.34
324;1920.93;573.748;1.34
325;1901.09;553.972;1.34
326;1938.02;617.206;1.35
327;1967.62;577.654;1.35
328;1977.69;577.654;1.35
329;1980.14;571.795;1.35
330;1960.3;585.467;1.35
331;1928.25;585.467;1.35
332;1938.02;595.477;1.35
333;1987.46;555.925;1.35
334;2009.74;583.514;1.35
335;2021.95;597.43;1.36
336;2014.62;548.112;1.36
337;1982.58;577.654;1.36
338;1945.65;581.561;1.36
339;1955.42;587.42;1.36
340;1982.58;573.748;1.36
341;1985.02;567.888;1.36
342;1982.58;567.888;1.36
343;1960.3;601.337;1.36
344;1916.05;571.795;1.37
345;1893.77;563.738;1.37
346;1935.58;615.253;1.37
347;1962.74;579.608;1.37
348;1975.25;575.701;1.37
349;1975.25;571.795;1.37
350;1955.42;585.467;1.37
351;1925.81;593.524;1.37
352;1933.14;591.571;1.37
353;1985.02;563.738;1.37
354;2007.3;593.524;1.38
355;2019.51;593.524;1.38
356;2009.74;553.972;1.38
357;1975.25;579.608;1.38
358;1940.46;587.42;1.38
359;1948.09;589.618;1.38
360;1977.69;577.654;1.38
361;1980.14;567.888;1.38
362;1980.14;579.608;1.38
363;1955.42;595.477;1.38
364;1913.3;565.935;1.39
365;1893.77;571.795;1.39
366;1930.7;611.347;1.39
367;1957.86;583.514;1.39
368;1970.37;571.795;1.39
369;1970.37;573.748;1.39
370;1950.53;585.467;1.39
371;1920.93;601.337;1.39
372;1930.7;589.618;1.39
373;1980.14;569.842;1.39
374;2002.41;601.337;1.4
375;2014.62;585.467;1.4
376;2004.86;561.785;1.4
377;1972.81;579.608;1.4
378;1935.58;589.618;1.4
379;1948.09;591.571;1.4
380;1972.81;573.748;1.4
381;1977.69;575.701;1.4
382;1975.25;567.888;1.4
383;1950.53;611.347;1.4
384;1908.42;581.561;1.41
385;1888.89;557.878;1.41
386;1930.7;623.066;1.41
387;1952.97;587.42;1.41
388;1967.62;581.561;1.41
389;1967.62;573.748;1.41
390;1948.09;591.571;1.41
391;1918.49;587.42;1.41
392;1930.7;601.337;1.41
393;1977.69;557.878;1.41
394;2002.41;587.42;1.41
395;2014.62;603.29;1.42001
396;2004.86;548.112;1.42001
397;1972.81;581.561;1.42001
398;1935.58;583.514;1.42001
399;1948.09;593.524;1.42001
400;1972.81;577.654;1.42001
401;1977.69;573.748;1.42001
402;1977.69;571.795;1.42001
403;1952.97;603.29;1.42001
404;1910.86;577.654;1.42001
405;1891.33;565.935;1.42001
406;1930.7;623.066;1.43
407;1960.3;583.514;1.43
408;1970.37;577.654;1.43
409;1972.81;575.701;1.43
410;1952.97;587.42;1.43
411;1923.37;593.524;1.43
412;1933.14;593.524;1.43
413;1980.14;565.935;1.43
414;2004.86;593.524;1.43
415;2017.06;597.43;1.43
416;2004.86;553.972;1.43
417;1972.81;581.561;1.43
418;1938.02;587.42;1.44
419;1950.53;591.571;1.44
420;1975.25;579.608;1.44
421;1982.58;567.888;1.44
422;1982.58;579.608;1.44
423;1950.53;597.43;1.44
424;1908.42;569.842;1.44
425;1893.77;571.795;1.44
426;1930.7;615.253;1.44
427;1960.3;581.561;1.44
428;1970.37;577.654;1.44
429;1967.62;577.654;1.44
430;1948.09;587.42;1.45
431;1918.49;599.384;1.45
432;1933.14;589.618;1.45
433;1980.14;569.842;1.45
434;2002.41;603.29;1.45
435;2014.62;589.618;1.45
436;2002.41;557.878;1.45
437;1967.62;579.608;1.45
438;1935.58;591.571;1.45
439;1948.09;591.571;1.45
440;1972.81;579.608;1.45
441;1980.14;561.785;1.45
442;1975.25;573.748;1.46
443;1950.53;603.29;1.46
444;1910.86;571.795;1.46
445;1891.33;569.842;1.46
446;1930.7;619.16;1.46
447;1955.42;581.561;1.46
448;1967.62;577.654;1.46
449;1965.18;577.654;1.46
450;1945.65;589.618;1.46
451;1916.05;597.43;1.46
452;1928.25;593.524;1.46
453;1977.69;567.888;1.46
454;1999.97;597.43;1.46
455;2009.74;595.477;1.47
456;2002.41;555.925;1.47
457;1962.74;581.561;1.47
458;1933.14;589.618;1.47
459;1948.09;593.524;1.47
460;1970.37;579.608;1.47
461;1975.25;565.935;1.47
462;1975.25;579.608;1.47
463;1948.09;599.384;1.47
464;1908.42;569.842;1.47
465;1893.77;575.701;1.47
466;1930.7;611.347;1.47
467;1955.42;583.514;1.47
468;1967.62;575.701;1.48
469;1965.18;575.701;1.48
470;1945.65;585.467;1.48
471;1916.05;601.337;1.48
472;1930.7;589.618;1.48
473;1975.25;559.832;1.48
474;2002.41;583.514;1.48
475;2012.18;611.347;1.48
476;1999.97;548.112;1.48
477;1967.62;583.514;1.48
478;1933.14;581.561;1.48
479;1945.65;593.524;1.48
480;1967.62;575.701;1.48
481;1975.25;577.654;1.49001
482;1970.37;567.888;1.49001
483;1943.21;611.347;1.49001
484;1903.53;583.514;1.49001
485;1886.14;561.785;1.49001
486;1925.81;625.019;1.49001
487;1952.97;585.467;1.49001
488;1962.74;583.514;1.49001
489;1960.3;575.701;1.49001
490;1940.46;593.524;1.49001
491;1910.86;589.618;1.49001
492;1928.25;603.29;1.49001
493;1972.81;561.785;1.49001
494;1999.97;591.571;1.5
495;2009.74;605.243;1.5
496;1997.53;548.112;1.5
497;1962.74;585.467;1.5
498;1933.14;585.467;1.5
499;1945.65;593.524;1.5
500;1967.62;577.654;1.5
501;1972.81;575.701;1.5
502;1967.62;573.748;1.5
503;1940.46;605.243;1.5
504;1901.09;575.701;1.5
505;1888.89;569.842;1.5
506;1928.25;621.113;1.5
507;1950.53;583.514;1.51
508;1962.74;581.561;1.51
509;1962.74;577.654;1.51
510;1943.21;589.618;1.51
511;1910.86;597.43;1.51
512;1928.25;597.43;1.51
513;1977.69;567.888;1.51
514;1997.53;595.477;1.51
515;2007.3;597.43;1.51
516;1997.53;555.925;1.51
517;1962.74;583.514;1.51
518;1930.7;591.571;1.51
519;1948.09;593.524;1.51
520;1970.37;583.514;1.51
521;1975.25;569.842;1.52
522;1970.37;581.561;1.52
523;1943.21;599.384;1.52
524;1903.53;569.842;1.52
525;1888.89;577.654;1.52
526;1930.7;613.3;1.52
527;1952.97;587.42;1.52
528;1965.18;579.608;1.52
529;1965.18;579.608;1.52
530;1943.21;589.618;1.52
531;1910.86;601.337;1.52
532;1930.7;593.524;1.52
533;1977.69;571.795;1.52
534;1999.97;605.243;1.52
535;2009.74;613.3;1.53
536;1997.53;552.019;1.53
537;1962.74;581.561;1.53
538;1933.14;583.514;1.53
539;1948.09;597.43;1.53
540;1970.37;575.701;1.53
541;1977.69;581.561;1.53
542;1972.81;569.842;1.53
543;1943.21;615.253;1.53
544;1903.53;585.467;1.53
545;1891.33;561.785;1.53
546;1933.14;625.019;1.53
547;1957.86;587.42;1.53
548;1967.62;585.467;1.53
549;1967.62;577.654;1.54
550;1943.21;595.477;1.54
551;1916.05;589.618;1.54
552;1933.14;607.196;1.54
553;1980.14;563.738;1.54
554;1999.97;587.42;1.54
555;2012.18;607.196;1.54
556;1999.97;550.066;1.54
557;1962.74;585.467;1.54
558;1935.58;587.42;1.54
559;1950.53;595.477;1.54
560;1970.37;579.608;1.54
561;1975.25;577.654;1.54
562;1972.81;573.748;1.54
563;1943.21;609.149;1.54
564;1901.09;581.561;1.55
565;1891.33;567.888;1.55
566;1930.7;625.019;1.55
567;1955.42;587.42;1.55
568;1967.62;583.514;1.55
569;1965.18;579.608;1.55
570;1940.46;593.524;1.55
571;1910.86;595.477;1.55
572;1933.14;601.337;1.55
573;1975.25;567.888;1.55
574;1997.53;597.43;1.55
575;2007.3;599.384;1.55
576;1994.79;555.925;1.55
577;1957.86;583.514;1.55
578;1928.25;591.571;1.56001
579;1948.09;595.477;1.56001
580;1967.62;581.561;1.56001
581;1975.25;571.795;1.56001
582;1967.62;579.608;1.56001
583;1938.02;603.29;1.56001
584;1901.09;573.748;1.56001
585;1888.89;575.701;1.56001
586;1930.7;619.16;1.56001
587;1955.42;585.467;1.56001
588;1962.74;579.608;1.56001
589;1960.3;581.561;1.56001
590;1938.02;591.571;1.56001
591;1910.86;601.337;1.56001
592;1933.14;593.524;1.57
593;1972.81;571.795;1.57
594;1994.79;603.29;1.57
595;2007.3;593.524;1.57
596;1994.79;561.785;1.57
597;1960.3;585.467;1.57
598;1930.7;589.618;1.57
599;1948.09;595.477;1.57
600;1967.62;579.608;1.57
601;1972.81;577.654;1.57
602;1965.18;575.701;1.57
603;1938.02;607.196;1.57
604;1898.65;577.654;1.57
605;1888.89;567.888;1.57
606;1930.7;623.066;1.57
607;1955.42;587.42;1.58
608;1965.18;581.561;1.58
609;1962.74;579.608;1.58
610;1940.46;591.571;1.58
611;1910.86;597.43;1.58
612;1933.14;597.43;1.58
613;1980.14;567.888;1.58
614;1999.97;597.43;1.58
615;2007.3;599.384;1.58
616;1994.79;555.925;1.58
617;1957.86;587.42;1.58
618;1930.7;591.571;1.58
619;1952.97;597.43;1.58
620;1972.81;581.561;1.58
621;1980.14;567.888;1.58
622;1972.81;583.514;1.59
623;1943.21;601.337;1.59
624;1903.53;569.842;1.59
625;1893.77;577.654;1.59
626;1935.58;613.3;1.59
627;1957.86;583.514;1.59
628;1967.62;587.42;1.59
629;1965.18;575.701;1.59
630;1940.46;597.43;1.59
631;1910.86;587.42;1.59
632;1935.58;609.149;1.59
633;1982.58;559.832;1.59
634;1999.97;587.42;1.59
635;2009.74;613.3;1.59
636;1994.79;550.066;1.59
637;1975.25;583.514;1.6
638;1938.02;583.514;1.6
639;1940.46;595.477;1.6
640;1967.62;573.748;1.6
641;1977.69;579.608;1.6
642;1975.25;567.888;1.6
643;1957.86;611.347;1.6
644;1918.49;583.514;1.6
645;1888.89;559.832;1.6
646;1920.93;625.019;1.6
647;1952.97;585.467;1.6
648;1965.18;585.467;1.6
649;1967.62;573.748;1.6
650;1952.97;593.524;1.6
651;1923.37;587.42;1.6
652;1920.93;601.337;1.61
653;1972.81;561.785;1.61
654;1997.53;589.618;1.61
655;2012.18;605.243;1.61
656;2007.3;548.112;1.61
657;1977.69;583.514;1.61
658;1943.21;585.467;1.61
659;1943.21;595.477;1.61
660;1970.37;575.701;1.61
661;1977.69;575.701;1.61
662;1980.14;573.748;1.61
663;1957.86;607.196;1.61
664;1920.93;579.608;1.61
665;1893.77;565.935;1.61
666;1920.93;621.113;1.61
667;1952.97;583.514;1.61
668;1967.62;579.608;1.62
669;1965.18;577.654;1.62
670;1950.53;591.571;1.62
671;1923.37;595.477;1.62
672;1918.49;597.43;1.62
673;1970.37;565.935;1.62
674;1997.53;595.477;1.62
675;2009.74;601.337;1.62
676;2007.3;553.972;1.62
677;1977.69;585.467;1.62
678;1940.46;589.618;1.62
679;1945.65;593.524;1.62
680;1967.62;579.608;1.62
681;1980.14;569.842;1.62
682;1982.58;579.608;1.62
683;1960.3;601.337;1.62
684;1920.93;571.795;1.63
685;1893.77;575.701;1.63
686;1925.81;617.206;1.63
687;1952.97;585.467;1.63
688;1967.62;577.654;1.63
689;1972.81;575.701;1.63
690;1955.42;595.477;1.63
691;1923.37;585.467;1.63
692;1925.81;607.196;1.63
693;1975.25;559.832;1.63
694;2002.41;581.561;1.63
695;2017.06;611.347;1.63
696;2014.62;553.972;1.63
697;1982.58;581.561;1.63
698;1948.09;579.608;1.63
699;1950.53;597.43;1.63
700;1972.81;573.748;1.64
701;1982.58;579.608;1.64
702;1982.58;565.935;1.64
703;1960.3;613.3;1.64
704;1920.93;583.514;1.64
705;1896.21;557.878;1.64
706;1925.81;623.066;1.64
707;1960.3;585.467;1.64
708;1970.37;583.514;1.64
709;1975.25;573.748;1.64
710;1957.86;593.524;1.64
711;1928.25;587.42;1.64
712;1928.25;605.243;1.64
713;1975.25;559.832;1.64
714;2002.41;585.467;1.64
715;2014.62;607.196;1.64
716;2009.74;548.112;1.65
717;1980.14;581.561;1.65
718;1943.21;585.467;1.65
719;1948.09;593.524;1.65
720;1975.25;577.654;1.65
721;1982.58;577.654;1.65
722;1987.46;571.795;1.65
723;1965.18;607.196;1.65
724;1923.37;579.608;1.65
725;1896.21;563.738;1.65
726;1930.7;623.066;1.65
727;1957.86;585.467;1.65
728;1972.81;579.608;1.65
729;1972.81;573.748;1.65
730;1955.42;589.618;1.65
731;1925.81;591.571;1.65
732;1930.7;597.43;1.65
733;1980.14;563.738;1.66
734;2004.86;593.524;1.66
735;2019.51;601.337;1.66
736;2014.62;552.019;1.66
737;1980.14;583.514;1.66
738;1943.21;587.42;1.66
739;1948.09;593.524;1.66
740;1975.25;577.654;1.66
741;1985.02;571.795;1.66
742;1985.02;575.701;1.66
743;1965.18;601.337;1.66
744;1923.37;573.748;1.66
745;1901.09;571.795;1.66
746;1935.58;619.16;1.66
747;1965.18;583.514;1.66
748;1977.69;577.654;1.66
749;1980.14;575.701;1.66
750;1960.3;587.42;1.67001
751;1928.25;599.384;1.67001
752;1933.14;601.337;1.67001
753;1985.02;561.785;1.67001
754;2009.74;589.618;1.67001
755;2024.69;605.243;1.67001
756;2019.51;550.066;1.67001
757;1987.46;583.514;1.67001
758;1950.53;581.561;1.67001
759;1955.42;593.524;1.67001
760;1982.58;575.701;1.67001
761;1989.9;571.795;1.67001
762;1989.9;571.795;1.67001
763;1967.62;605.243;1.67001
764;1928.25;575.701;1.67001
765;1901.09;565.935;1.67001
766;1935.58;621.113;1.67001
767;1965.18;585.467;1.67001
768;1977.69;579.608;1.68
769;1980.14;579.608;1.68
770;1960.3;587.42;1.68
771;1930.7;593.524;1.68
772;1935.58;593.524;1.68
773;1985.02;565.935;1.68
774;2009.74;595.477;1.68
775;2024.69;599.384;1.68
776;2019.51;552.019;1.68
777;1987.46;581.561;1.68
778;1952.97;587.42;1.68
779;1955.42;591.571;1.68
780;1982.58;579.608;1.68
781;1989.9;567.888;1.68
782;1989.9;579.608;1.68
783;1967.62;615.253;1.68
784;1923.37;587.42;1.69
785;1903.53;552.019;1.69
786;1940.46;613.3;1.69
787;1967.62;585.467;1.69
788;1980.14;587.42;1.69
789;1982.58;573.748;1.69
790;1967.62;597.43;1.69
791;1933.14;585.467;1.69
792;1940.46;607.196;1.69
793;1987.46;557.878;1.69
794;2014.62;583.514;1.69
795;2027.13;613.3;1.69
796;2024.69;548.112;1.69
797;1987.46;583.514;1.69
798;1955.42;581.561;1.69
799;1960.3;595.477;1.69
800;1982.58;575.701;1.69
801;1992.34;581.561;1.7
802;1989.9;563.738;1.7
803;1965.18;613.3;1.7
804;1925.81;585.467;1.7
805;1901.09;559.832;1.7
806;1940.46;625.019;1.7
807;1970.37;587.42;1.7
808;1982.58;585.467;1.7
809;1982.58;571.795;1.7
810;1965.18;593.524;1.7
811;1933.14;585.467;1.7
812;1940.46;603.29;1.7
813;1987.46;559.832;1.7
814;2014.62;583.514;1.7
815;2021.95;605.243;1.7
816;2021.95;546.159;1.7
817;1987.46;583.514;1.7
818;1950.53;583.514;1.71
819;1960.3;593.524;1.71
820;1987.46;575.701;1.71
821;1994.79;575.701;1.71
822;1994.79;571.795;1.71
823;1970.37;609.149;1.71
824;1928.25;579.608;1.71
825;1908.42;563.738;1.71
826;1943.21;623.066;1.71
827;1972.81;585.467;1.71
828;1985.02;581.561;1.71
829;1985.02;575.701;1.71
830;1962.74;591.571;1.71
831;1935.58;593.524;1.71
832;1943.21;599.384;1.71
833;1992.34;563.738;1.71
834;2017.06;595.477;1.71
835;2029.58;597.43;1.72
836;2021.95;552.019;1.72
837;1989.9;581.561;1.72
838;1955.42;587.42;1.72
839;1965.18;591.571;1.72
840;1987.46;577.654;1.72
841;1997.53;569.842;1.72
842;1997.53;577.654;1.72
843;1972.81;601.337;1.72
844;1933.14;571.795;1.72
845;1910.86;571.795;1.72
846;1948.09;613.3;1.72
847;1972.81;587.42;1.72
848;1985.02;587.42;1.72
849;1987.46;571.795;1.72
850;1972.81;597.43;1.72
851;1938.02;585.467;1.72
852;1948.09;607.196;1.73
853;1999.97;557.878;1.73
854;2027.13;581.561;1.73
855;2036.9;611.347;1.73
856;2027.13;553.972;1.73
857;1992.34;579.608;1.73
858;1960.3;579.608;1.73
859;1970.37;593.524;1.73
860;1992.34;573.748;1.73
861;1999.97;579.608;1.73
862;1997.53;561.785;1.73
863;1977.69;611.347;1.73
864;1933.14;583.514;1.73
865;1910.86;553.972;1.73
866;1948.09;621.113;1.73
867;1975.25;585.467;1.73
868;1989.9;585.467;1.73
869;1989.9;573.748;1.74001
870;1970.37;593.524;1.74001
871;1938.02;589.618;1.74001
872;1948.09;605.243;1.74001
873;1999.97;553.972;1.74001
874;2024.69;585.467;1.74001
875;2034.46;609.149;1.74001
876;2029.58;546.159;1.74001
877;1994.79;581.561;1.74001
878;1960.3;581.561;1.74001
879;1970.37;595.477;1.74001
880;1994.79;573.748;1.74001
881;2002.41;575.701;1.74001
882;2002.41;569.842;1.74001
883;1977.69;607.196;1.74001
884;1935.58;579.608;1.74001
885;1913.3;561.785;1.74001
886;1955.42;623.066;1.75
887;1982.58;583.514;1.75
888;1994.79;579.608;1.75
889;1997.53;573.748;1.75
890;1975.25;589.618;1.75
891;1945.65;589.618;1.75
892;1955.42;599.384;1.75
893;2002.41;561.785;1.75
894;2027.13;591.571;1.75
895;2039.34;601.337;1.75
896;2032.02;548.112;1.75
897;1994.79;581.561;1.75
898;1965.18;585.467;1.75
899;1975.25;593.524;1.75
900;1999.97;577.654;1.75
901;2004.86;569.842;1.75
902;2002.41;573.748;1.75
903;1980.14;601.337;1.75
904;1935.58;571.795;1.76
905;1916.05;567.888;1.76
906;1955.42;619.16;1.76
907;1982.58;583.514;1.76
908;1997.53;583.514;1.76
909;1997.53;573.748;1.76
910;1975.25;591.571;1.76
911;1945.65;587.42;1.76
912;1957.86;601.337;1.76
913;2002.41;557.878;1.76
914;2024.69;585.467;1.76
915;2039.34;605.243;1.76
916;2032.02;546.159;1.76
917;1997.53;581.561;1.76
918;1965.18;583.514;1.76
919;1975.25;593.524;1.76
920;1999.97;577.654;1.77
921;2007.3;573.748;1.77
922;2004.86;571.795;1.77
923;1980.14;605.243;1.77
924;1935.58;575.701;1.77
925;1916.05;565.935;1.77
926;1957.86;621.113;1.77
927;1987.46;583.514;1.77
928;1997.53;579.608;1.77
929;1999.97;575.701;1.77
930;1980.14;589.618;1.77
931;1948.09;593.524;1.77
932;1957.86;595.477;1.77
933;2009.74;563.738;1.77
934;2029.58;591.571;1.77
935;2039.34;599.384;1.77
936;2032.02;552.019;1.77
937;1999.97;581.561;1.77
938;1967.62;587.42;1.78
939;1980.14;595.477;1.78
940;2002.41;567.888;1.78
941;2012.18;581.561;1.78
942;2007.3;559.832;1.78
943;1980.14;609.149;1.78
944;1940.46;585.467;1.78
945;1920.93;552.019;1.78
946;1962.74;611.347;1.78
947;1989.9;587.42;1.78
948;2004.86;587.42;1.78
949;2002.41;571.795;1.78
950;1985.02;593.524;1.78
951;1952.97;583.514;1.78
952;1965.18;607.196;1.78
953;2014.62;555.925;1.78
954;2039.34;581.561;1.78
955;2049.11;613.3;1.79
956;2036.9;550.066;1.79
957;2002.41;579.608;1.79
958;1967.62;579.608;1.79
959;1982.58;593.524;1.79
960;2004.86;571.795;1.79
961;2017.06;579.608;1.79
962;2012.18;561.785;1.79
963;1982.58;611.347;1.79
964;1943.21;583.514;1.79
965;1925.81;553.972;1.79
966;1965.18;619.16;1.79
967;1994.79;585.467;1.79
968;2004.86;583.514;1.79
969;2004.86;571.795;1.79
970;1982.58;591.571;1.79
971;1952.97;585.467;1.79
972;1965.18;603.29;1.79
973;2014.62;555.925;1.8
974;2036.9;585.467;1.8
975;2046.67;607.196;1.8
976;2039.34;544.206;1.8
977;2004.86;581.561;1.8
978;1970.37;581.561;1.8
979;1987.46;593.524;1.8
980;2012.18;575.701;1.8
981;2017.06;573.748;1.8
982;2017.06;565.935;1.8
983;1985.02;609.149;1.8
984;1945.65;581.561;1.8
985;1925.81;559.832;1.8
986;1970.37;623.066;1.8
987;1994.79;583.514;1.8
988;2009.74;579.608;1.8
989;2009.74;573.748;1.8
990;1985.02;589.618;1.81001
991;1957.86;591.571;1.81001
992;1972.81;597.43;1.81001
993;2021.95;559.832;1.81001
994;2041.78;589.618;1.81001
995;2056.74;601.337;1.81001
996;2046.67;550.066;1.81001
997;2007.3;581.561;1.81001
998;1977.69;585.467;1.81001
999;1989.9;591.571;1.81001
1000;2017.06;577.654;1.81001
1001;2019.51;579.608;1.81001
1002;2014.62;559.832;1.81001
1003;1989.9;607.196;1.81001
1004;1948.09;585.467;1.81001
1005;1930.7;550.066;1.81001
1006;1972.81;611.347;1.81001
1007;2002.41;589.618;1.82
1008;2012.18;587.42;1.82
1009;2012.18;571.795;1.82
1010;1992.34;595.477;1.82
1011;1960.3;583.514;1.82
1012;1975.25;607.196;1.82
1013;2017.06;557.878;1.82
1014;2044.23;579.608;1.82
1015;2056.74;611.347;1.82
1016;2051.85;553.972;1.82
1017;2021.95;577.654;1.82
1018;1985.02;575.701;1.82
1019;1989.9;593.524;1.82
1020;2017.06;571.795;1.82
1021;2021.95;577.654;1.82
1022;2021.95;561.785;1.82
1023;1997.53;609.149;1.82
1024;1955.42;583.514;1.82
1025;1930.7;553.972;1.83
1026;1965.18;615.253;1.83
1027;1997.53;585.467;1.83
1028;2012.18;585.467;1.83
1029;2012.18;571.795;1.83
1030;1992.34;589.618;1.83
1031;1960.3;583.514;1.83
1032;1962.74;603.29;1.83
1033;2012.18;557.878;1.83
1034;2041.78;583.514;1.83
1035;2054.3;609.149;1.83
1036;2046.67;546.159;1.83
1037;2014.62;581.561;1.83
1038;1980.14;577.654;1.83
1039;1985.02;595.477;1.83
1040;2014.62;573.748;1.83
1041;2021.95;577.654;1.83
1042;2019.51;569.842;1.84
1043;1997.53;607.196;1.84
1044;1955.42;579.608;1.84
1045;1930.7;559.832;1.84
1046;1967.62;623.066;1.84
1047;2002.41;583.514;1.84
1048;2012.18;581.561;1.84
1049;2014.62;575.701;1.84
1050;1999.97;589.618;1.84
1051;1962.74;585.467;1.84
1052;1972.81;597.43;1.84
1053;2021.95;559.832;1.84
1054;2051.85;589.618;1.84
1055;2064.06;603.29;1.84
1056;2056.74;548.112;1.84
1057;2024.69;577.654;1.84
1058;1989.9;585.467;1.84
1059;1992.34;591.571;1.84
1060;2019.51;575.701;1.85
1061;2027.13;571.795;1.85
1062;2027.13;573.748;1.85
1063;1999.97;609.149;1.85
1064;1957.86;581.561;1.85
1065;1933.14;555.925;1.85
1066;1972.81;619.16;1.85
1067;1999.97;585.467;1.85
1068;2017.06;583.514;1.85
1069;2019.51;573.748;1.85
1070;1999.97;589.618;1.85
1071;1970.37;587.42;1.85
1072;1972.81;601.337;1.85
1073;2021.95;555.925;1.85
1074;2051.85;585.467;1.85
1075;2061.62;605.243;1.85
1076;2054.3;546.159;1.86
1077;2019.51;581.561;1.86
1078;1985.02;581.561;1.86
1079;1992.34;591.571;1.86
1080;2021.95;573.748;1.86
1081;2029.58;575.701;1.86
1082;2029.58;569.842;1.86
1083;2004.86;605.243;1.86
1084;1962.74;579.608;1.86
1085;1940.46;559.832;1.86
1086;1977.69;623.066;1.86
1087;2007.3;583.514;1.86
1088;2017.06;579.608;1.86
1089;2019.51;573.748;1.86
1090;2002.41;589.618;1.86
1091;1967.62;589.618;1.86
1092;1975.25;599.384;1.86
1093;2027.13;559.832;1.87
1094;2051.85;577.654;1.87
1095;2064.06;615.253;1.87
1096;2054.3;559.832;1.87
1097;2021.95;579.608;1.87
1098;1989.9;575.701;1.87
1099;1997.53;593.524;1.87
1100;2024.69;569.842;1.87
1101;2029.58;579.608;1.87
1102;2027.13;555.925;1.87
1103;2004.86;609.149;1.87
1104;1960.3;585.467;1.87
1105;1938.02;548.112;1.87
1106;1977.69;609.149;1.87
1107;2009.74;585.467;1.87
1108;2019.51;587.42;1.87
1109;2021.95;569.842;1.87
1110;2002.41;593.524;1.87
1111;1972.81;579.608;1.88
1112;1977.69;605.243;1.88
1113;2029.58;555.925;1.88
1114;2054.3;577.654;1.88
1115;2066.5;611.347;1.88
1116;2059.18;550.066;1.88
1117;2027.13;579.608;1.88
1118;1989.9;577.654;1.88
1119;2002.41;589.618;1.88
1120;2027.13;571.795;1.88
1121;2034.46;577.654;1.88
1122;2032.02;561.785;1.88
1123;2007.3;609.149;1.88
1124;1962.74;583.514;1.88
1125;1943.21;555.925;1.88
1126;1980.14;617.206;1.88
1127;2012.18;583.514;1.88
1128;2024.69;583.514;1.89
1129;2024.69;571.795;1.89
1130;2002.41;589.618;1.89
1131;1970.37;583.514;1.89
1132;1980.14;601.337;1.89
1133;2032.02;555.925;1.89
1134;2054.3;579.608;1.89
1135;2068.95;607.196;1.89
1136;2061.62;546.159;1.89
1137;2029.58;579.608;1.89
1138;1994.79;579.608;1.89
1139;2004.86;593.524;1.89
1140;2029.58;571.795;1.89
1141;2034.46;573.748;1.89
1142;2034.46;565.935;1.89
1143;2007.3;605.243;1.89
1144;1965.18;577.654;1.89
1145;1943.21;559.832;1.89
1146;1985.02;623.066;1.89
1147;2017.06;581.561;1.9
1148;2029.58;579.608;1.9
1149;2029.58;573.748;1.9
1150;2009.74;589.618;1.9
1151;1977.69;591.571;1.9
1152;1989.9;597.43;1.9
1153;2036.9;559.832;1.9
1154;2061.62;585.467;1.9
1155;2071.39;599.384;1.9
1156;2064.06;548.112;1.9
1157;2032.02;575.701;1.9
1158;1994.79;571.795;1.9
1159;2009.74;591.571;1.9
1160;2032.02;569.842;1.9
1161;2039.34;577.654;1.9
1162;2036.9;552.019;1.9
1163;2009.74;605.243;1.9
1164;1967.62;583.514;1.9
1165;1945.65;550.066;1.91
1166;1987.46;605.243;1.91
1167;2017.06;585.467;1.91
1168;2029.58;585.467;1.91
1169;2029.58;569.842;1.91
1170;2007.3;593.524;1.91
1171;1977.69;581.561;1.91
1172;1987.46;605.243;1.91
1173;2039.34;559.832;1.91
1174;2064.06;577.654;1.91
1175;2076.27;611.347;1.91
1176;2064.06;553.972;1.91
1177;2032.02;575.701;1.91
1178;1997.53;575.701;1.91
1179;2009.74;593.524;1.91
1180;2036.9;567.888;1.91
1181;2044.23;577.654;1.91
1182;2041.78;559.832;1.92001
1183;2017.06;609.149;1.92001
1184;1975.25;581.561;1.92001
1185;1955.42;552.019;1.92001
1186;1994.79;613.3;1.92001
1187;2024.69;583.514;1.92001
1188;2034.46;581.561;1.92001
1189;2034.46;569.842;1.92001
1190;2012.18;589.618;1.92001
1191;1982.58;581.561;1.92001
1192;1994.79;603.29;1.92001
1193;2046.67;553.972;1.92001
1194;2071.39;581.561;1.92001
1195;2081.46;609.149;1.92001
1196;2071.39;542.009;1.92001
1197;2036.9;579.608;1.92001
1198;2002.41;577.654;1.92001
1199;2019.51;591.571;1.92001
1200;2044.23;573.748;1.93
1201;2049.11;577.654;1.93
1202;2049.11;563.738;1.93
1203;2021.95;607.196;1.93
1204;1997.53;579.608;1.93
1205;1955.42;557.878;1.93
1206;1977.69;623.066;1.93
1207;2017.06;579.608;1.93
1208;2032.02;577.654;1.93
1209;2039.34;571.795;1.93
1210;2024.69;587.42;1.93
1211;1992.34;585.467;1.93
1212;1980.14;597.43;1.93
1213;2027.13;555.925;1.93
1214;2064.06;587.42;1.93
1215;2079.02;601.337;1.93
1216;2079.02;546.159;1.93
1217;2054.3;579.608;1.94
1218;2014.62;581.561;1.94
1219;2004.86;593.524;1.94
1220;2036.9;571.795;1.94
1221;2049.11;575.701;1.94
1222;2051.85;559.832;1.94
1223;2034.46;609.149;1.94
1224;1997.53;581.561;1.94
1225;1957.86;553.972;1.94
1226;1982.58;619.16;1.94
1227;2021.95;581.561;1.94
1228;2039.34;581.561;1.94
1229;2041.78;569.842;1.94
1230;2032.02;589.618;1.94
1231;1999.97;583.514;1.94
1232;1982.58;599.384;1.94
1233;2032.02;553.972;1.94
1234;2066.5;581.561;1.95
1235;2079.02;605.243;1.95
1236;2081.46;544.206;1.95
1237;2056.74;579.608;1.95
1238;2014.62;579.608;1.95
1239;2007.3;589.618;1.95
1240;2036.9;569.842;1.95
1241;2049.11;571.795;1.95
1242;2051.85;565.935;1.95
1243;2036.9;603.29;1.95
1244;1994.79;575.701;1.95
1245;1960.3;557.878;1.95
1246;1985.02;619.16;1.95
1247;2021.95;579.608;1.95
1248;2036.9;579.608;1.95
1249;2044.23;569.842;1.95
1250;2029.58;593.524;1.96
1251;1997.53;583.514;1.96
1252;1987.46;607.196;1.96
1253;2034.46;563.738;1.96
1254;2068.95;575.701;1.96
1255;2086.34;611.347;1.96
1256;2086.34;557.878;1.96
1257;2059.18;573.748;1.96
1258;2021.95;571.795;1.96
1259;2012.18;589.618;1.96
1260;2041.78;565.935;1.96
1261;2059.18;577.654;1.96
1262;2059.18;553.972;1.96
1263;2041.78;603.29;1.96
1264;2002.41;583.514;1.96
1265;1967.62;546.159;1.96
1266;1992.34;603.29;1.97
1267;2029.58;583.514;1.97
1268;2046.67;583.514;1.97
1269;2049.11;569.842;1.97
1270;2034.46;591.571;1.97
1271;2002.41;577.654;1.97
1272;1992.34;605.243;1.97
1273;2041.78;553.972;1.97
1274;2076.27;577.654;1.97
1275;2091.22;609.149;1.97
1276;2091.22;552.019;1.97
1277;2061.62;575.701;1.97
1278;2027.13;573.748;1.97
1279;2017.06;589.618;1.97
1280;2049.11;569.842;1.97
1281;2056.74;577.654;1.97
1282;2059.18;559.832;1.98
1283;2041.78;607.196;1.98
1284;2002.41;579.608;1.98
1285;1967.62;552.019;1.98
1286;1992.34;617.206;1.98
1287;2032.02;583.514;1.98
1288;2046.67;581.561;1.98
1289;2051.85;569.842;1.98
1290;2036.9;589.618;1.98
1291;2004.86;579.608;1.98
1292;1992.34;601.337;1.98
1293;2046.67;552.019;1.98
1294;2076.27;579.608;1.98
1295;2093.67;607.196;1.98
1296;2091.22;542.009;1.98
1297;2066.5;579.608;1.98
1298;2027.13;577.654;1.99001
1299;2019.51;591.571;1.99001
1300;2049.11;571.795;1.99001
1301;2059.18;573.748;1.99001
1302;2061.62;563.738;1.99001
1303;2044.23;605.243;1.99001
1304;2004.86;575.701;1.99001
1305;1970.37;555.925;1.99001
1306;1997.53;621.113;1.99001
1307;2032.02;581.561;1.99001
1308;2051.85;577.654;1.99001
1309;2056.74;571.795;1.99001
1310;2041.78;587.42;1.99001
1311;2007.3;581.561;1.99001
1312;1999.97;605.243;1.99001
1313;2049.11;565.935;1.99001
1314;2081.46;575.701;2
1315;2096.11;611.347;2
1316;2096.11;557.878;2
1317;2064.06;571.795;2
1318;2029.58;571.795;2
1319;2024.69;587.42;2
1320;2054.3;567.888;2
1321;2066.5;577.654;2
1322;2068.95;553.972;2
1323;2049.11;603.29;2
1324;2009.74;583.514;2
1325;1972.81;546.159;2
1326;1999.97;601.337;2
1327;2039.34;583.514;2
1328;2054.3;585.467;2
1329;2059.18;567.888;2.01
1330;2041.78;593.524;2.01
1331;2007.3;577.654;2.01
1332;2002.41;605.243;2.01
1333;2051.85;555.925;2.01
1334;2086.34;577.654;2.01
1335;2100.99;609.149;2.01
1336;2100.99;552.019;2.01
1337;2071.39;577.654;2.01
1338;2036.9;573.748;2.01
1339;2032.02;587.42;2.01
1340;2061.62;565.935;2.01
1341;2068.95;577.654;2.01
1342;2071.39;559.832;2.01
1343;2054.3;605.243;2.01
1344;2012.18;579.608;2.02
1345;1977.69;548.112;2.02
1346;2012.18;613.3;2.02
1347;2049.11;581.561;2.02
1348;2064.06;581.561;2.02
1349;2068.95;567.888;2.02
1350;2054.3;589.618;2.02
1351;2019.51;579.608;2.02
1352;2012.18;601.337;2.02
1353;2061.62;552.019;2.02
1354;2091.22;579.608;2.02
1355;2106.18;607.196;2.02
1356;2106.18;544.206;2.02
1357;2073.83;573.748;2.02
1358;2039.34;575.701;2.02
1359;2034.46;589.618;2.03
1360;2066.5;569.842;2.03
1361;2076.27;571.795;2.03
1362;2076.27;559.832;2.03
1363;2056.74;605.243;2.03
1364;2017.06;579.608;2.03
1365;1982.58;553.972;2.03
1366;2012.18;621.113;2.03
1367;2051.85;575.701;2.03
1368;2066.5;579.608;2.03
1369;2071.39;569.842;2.03
1370;2056.74;587.42;2.03
1371;2024.69;581.561;2.03
1372;2017.06;597.43;2.03
1373;2068.95;553.972;2.03
1374;2098.55;575.701;2.04
1375;2113.5;607.196;2.04
1376;2108.62;548.112;2.04
1377;2079.02;573.748;2.04
1378;2041.78;571.795;2.04
1379;2039.34;589.618;2.04
1380;2071.39;569.842;2.04
1381;2079.02;575.701;2.04
1382;2083.9;557.878;2.04
1383;2061.62;607.196;2.04
1384;2021.95;577.654;2.04
1385;1987.46;550.066;2.04
1386;2019.51;613.3;2.04
1387;2059.18;581.561;2.04
1388;2073.83;579.608;2.04
1389;2076.27;569.842;2.05
1390;2059.18;585.467;2.05
1391;2024.69;581.561;2.05
1392;2021.95;599.384;2.05
1393;2071.39;552.019;2.05
1394;2100.99;579.608;2.05
1395;2115.94;603.29;2.05
1396;2115.94;542.009;2.05
1397;2083.9;577.654;2.05
1398;2046.67;577.654;2.05
1399;2044.23;589.618;2.05
1400;2071.39;569.842;2.05
1401;2081.46;573.748;2.05
1402;2081.46;563.738;2.05
1403;2064.06;605.243;2.06001
1404;2019.51;583.514;2.06001
1405;1989.9;546.159;2.06001
1406;2021.95;597.43;2.06001
1407;2059.18;589.618;2.06001
1408;2071.39;583.514;2.06001
1409;2076.27;567.888;2.06001
1410;2056.74;593.524;2.06001
1411;2024.69;577.654;2.06001
1412;2019.51;607.196;2.06001
1413;2068.95;563.738;2.06001
1414;2100.99;575.701;2.06001
1415;2115.94;611.347;2.06001
1416;2111.06;557.878;2.06001
1417;2081.46;573.748;2.06001
1418;2044.23;569.842;2.07
1419;2044.23;589.618;2.07
1420;2071.39;565.935;2.07
1421;2083.9;575.701;2.07
1422;2083.9;553.972;2.07
1423;2061.62;601.337;2.07
1424;2019.51;583.514;2.07
1425;1987.46;546.159;2.07
1426;2019.51;603.29;2.07
1427;2059.18;583.514;2.07
1428;2071.39;583.514;2.07
1429;2073.83;567.888;2.07
1430;2056.74;591.571;2.07
1431;2024.69;577.654;2.07
1432;2019.51;603.29;2.08
1433;2071.39;553.972;2.08
1434;2106.18;575.701;2.08
1435;2120.83;611.347;2.08
1436;2118.39;550.066;2.08
1437;2086.34;575.701;2.08
1438;2046.67;569.842;2.08
1439;2046.67;589.618;2.08
1440;2079.02;565.935;2.08
1441;2088.78;577.654;2.08
1442;2083.9;555.925;2.08
1443;2064.06;607.196;2.08
1444;2021.95;577.654;2.08
1445;1989.9;548.112;2.08
1446;2027.13;611.347;2.08
1447;2061.62;577.654;2.09
1448;2079.02;577.654;2.09
1449;2081.46;567.888;2.09
1450;2064.06;589.618;2.09
1451;2029.58;579.608;2.09
1452;2027.13;601.337;2.09
1453;2076.27;550.066;2.09
1454;2108.62;579.608;2.09
1455;2123.27;605.243;2.09
1456;2118.39;542.009;2.09
1457;2088.78;575.701;2.09
1458;2051.85;575.701;2.09
1459;2051.85;587.42;2.09
1460;2083.9;569.842;2.09
1461;2093.67;571.795;2.1
1462;2093.67;561.785;2.1
1463;2073.83;605.243;2.1
1464;2032.02;575.701;2.1
1465;1999.97;553.972;2.1
1466;2036.9;593.524;2.1
1467;2071.39;587.42;2.1
1468;2086.34;583.514;2.1
1469;2088.78;563.738;2.1
1470;2068.95;591.571;2.1
1471;2036.9;579.608;2.1
1472;2036.9;605.243;2.1
1473;2088.78;565.935;2.1
1474;2115.94;571.795;2.1
1475;2130.59;611.347;2.1
1476;2125.71;557.878;2.11
1477;2093.67;571.795;2.11
1478;2054.3;567.888;2.11
1479;2061.62;589.618;2.11
1480;2088.78;565.935;2.11
1481;2096.11;573.748;2.11
1482;2098.55;553.972;2.11
1483;2076.27;599.384;2.11
1484;2034.46;581.561;2.11
1485;2004.86;544.206;2.11
1486;2036.9;601.337;2.11
1487;2071.39;581.561;2.11
1488;2088.78;581.561;2.11
1489;2088.78;565.935;2.11
1490;2073.83;591.571;2.11
1491;2044.23;577.654;2.12
1492;2039.34;607.196;2.12
1493;2093.67;553.972;2.12
1494;2120.83;575.701;2.12
1495;2133.34;611.347;2.12
1496;2128.15;550.066;2.12
1497;2096.11;573.748;2.12
1498;2059.18;571.795;2.12
1499;2064.06;591.571;2.12
1500;2091.22;565.935;2.12
1501;2103.43;575.701;2.12
1502;2103.43;553.972;2.12
1503;2079.02;607.196;2.12
1504;2036.9;579.608;2.12
1505;2004.86;546.159;2.12
1506;2041.78;609.149;2.13
1507;2076.27;579.608;2.13
1508;2093.67;583.514;2.13
1509;2096.11;567.888;2.13
1510;2076.27;589.618;2.13
1511;2046.67;579.608;2.13
1512;2044.23;599.384;2.13
1513;2096.11;550.066;2.13
1514;2125.71;575.701;2.13
1515;2138.22;601.337;2.13
1516;2130.59;540.056;2.13
1517;2100.99;573.748;2.13
1518;2064.06;573.748;2.13
1519;2064.06;589.618;2.13
1520;2093.67;565.935;2.14
1521;2103.43;571.795;2.14
1522;2103.43;557.878;2.14
1523;2081.46;605.243;2.14
1524;2036.9;575.701;2.14
1525;2007.3;553.972;2.14
1526;2046.67;617.206;2.14
1527;2079.02;577.654;2.14
1528;2091.22;579.608;2.14
1529;2096.11;565.935;2.14
1530;2073.83;591.571;2.14
1531;2041.78;575.701;2.14
1532;2044.23;601.337;2.14
1533;2098.55;553.972;2.14
1534;2125.71;575.701;2.14
1535;2138.22;607.196;2.15
1536;2133.34;548.112;2.15
1537;2096.11;575.701;2.15
1538;2064.06;573.748;2.15
1539;2068.95;587.42;2.15
1540;2098.55;565.935;2.15
1541;2106.18;573.748;2.15
1542;2108.62;555.925;2.15
1543;2083.9;605.243;2.15
1544;2039.34;577.654;2.15
1545;2012.18;546.159;2.15
1546;2051.85;613.3;2.15
1547;2083.9;579.608;2.15
1548;2098.55;577.654;2.15
1549;2100.99;565.935;2.15
1550;2081.46;583.514;2.16
1551;2049.11;575.701;2.16
1552;2049.11;599.384;2.16
1553;2100.99;550.066;2.16
1554;2130.59;575.701;2.16
1555;2145.55;601.337;2.16
1556;2140.66;538.102;2.16
1557;2103.43;575.701;2.16
1558;2066.5;573.748;2.16
1559;2071.39;585.467;2.16
1560;2100.99;567.888;2.16
1561;2108.62;573.748;2.16
1562;2111.06;550.066;2.16
1563;2086.34;591.571;2.16
1564;2041.78;581.561;2.16
1565;2017.06;546.159;2.17001
1566;2056.74;595.477;2.17001
1567;2091.22;587.42;2.17001
1568;2100.99;583.514;2.17001
1569;2106.18;565.935;2.17001
1570;2086.34;587.42;2.17001
1571;2051.85;577.654;2.17001
1572;2054.3;605.243;2.17001
1573;2108.62;563.738;2.17001
1574;2138.22;571.795;2.17001
1575;2150.43;609.149;2.17001
1576;2145.55;557.878;2.17001
1577;2111.06;569.842;2.17001
1578;2073.83;569.842;2.18
1579;2079.02;587.42;2.18
1580;2108.62;563.738;2.18
1581;2120.83;573.748;2.18
1582;2118.39;552.019;2.18
1583;2098.55;601.337;2.18
1584;2054.3;579.608;2.18
1585;2027.13;542.009;2.18
1586;2066.5;599.384;2.18
1587;2088.78;581.561;2.18
1588;2108.62;583.514;2.18
1589;2115.94;563.738;2.18
1590;2103.43;589.618;2.18
1591;2071.39;575.701;2.18
1592;2054.3;601.337;2.19
1593;2098.55;552.019;2.19
1594;2138.22;573.748;2.19
1595;2155.31;607.196;2.19
1596;2157.75;550.066;2.19
1597;2133.34;573.748;2.19
1598;2093.67;569.842;2.19
1599;2079.02;587.42;2.19
1600;2108.62;561.785;2.19
1601;2125.71;575.701;2.19
1602;2125.71;555.925;2.19
1603;2113.5;605.243;2.19
1604;2073.83;577.654;2.19
1605;2034.46;546.159;2.2
1606;2046.67;609.149;2.2
1607;2091.22;577.654;2.2
1608;2111.06;577.654;2.2
1609;2118.39;563.738;2.2
1610;2106.18;585.467;2.2
1611;2073.83;577.654;2.2
1612;2054.3;599.384;2.2
1613;2098.55;548.112;2.2
1614;2138.22;575.701;2.2
1615;2155.31;603.29;2.2
1616;2157.75;542.009;2.2
1617;2130.59;573.748;2.2
1618;2093.67;571.795;2.2
1619;2079.02;587.42;2.21
1620;2106.18;565.935;2.21
1621;2123.27;571.795;2.21
1622;2125.71;548.112;2.21
1623;2113.5;587.42;2.21
1624;2073.83;579.608;2.21
1625;2032.02;544.206;2.21
1626;2051.85;589.618;2.21
1627;2096.11;587.42;2.21
1628;2113.5;583.514;2.21
1629;2120.83;561.785;2.21
1630;2108.62;587.42;2.21
1631;2079.02;577.654;2.21
1632;2061.62;601.337;2.22
1633;2106.18;563.738;2.22
1634;2143.1;571.795;2.22
1635;2162.94;609.149;2.22
1636;2165.38;557.878;2.22
1637;2140.66;569.842;2.22
1638;2098.55;569.842;2.22
1639;2083.9;585.467;2.22
1640;2115.94;565.935;2.22
1641;2133.34;575.701;2.22
1642;2135.78;548.112;2.22
1643;2123.27;595.477;2.22
1644;2083.9;577.654;2.22
1645;2044.23;542.009;2.23
1646;2061.62;597.43;2.23
1647;2106.18;581.561;2.23
1648;2123.27;583.514;2.23
1649;2130.59;565.935;2.23
1650;2115.94;587.42;2.23
1651;2086.34;575.701;2.23
1652;2068.95;603.29;2.23
1653;2113.5;553.972;2.23
1654;2152.87;573.748;2.23
1655;2167.83;609.149;2.23
1656;2172.71;550.066;2.23
1657;2145.55;571.795;2.23
