<WeldAnalyseData xmlns:i="http:www.w3.org/2001/XMLSchema-instance">
<WeldParameter>
<TimeStamp>DT#2024-01-24-14:00:52</TimeStamp>
<Generator>SG-22-10000</Generator>
<GenFreq>20</GenFreq>
<MaxForce>8000</MaxForce>
<MaxPower>10000</MaxPower>
<RunupPressure>1.5</RunupPressure>
<RunupDist>10</RunupDist>
<RunPress>0.8</RunPress>
<ShakeDelay>0.03</ShakeDelay>
<ShakeTime>0.3</ShakeTime>
<RunBackPress1>6</RunBackPress1>
<RunBackPress2>2</RunBackPress2>
<RunBackDist>1</RunBackDist>
<TrigValue>500</TrigValue>
<TrigModeUnit>W</TrigModeUnit>
<WeldModeUnit>Ws</WeldModeUnit>
<PressNr>0</PressNr>
<MaxLoss>1500</MaxLoss>
</WeldParameter>
<WeldSets>
<WeldSet>
<PressRiseTime>0</PressRiseTime>
<RunPressure>1</RunPressure>
<Amplitude>86</Amplitude>
<WeldMode>3270</WeldMode>
</WeldSet>
</WeldSets>
<WeldValue>
<WeldNr>2957</WeldNr>
<RecipeName>RickStyle</RecipeName>
<WeldTime>1669</WeldTime>
<DistDiff>2.34</DistDiff>
<DistAbs>78.07</DistAbs>
<Energy>3272.1</Energy>
<MaxPower>2162.08</MaxPower>
<CycleTime>6000</CycleTime>
<TrigForce>504.654</TrigForce>
<TrigDist>75.73</TrigDist>
<RunSpeed>68.1638</RunSpeed>
<MaxForce>613.3</MaxForce>
<LossPower>326.701</LossPower>
</WeldValue>
</WeldAnalyseData>
#CSV-START#
ms;Power[W];Force[N];Distance[mm]
1;0;0;0
2;0;504.654;0
3;0;506.607;0.00999451
4;0;506.607;0.00999451
5;0;506.607;0.00999451
6;0;506.607;0.00999451
7;0;508.56;0.00999451
8;0;494.644;0.00999451
9;0;433.607;0.0199966
10;0;413.831;0.0399933
11;0;382.092;0.0799942
12;26.0933;360.363;0.109993
13;83.1629;340.831;0.149994
14;159.459;324.961;0.189995
15;238.502;314.951;0.239998
16;302.896;299.326;0.279999
17;362.102;285.409;0.329994
18;423.749;287.362;0.379997
19;482.955;303.232;0.419998
20;537.278;293.222;0.459999
21;598.926;299.326;0.5
22;675.527;324.961;0.529999
23;747.246;317.148;0.559998
24;816.218;323.008;0.589996
25;878.17;332.774;0.609993
26;934.934;346.69;0.629997
27;981.933;368.419;0.649994
28;1046.02;370.373;0.659996
29;1112.55;372.326;0.669998
30;1166.88;405.774;0.68
31;1211.43;401.868;0.68
32;1243.48;392.102;0.689995
33;1250.8;411.878;0.689995
34;1263.31;419.691;0.689995
35;1300.24;421.644;0.699997
36;1334.73;415.784;0.699997
37;1364.64;403.821;0.709999
38;1394.24;425.55;0.709999
39;1399.12;435.56;0.719994
40;1394.24;409.925;0.719994
41;1411.33;431.654;0.729996
42;1460.77;449.232;0.729996
43;1500.44;435.56;0.739998
44;1530.05;423.597;0.739998
45;1552.02;435.56;0.739998
46;1557.21;439.467;0.75
47;1562.09;461.196;0.759995
48;1601.46;439.467;0.759995
49;1660.66;435.56;0.769997
50;1700.34;465.102;0.769997
51;1732.38;437.513;0.779999
52;1742.15;429.456;0.789993
53;1732.38;443.373;0.789993
54;1722.62;455.336;0.799995
55;1759.54;445.326;0.809998
56;1798.91;445.326;0.809998
57;1823.63;429.456;0.82
58;1841.03;463.149;0.829994
59;1828.82;465.102;0.829994
60;1804.1;431.654;0.839996
61;1808.98;467.055;0.849998
62;1865.75;479.019;0.849998
63;1897.79;470.962;0.859993
64;1920.07;457.289;0.859993
65;1932.28;475.112;0.869995
66;1920.07;472.915;0.869995
67;1905.12;502.701;0.879997
68;1939.91;469.008;0.879997
69;2001.56;467.055;0.889999
70;2033.6;508.56;0.889999
71;2055.88;469.008;0.889999
72;2038.48;469.008;0.899994
73;2011.32;477.065;0.899994
74;2006.44;492.691;0.899994
75;2038.48;479.019;0.909996
76;2060.76;480.972;0.909996
77;2070.53;461.196;0.919998
78;2063.2;498.795;0.919998
79;2026.28;494.644;0.93
80;1989.04;461.196;0.93
81;2011.32;504.654;0.93
82;2055.88;506.607;0.939995
83;2075.72;500.748;0.939995
84;2087.92;484.878;0.949997
85;2075.72;508.56;0.949997
86;2051;498.795;0.949997
87;2036.04;524.43;0.959999
88;2085.48;490.738;0.959999
89;2127.6;492.691;0.969994
90;2149.57;534.196;0.969994
91;2157.2;488.784;0.969994
92;2132.48;494.644;0.979996
93;2092.81;496.597;0.979996
94;2080.6;518.326;0.979996
95;2112.64;496.597;0.989998
96;2130.04;506.607;0.989998
97;2134.92;482.925;1
98;2122.41;524.43;1
99;2083.04;526.383;1
100;2040.93;496.597;1.00999
101;2055.88;502.701;1.00999
102;2095.25;544.206;1.00999
103;2115.09;512.467;1.02
104;2119.97;506.607;1.02
105;2110.2;506.607;1.02
106;2075.72;516.373;1.03
107;2058.32;530.29;1.03
108;2102.88;522.477;1.03
109;2139.81;498.795;1.03999
110;2159.64;532.243;1.03999
111;2162.08;522.477;1.03999
112;2137.36;488.784;1.03999
113;2095.25;518.326;1.05
114;2078.16;522.477;1.05
115;2107.76;524.43;1.05
116;2124.85;514.42;1.06
117;2132.48;498.795;1.06
118;2117.53;518.326;1.06
119;2073.27;534.196;1.06
120;2033.6;502.701;1.07
121;2040.93;518.326;1.07
122;2085.48;550.066;1.07
123;2100.44;524.43;1.07
124;2107.76;514.42;1.07999
125;2092.81;518.326;1.07999
126;2063.2;528.336;1.07999
127;2043.37;546.159;1.07999
128;2087.92;530.29;1.09
129;2130.04;514.42;1.09
130;2147.13;550.066;1.09
131;2152.01;528.336;1.09
132;2124.85;506.607;1.1
133;2085.48;526.383;1.1
134;2065.65;536.149;1.1
135;2092.81;536.149;1.1
136;2107.76;524.43;1.10999
137;2115.09;504.654;1.10999
138;2100.44;532.243;1.10999
139;2060.76;542.009;1.10999
140;2013.76;508.56;1.12
141;2023.83;528.336;1.12
142;2065.65;553.972;1.12
143;2083.04;532.243;1.12
144;2085.48;520.524;1.13
145;2073.27;524.43;1.13
146;2046.11;534.196;1.13
147;2023.83;553.972;1.13
148;2063.2;532.243;1.13
149;2105.32;522.477;1.14
150;2124.85;557.878;1.14
151;2127.6;532.243;1.14
152;2105.32;516.373;1.14
153;2065.65;530.29;1.14
154;2046.11;544.206;1.14999
155;2070.53;540.056;1.14999
156;2087.92;526.383;1.14999
157;2090.37;508.56;1.14999
158;2078.16;542.009;1.14999
159;2040.93;544.206;1.16
160;1994.23;510.514;1.16
161;2001.56;540.056;1.16
162;2043.37;553.972;1.16
163;2060.76;540.056;1.16
164;2065.65;528.336;1.16
165;2055.88;536.149;1.17
166;2023.83;540.056;1.17
167;2001.56;561.785;1.17
168;2040.93;538.102;1.17
169;2083.04;530.29;1.17
170;2102.88;567.888;1.18
171;2105.32;534.196;1.18
172;2085.48;526.383;1.18
173;2046.11;536.149;1.18
174;2023.83;550.066;1.18
175;2051;540.056;1.18
176;2063.2;538.102;1.18999
177;2068.09;518.326;1.18999
178;2058.32;552.019;1.18999
179;2018.95;550.066;1.18999
180;1974.4;514.42;1.18999
181;1981.72;552.019;1.18999
182;2021.39;559.832;1.2
183;2040.93;550.066;1.2
184;2046.11;532.243;1.2
185;2036.04;550.066;1.2
186;2004;548.112;1.2
187;1981.72;569.842;1.21
188;2016.21;540.056;1.21
189;2060.76;538.102;1.21
190;2078.16;575.701;1.21
191;2083.04;536.149;1.21
192;2063.2;534.196;1.21
193;2026.28;540.056;1.21
194;2001.56;555.925;1.21999
195;2028.72;538.102;1.21999
196;2043.37;542.009;1.21999
197;2046.11;522.477;1.21999
198;2036.04;559.832;1.21999
199;1999.11;552.019;1.21999
200;1954.56;516.373;1.23
201;1959.44;561.785;1.23
202;1999.11;561.785;1.23
203;2016.21;553.972;1.23
204;2023.83;538.102;1.23
205;2016.21;559.832;1.23
206;1984.16;552.019;1.23
207;1964.63;577.654;1.24
208;1996.67;540.056;1.24
209;2040.93;544.206;1.24
210;2058.32;581.561;1.24
211;2065.65;536.149;1.24
212;2048.55;544.206;1.24
213;2004;542.009;1.25
214;1989.04;561.785;1.25
215;2013.76;555.925;1.25
216;2028.72;546.159;1.25
217;2031.16;526.383;1.25
218;2016.21;557.878;1.25
219;1974.4;561.785;1.25
220;1939.91;524.43;1.25999
221;1954.56;557.878;1.25999
222;1991.79;569.842;1.25999
223;2006.44;555.925;1.25999
224;2013.76;542.009;1.25999
225;2001.56;553.972;1.25999
226;1971.95;553.972;1.25999
227;1957;577.654;1.27
228;1999.11;550.066;1.27
229;2031.16;546.159;1.27
230;2048.55;581.561;1.27
231;2055.88;548.112;1.27
232;2031.16;540.056;1.27
233;1989.04;548.112;1.27
234;1979.28;563.738;1.28
235;2004;552.019;1.28
236;2016.21;552.019;1.28
237;2021.39;528.336;1.28
238;2008.88;561.785;1.28
239;1969.51;559.832;1.28
240;1927.4;528.336;1.28
241;1942.35;559.832;1.28999
242;1981.72;573.748;1.28999
243;1994.23;559.832;1.28999
244;2001.56;544.206;1.28999
245;1994.23;563.738;1.28999
246;1964.63;559.832;1.28999
247;1942.35;581.561;1.28999
248;1989.04;552.019;1.28999
249;2026.28;552.019;1.3
250;2046.11;589.618;1.3
251;2051;548.112;1.3
252;2028.72;546.159;1.3
253;1991.79;550.066;1.3
254;1971.95;569.842;1.3
255;1999.11;552.019;1.3
256;2016.21;557.878;1.31
257;2016.21;532.243;1.31
258;2008.88;569.842;1.31
259;1969.51;565.935;1.31
260;1927.4;530.29;1.31
261;1937.47;571.795;1.31
262;1976.84;571.795;1.31
263;1989.04;563.738;1.31
264;1999.11;550.066;1.32
265;1986.6;569.842;1.32
266;1959.44;563.738;1.32
267;1939.91;587.42;1.32
268;1976.84;553.972;1.32
269;2018.95;553.972;1.32
270;2036.04;593.524;1.32
271;2043.37;546.159;1.32
272;2021.39;552.019;1.32
273;1986.6;561.785;1.32999
274;1964.63;567.888;1.32999
275;1991.79;569.842;1.32999
276;2006.44;557.878;1.32999
277;2011.32;546.159;1.32999
278;1999.11;559.832;1.32999
279;1961.88;581.561;1.32999
280;1922.51;550.066;1.32999
281;1927.4;555.925;1.34
282;1964.63;597.43;1.34
283;1984.16;563.738;1.34
284;1991.79;557.878;1.34
285;1981.72;557.878;1.34
286;1954.56;569.842;1.34
287;1937.47;583.514;1.34
288;1976.84;571.795;1.34
289;2013.76;553.972;1.35
290;2033.6;583.514;1.35
291;2040.93;575.701;1.35
292;2018.95;540.056;1.35
293;1984.16;567.888;1.35
294;1967.07;573.748;1.35
295;1989.04;575.701;1.35
296;2006.44;563.738;1.35
297;2008.88;548.112;1.35
298;1996.67;569.842;1.35999
299;1961.88;583.514;1.35999
300;1920.07;552.019;1.35999
301;1927.4;565.935;1.35999
302;1964.63;593.524;1.35999
303;1981.72;571.795;1.35999
304;1991.79;561.785;1.35999
305;1981.72;561.785;1.35999
306;1952.12;575.701;1.37
307;1929.84;591.571;1.37
308;1969.51;573.748;1.37
309;2011.32;559.832;1.37
310;2028.72;593.524;1.37
311;2033.6;577.654;1.37
312;2013.76;550.066;1.37
313;1976.84;569.842;1.37
314;1957;579.608;1.37
315;1981.72;581.561;1.38
316;1999.11;567.888;1.38
317;2001.56;552.019;1.38
318;1991.79;575.701;1.38
319;1957;583.514;1.38
320;1917.63;552.019;1.38
321;1917.63;571.795;1.38
322;1957;595.477;1.38
323;1974.4;575.701;1.39
324;1981.72;565.935;1.39
325;1974.4;571.795;1.39
326;1947.23;577.654;1.39
327;1924.95;599.384;1.39
328;1961.88;577.654;1.39
329;2004;565.935;1.39
330;2021.39;603.29;1.39
331;2028.72;573.748;1.39
332;2011.32;557.878;1.39
333;1974.4;571.795;1.39999
334;1954.56;585.467;1.39999
335;1979.28;581.561;1.39999
336;1991.79;573.748;1.39999
337;1996.67;553.972;1.39999
338;1989.04;583.514;1.39999
339;1954.56;585.467;1.39999
340;1912.75;552.019;1.39999
341;1917.63;581.561;1.39999
342;1957;597.43;1.41
343;1974.4;581.561;1.41
344;1984.16;567.888;1.41
345;1974.4;579.608;1.41
346;1949.67;581.561;1.41
347;1924.95;603.29;1.41
348;1961.88;575.701;1.41
349;2004;569.842;1.41
350;2023.83;607.196;1.41
351;2028.72;573.748;1.42
352;2008.88;565.935;1.42
353;1976.84;573.748;1.42
354;1954.56;587.42;1.42
355;1974.4;579.608;1.42
356;1991.79;577.654;1.42
357;1994.23;555.925;1.42
358;1989.04;589.618;1.42
359;1954.56;587.42;1.42
360;1915.19;552.019;1.42
361;1917.63;589.618;1.43
362;1957;595.477;1.43
363;1974.4;587.42;1.43
364;1981.72;569.842;1.43
365;1976.84;591.571;1.43
366;1949.67;583.514;1.43
367;1922.51;607.196;1.43
368;1957;573.748;1.43
369;1999.11;573.748;1.43
370;2021.39;611.347;1.43
371;2028.72;571.795;1.43999
372;2011.32;569.842;1.43999
373;1979.28;575.701;1.43999
374;1957;591.571;1.43999
375;1976.84;575.701;1.43999
376;1994.23;579.608;1.43999
377;1994.23;553.972;1.43999
378;1986.6;593.524;1.43999
379;1954.56;589.618;1.43999
380;1910.31;550.066;1.43999
381;1910.31;593.524;1.43999
382;1949.67;593.524;1.45
383;1969.51;589.618;1.45
384;1976.84;571.795;1.45
385;1971.95;593.524;1.45
386;1947.23;581.561;1.45
387;1924.95;607.196;1.45
388;1954.56;571.795;1.45
389;1999.11;565.935;1.45
390;2016.21;595.477;1.45
391;2028.72;593.524;1.45
392;2008.88;553.972;1.46
393;1974.4;579.608;1.46
394;1952.12;587.42;1.46
395;1971.95;589.618;1.46
396;1994.23;575.701;1.46
397;1994.23;563.738;1.46
398;1989.04;577.654;1.46
399;1957;595.477;1.46
400;1915.19;567.888;1.46
401;1910.31;575.701;1.46
402;1949.67;611.347;1.46
403;1969.51;581.561;1.46999
404;1976.84;573.748;1.46999
405;1971.95;575.701;1.46999
406;1942.35;585.467;1.46999
407;1920.07;601.337;1.46999
408;1952.12;587.42;1.46999
409;1994.23;569.842;1.46999
410;2016.21;599.384;1.46999
411;2026.28;587.42;1.46999
412;2013.76;557.878;1.46999
413;1976.84;579.608;1.46999
414;1952.12;587.42;1.46999
415;1971.95;591.571;1.48
416;1989.04;575.701;1.48
417;1991.79;561.785;1.48
418;1981.72;581.561;1.48
419;1949.67;595.477;1.48
420;1910.31;559.832;1.48
421;1905.12;579.608;1.48
422;1947.23;605.243;1.48
423;1964.63;581.561;1.48
424;1974.4;575.701;1.48
425;1969.51;575.701;1.48
426;1944.79;585.467;1.49
427;1920.07;605.243;1.49
428;1947.23;583.514;1.49
429;1991.79;569.842;1.49
430;2011.32;603.29;1.49
431;2023.83;583.514;1.49
432;2008.88;561.785;1.49
433;1974.4;577.654;1.49
434;1949.67;589.618;1.49
435;1967.07;589.618;1.49
436;1984.16;577.654;1.49
437;1991.79;559.832;1.49
438;1984.16;585.467;1.5
439;1954.56;593.524;1.5
440;1910.31;559.832;1.5
441;1905.12;583.514;1.5
442;1942.35;601.337;1.5
443;1964.63;583.514;1.5
444;1971.95;571.795;1.5
445;1969.51;579.608;1.5
446;1944.79;585.467;1.5
447;1920.07;605.243;1.5
448;1944.79;581.561;1.5
449;1989.04;571.795;1.5
450;2013.76;607.196;1.50999
451;2023.83;577.654;1.50999
452;2008.88;563.738;1.50999
453;1976.84;575.701;1.50999
454;1947.23;589.618;1.50999
455;1967.07;585.467;1.50999
456;1984.16;575.701;1.50999
457;1991.79;555.925;1.50999
458;1984.16;589.618;1.50999
459;1949.67;591.571;1.50999
460;1910.31;555.925;1.50999
461;1905.12;587.42;1.50999
462;1944.79;599.384;1.50999
463;1961.88;585.467;1.52
464;1969.51;569.842;1.52
465;1971.95;585.467;1.52
466;1944.79;585.467;1.52
467;1920.07;607.196;1.52
468;1942.35;575.701;1.52
469;1986.6;571.795;1.52
470;2008.88;611.347;1.52
471;2023.83;575.701;1.52
472;2008.88;567.888;1.52
473;1974.4;575.701;1.52
474;1949.67;591.571;1.52
475;1964.63;579.608;1.53
476;1986.6;577.654;1.53
477;1994.23;557.878;1.53
478;1986.6;589.618;1.53
479;1961.88;589.618;1.53
480;1917.63;553.972;1.53
481;1907.56;591.571;1.53
482;1947.23;597.43;1.53
483;1967.07;585.467;1.53
484;1976.84;569.842;1.53
485;1974.4;589.618;1.53
486;1954.56;585.467;1.53
487;1927.4;607.196;1.53999
488;1947.23;573.748;1.53999
489;1994.23;575.701;1.53999
490;2011.32;609.149;1.53999
491;2028.72;569.842;1.53999
492;2016.21;571.795;1.53999
493;1981.72;575.701;1.53999
494;1952.12;593.524;1.53999
495;1979.28;575.701;1.53999
496;1989.04;579.608;1.53999
497;1994.23;553.972;1.53999
498;1979.28;595.477;1.53999
499;1942.35;587.42;1.53999
500;1902.68;550.066;1.55
501;1915.19;597.43;1.55
502;1954.56;593.524;1.55
503;1969.51;587.42;1.55
504;1976.84;571.795;1.55
505;1969.51;577.654;1.55
506;1939.91;585.467;1.55
507;1922.51;603.29;1.55
508;1964.63;581.561;1.55
509;2001.56;571.795;1.55
510;2018.95;607.196;1.55
511;2023.83;577.654;1.55
512;2001.56;567.888;1.55
513;1967.07;577.654;1.56
514;1952.12;591.571;1.56
515;1974.4;583.514;1.56
516;1989.04;577.654;1.56
517;1991.79;553.972;1.56
518;1979.28;587.42;1.56
519;1942.35;589.618;1.56
520;1905.12;555.925;1.56
521;1917.63;585.467;1.56
522;1952.12;601.337;1.56
523;1969.51;585.467;1.56
524;1974.4;573.748;1.56
525;1967.07;587.42;1.56
526;1939.91;583.514;1.57
527;1920.07;607.196;1.57
528;1964.63;579.608;1.57
529;2001.56;571.795;1.57
530;2018.95;611.347;1.57
531;2026.28;577.654;1.57
532;2001.56;571.795;1.57
533;1967.07;575.701;1.57
534;1952.12;591.571;1.57
535;1976.84;581.561;1.57
536;1989.04;579.608;1.57
537;1994.23;555.925;1.57
538;1984.16;593.524;1.57
539;1944.79;589.618;1.57999
540;1905.12;553.972;1.57999
541;1915.19;593.524;1.57999
542;1954.56;597.43;1.57999
543;1971.95;589.618;1.57999
544;1981.72;573.748;1.57999
545;1971.95;593.524;1.57999
546;1944.79;585.467;1.57999
547;1924.95;609.149;1.57999
548;1961.88;577.654;1.57999
549;2001.56;577.654;1.57999
550;2018.95;611.347;1.57999
551;2026.28;571.795;1.57999
552;2004;573.748;1.59
553;1969.51;575.701;1.59
554;1949.67;593.524;1.59
555;1976.84;575.701;1.59
556;1989.04;579.608;1.59
557;1994.23;557.878;1.59
558;1981.72;595.477;1.59
559;1947.23;587.42;1.59
560;1905.12;552.019;1.59
561;1915.19;595.477;1.59
562;1954.56;613.3;1.59
563;1967.07;583.514;1.59
564;1979.28;575.701;1.59
565;1969.51;575.701;1.6
566;1942.35;589.618;1.6
567;1922.51;597.43;1.6
568;1959.44;591.571;1.6
569;1999.11;565.935;1.6
570;2016.21;597.43;1.6
571;2023.83;591.571;1.6
572;2001.56;555.925;1.6
573;1967.07;579.608;1.6
574;1949.67;589.618;1.6
575;1971.95;591.571;1.6
576;1986.6;577.654;1.6
577;1994.23;561.785;1.6
578;1984.16;579.608;1.6
579;1947.23;597.43;1.60999
580;1905.12;565.935;1.60999
581;1912.75;575.701;1.60999
582;1949.67;611.347;1.60999
583;1967.07;585.467;1.60999
584;1971.95;573.748;1.60999
585;1969.51;575.701;1.60999
586;1939.91;583.514;1.60999
587;1917.63;599.384;1.60999
588;1957;587.42;1.60999
589;1996.67;567.888;1.60999
590;2013.76;601.337;1.60999
591;2021.39;587.42;1.60999
592;2001.56;557.878;1.60999
593;1967.07;579.608;1.62
594;1947.23;589.618;1.62
595;1971.95;591.571;1.62
596;1984.16;577.654;1.62
597;1991.79;559.832;1.62
598;1981.72;581.561;1.62
599;1947.23;595.477;1.62
600;1907.56;559.832;1.62
601;1907.56;579.608;1.62
602;1949.67;605.243;1.62
603;1964.63;581.561;1.62
604;1974.4;571.795;1.62
605;1967.07;575.701;1.62
606;1942.35;585.467;1.62
607;1915.19;605.243;1.63
608;1952.12;583.514;1.63
609;1996.67;569.842;1.63
610;2013.76;605.243;1.63
611;2023.83;581.561;1.63
612;2004;561.785;1.63
613;1974.4;579.608;1.63
614;1949.67;589.618;1.63
615;1971.95;591.571;1.63
616;1986.6;577.654;1.63
617;1989.04;557.878;1.63
618;1981.72;583.514;1.63
619;1949.67;593.524;1.63
620;1907.56;557.878;1.63
621;1907.56;583.514;1.64
622;1949.67;601.337;1.64
623;1969.51;581.561;1.64
624;1976.84;571.795;1.64
625;1971.95;577.654;1.64
626;1944.79;585.467;1.64
627;1922.51;605.243;1.64
628;1957;579.608;1.64
629;1996.67;571.795;1.64
630;2018.95;607.196;1.64
631;2026.28;581.561;1.64
632;2011.32;565.935;1.64
633;1974.4;575.701;1.64
634;1954.56;587.42;1.64
635;1974.4;583.514;1.64
636;1991.79;573.748;1.64999
637;1996.67;555.925;1.64999
638;1984.16;585.467;1.64999
639;1952.12;587.42;1.64999
640;1910.31;553.972;1.64999
641;1912.75;585.467;1.64999
642;1952.12;597.43;1.64999
643;1967.07;585.467;1.64999
644;1976.84;569.842;1.64999
645;1974.4;583.514;1.64999
646;1944.79;583.514;1.64999
647;1922.51;603.29;1.64999
648;1952.12;577.654;1.64999
649;1991.79;571.795;1.64999
650;2013.76;607.196;1.64999
651;2023.83;573.748;1.66
652;2008.88;567.888;1.66
653;1971.95;573.748;1.66
654;1947.23;587.42;1.66
655;1969.51;575.701;1.66
656;1984.16;575.701;1.66
657;1991.79;553.972;1.66
658;1984.16;589.618;1.66
659;1949.67;585.467;1.66
660;1907.56;550.066;1.66
661;1907.56;591.571;1.66
662;1949.67;593.524;1.66
663;1967.07;583.514;1.66
664;1974.4;569.842;1.66
665;1969.51;587.42;1.66
666;1947.23;581.561;1.67
667;1922.51;607.196;1.67
668;1952.12;571.795;1.67
669;1996.67;571.795;1.67
670;2016.21;611.347;1.67
671;2023.83;569.842;1.67
672;2008.88;569.842;1.67
673;1976.84;571.795;1.67
674;1952.12;589.618;1.67
675;1971.95;569.842;1.67
676;1991.79;575.701;1.67
677;1996.67;553.972;1.67
678;1989.04;571.795;1.67
679;1954.56;597.43;1.67
680;1912.75;565.935;1.67
681;1910.31;567.888;1.68
682;1952.12;609.149;1.68
683;1969.51;579.608;1.68
684;1979.28;571.795;1.68
685;1976.84;571.795;1.68
686;1952.12;583.514;1.68
687;1924.95;595.477;1.68
688;1954.56;589.618;1.68
689;1996.67;563.738;1.68
690;2013.76;593.524;1.68
691;2026.28;587.42;1.68
692;2011.32;553.972;1.68
693;1976.84;575.701;1.68
694;1949.67;583.514;1.68
695;1971.95;583.514;1.68
696;1989.04;573.748;1.68999
697;1991.79;561.785;1.68999
698;1989.04;575.701;1.68999
699;1957;595.477;1.68999
700;1915.19;563.738;1.68999
701;1907.56;571.795;1.68999
702;1947.23;607.196;1.68999
703;1967.07;579.608;1.68999
704;1974.4;571.795;1.68999
705;1971.95;573.748;1.68999
706;1947.23;583.514;1.68999
707;1920.07;595.477;1.68999
708;1947.23;583.514;1.68999
709;1989.04;565.935;1.68999
710;2011.32;595.477;1.68999
711;2023.83;585.467;1.7
712;2011.32;555.925;1.7
713;1974.4;577.654;1.7
714;1949.67;583.514;1.7
715;1967.07;585.467;1.7
716;1986.6;573.748;1.7
717;1991.79;555.925;1.7
718;1986.6;581.561;1.7
719;1954.56;591.571;1.7
720;1915.19;557.878;1.7
721;1907.56;577.654;1.7
722;1947.23;601.337;1.7
723;1967.07;581.561;1.7
724;1974.4;571.795;1.7
725;1969.51;569.842;1.7
726;1947.23;581.561;1.71
727;1922.51;597.43;1.71
728;1947.23;579.608;1.71
729;1994.23;565.935;1.71
730;2016.21;601.337;1.71
731;2023.83;577.654;1.71
732;2011.32;559.832;1.71
733;1976.84;577.654;1.71
734;1949.67;585.467;1.71
735;1969.51;585.467;1.71
736;1989.04;573.748;1.71
737;1994.23;553.972;1.71
738;1989.04;581.561;1.71
739;1957;587.42;1.71
740;1915.19;552.019;1.71999
741;1907.56;581.561;1.71999
742;1947.23;597.43;1.71999
743;1967.07;581.561;1.71999
744;1976.84;565.935;1.71999
745;1974.4;575.701;1.71999
746;1949.67;579.608;1.71999
747;1924.95;601.337;1.71999
748;1944.79;575.701;1.71999
749;1994.23;569.842;1.71999
750;2013.76;601.337;1.71999
751;2023.83;575.701;1.71999
752;2011.32;561.785;1.71999
753;1979.28;575.701;1.71999
754;1949.67;587.42;1.71999
755;1967.07;579.608;1.71999
756;1986.6;573.748;1.73
757;1994.23;552.019;1.73
758;1986.6;583.514;1.73
759;1957;585.467;1.73
760;1915.19;550.066;1.73
761;1905.12;585.467;1.73
762;1944.79;595.477;1.73
763;1964.63;581.561;1.73
764;1976.84;567.888;1.73
765;1974.4;581.561;1.73
766;1949.67;579.608;1.73
767;1922.51;603.29;1.73
768;1942.35;575.701;1.73
769;1991.79;571.795;1.73
770;2008.88;607.196;1.74
771;2021.39;569.842;1.74
772;1999.11;563.738;1.74
773;1961.88;571.795;1.74
774;1947.23;587.42;1.74
775;1976.84;573.748;1.74
776;1986.6;573.748;1.74
777;1989.04;550.066;1.74
778;1976.84;587.42;1.74
779;1944.79;583.514;1.74
780;1905.12;548.112;1.74
781;1920.07;589.618;1.74
782;1957;591.571;1.74
783;1971.95;581.561;1.74
784;1979.28;567.888;1.74
785;1969.51;587.42;1.75
786;1942.35;577.654;1.75
787;1924.95;601.337;1.75
788;1967.07;569.842;1.75
789;2004;571.795;1.75
790;2021.39;607.196;1.75
791;2026.28;565.935;1.75
792;2006.44;569.842;1.75
793;1969.51;569.842;1.75
794;1954.56;585.467;1.75
795;1981.72;585.467;1.75
796;1994.23;573.748;1.75
797;1994.23;552.019;1.75
798;1984.16;579.608;1.75
799;1947.23;587.42;1.75
800;1907.56;550.066;1.75999
801;1920.07;581.561;1.75999
802;1957;595.477;1.75999
803;1971.95;579.608;1.75999
804;1976.84;565.935;1.75999
805;1967.07;577.654;1.75999
806;1939.91;577.654;1.75999
807;1922.51;601.337;1.75999
808;1961.88;575.701;1.75999
809;2001.56;567.888;1.75999
810;2016.21;601.337;1.75999
811;2023.83;571.795;1.75999
812;2004;561.785;1.75999
813;1969.51;573.748;1.75999
814;1952.12;583.514;1.75999
815;1976.84;577.654;1.77
816;1991.79;573.748;1.77
817;1994.23;552.019;1.77
818;1981.72;585.467;1.77
819;1947.23;587.42;1.77
820;1907.56;548.112;1.77
821;1920.07;585.467;1.77
822;1954.56;593.524;1.77
823;1971.95;581.561;1.77
824;1981.72;563.738;1.77
825;1971.95;581.561;1.77
826;1944.79;579.608;1.77
827;1924.95;599.384;1.77
828;1964.63;571.795;1.77
829;2001.56;569.842;1.78
830;2018.95;605.243;1.78
831;2026.28;567.888;1.78
832;2004;563.738;1.78
833;1967.07;569.842;1.78
834;1949.67;587.42;1.78
835;1974.4;571.795;1.78
836;1989.04;573.748;1.78
837;1994.23;550.066;1.78
838;1981.72;589.618;1.78
839;1947.23;583.514;1.78
840;1907.56;548.112;1.78
841;1912.75;587.42;1.78
842;1952.12;587.42;1.78
843;1967.07;579.608;1.78
844;1971.95;565.935;1.78999
845;1964.63;585.467;1.78999
846;1937.47;577.654;1.78999
847;1917.63;605.243;1.78999
848;1954.56;569.842;1.78999
849;1996.67;571.795;1.78999
850;2018.95;607.196;1.78999
851;2023.83;561.785;1.78999
852;2006.44;548.112;1.78999
853;1969.51;575.701;1.78999
854;1954.56;581.561;1.78999
855;1974.4;585.467;1.78999
856;1991.79;571.795;1.78999
857;1991.79;559.832;1.78999
858;1986.6;571.795;1.78999
859;1952.12;593.524;1.8
860;1910.31;563.738;1.8
861;1920.07;567.888;1.8
862;1954.56;607.196;1.8
863;1974.4;577.654;1.8
864;1981.72;571.795;1.8
865;1969.51;569.842;1.8
866;1942.35;579.608;1.8
867;1922.51;591.571;1.8
868;1959.44;583.514;1.8
869;1999.11;559.832;1.8
870;2016.21;591.571;1.8
871;2023.83;585.467;1.8
872;2006.44;550.066;1.8
873;1971.95;575.701;1.8
874;1952.12;581.561;1.81
875;1971.95;583.514;1.81
876;1991.79;569.842;1.81
877;1994.23;555.925;1.81
878;1984.16;573.748;1.81
879;1949.67;591.571;1.81
880;1910.31;561.785;1.81
881;1912.75;569.842;1.81
882;1949.67;603.29;1.81
883;1967.07;575.701;1.81
884;1974.4;567.888;1.81
885;1967.07;569.842;1.81
886;1942.35;581.561;1.81
887;1920.07;593.524;1.81
888;1954.56;581.561;1.81
889;1994.23;561.785;1.82
890;2013.76;595.477;1.82
891;2023.83;579.608;1.82
892;2008.88;553.972;1.82
893;1971.95;575.701;1.82
894;1949.67;583.514;1.82
895;1974.4;581.561;1.82
896;1989.04;569.842;1.82
897;1994.23;553.972;1.82
898;1986.6;579.608;1.82
899;1949.67;587.42;1.82
900;1910.31;553.972;1.82
901;1910.31;575.701;1.82
902;1952.12;599.384;1.82
903;1967.07;575.701;1.82
904;1976.84;569.842;1.82
905;1969.51;571.795;1.82999
906;1944.79;577.654;1.82999
907;1920.07;595.477;1.82999
908;1954.56;577.654;1.82999
909;1996.67;565.935;1.82999
910;2016.21;599.384;1.82999
911;2026.28;575.701;1.82999
912;2008.88;553.972;1.82999
913;1976.84;575.701;1.82999
914;1952.12;583.514;1.82999
915;1976.84;579.608;1.82999
916;1989.04;571.795;1.82999
917;1994.23;552.019;1.82999
918;1981.72;579.608;1.82999
919;1944.79;583.514;1.82999
920;1905.12;548.112;1.84
921;1917.63;577.654;1.84
922;1957;595.477;1.84
923;1967.07;577.654;1.84
924;1976.84;561.785;1.84
925;1969.51;577.654;1.84
926;1942.35;577.654;1.84
927;1922.51;599.384;1.84
928;1967.07;571.795;1.84
929;2004;567.888;1.84
930;2018.95;601.337;1.84
931;2023.83;571.795;1.84
932;2004;561.785;1.84
933;1967.07;573.748;1.84
934;1954.56;585.467;1.84
935;1981.72;577.654;1.84
936;1991.79;569.842;1.85
937;1996.67;550.066;1.85
938;1984.16;583.514;1.85
939;1947.23;583.514;1.85
940;1907.56;548.112;1.85
941;1920.07;583.514;1.85
942;1954.56;591.571;1.85
943;1969.51;581.561;1.85
944;1976.84;563.738;1.85
945;1969.51;579.608;1.85
946;1944.79;579.608;1.85
947;1924.95;601.337;1.85
948;1964.63;569.842;1.85
949;2001.56;569.842;1.85
950;2018.95;607.196;1.85
951;2026.28;565.935;1.85999
952;2006.44;563.738;1.85999
953;1969.51;569.842;1.85999
954;1949.67;585.467;1.85999
955;1979.28;571.795;1.85999
956;1994.23;571.795;1.85999
957;1996.67;550.066;1.85999
958;1986.6;587.42;1.85999
959;1949.67;583.514;1.85999
960;1912.75;546.159;1.85999
961;1922.51;589.618;1.85999
962;1957;587.42;1.85999
963;1971.95;581.561;1.85999
964;1979.28;563.738;1.85999
965;1969.51;583.514;1.85999
966;1939.91;577.654;1.85999
967;1922.51;601.337;1.87
968;1961.88;569.842;1.87
969;2001.56;557.878;1.87
970;2018.95;587.42;1.87
971;2026.28;587.42;1.87
972;2006.44;546.159;1.87
973;1969.51;571.795;1.87
974;1954.56;577.654;1.87
975;1976.84;581.561;1.87
976;1991.79;571.795;1.87
977;1996.67;557.878;1.87
978;1984.16;567.888;1.87
979;1949.67;591.571;1.87
980;1907.56;563.738;1.87
981;1915.19;565.935;1.87
982;1954.56;607.196;1.88
983;1969.51;573.748;1.88
984;1976.84;569.842;1.88
985;1969.51;567.888;1.88
986;1939.91;579.608;1.88
987;1922.51;589.618;1.88
988;1959.44;585.467;1.88
989;1996.67;559.832;1.88
990;2016.21;591.571;1.88
991;2023.83;581.561;1.88
992;2004;550.066;1.88
993;1967.07;575.701;1.88
994;1949.67;581.561;1.88
995;1976.84;581.561;1.88
996;1991.79;571.795;1.88
997;1994.23;557.878;1.88
998;1989.04;571.795;1.88
999;1949.67;589.618;1.89
1000;1912.75;559.832;1.89
1001;1917.63;569.842;1.89
1002;1954.56;603.29;1.89
1003;1974.4;575.701;1.89
1004;1981.72;565.935;1.89
1005;1971.95;569.842;1.89
1006;1944.79;581.561;1.89
1007;1924.95;591.571;1.89
1008;1961.88;579.608;1.89
1009;2001.56;561.785;1.89
1010;2018.95;593.524;1.89
1011;2026.28;579.608;1.89
1012;2011.32;553.972;1.89
1013;1974.4;573.748;1.89
1014;1954.56;583.514;1.89
1015;1974.4;583.514;1.89
1016;1991.79;573.748;1.89999
1017;1996.67;555.925;1.89999
1018;1986.6;577.654;1.89999
1019;1952.12;585.467;1.89999
1020;1907.56;553.972;1.89999
1021;1915.19;573.748;1.89999
1022;1954.56;597.43;1.89999
1023;1974.4;575.701;1.89999
1024;1979.28;565.935;1.89999
1025;1971.95;569.842;1.89999
1026;1947.23;577.654;1.89999
1027;1924.95;595.477;1.89999
1028;1957;577.654;1.89999
1029;1999.11;565.935;1.89999
1030;2018.95;601.337;1.89999
1031;2023.83;573.748;1.89999
1032;2006.44;557.878;1.89999
1033;1971.95;571.795;1.91
1034;1952.12;585.467;1.91
1035;1974.4;581.561;1.91
1036;1991.79;573.748;1.91
1037;1994.23;552.019;1.91
1038;1986.6;579.608;1.91
1039;1954.56;583.514;1.91
1040;1910.31;550.066;1.91
1041;1912.75;577.654;1.91
1042;1952.12;593.524;1.91
1043;1969.51;575.701;1.91
1044;1976.84;565.935;1.91
1045;1974.4;575.701;1.91
1046;1944.79;577.654;1.91
1047;1922.51;601.337;1.91
1048;1957;571.795;1.91
1049;1999.11;565.935;1.92
1050;2018.95;603.29;1.92
1051;2026.28;571.795;1.92
1052;2011.32;561.785;1.92
1053;1979.28;569.842;1.92
1054;1957;583.514;1.92
1055;1979.28;571.795;1.92
1056;1994.23;569.842;1.92
1057;1999.11;550.066;1.92
1058;1991.79;583.514;1.92
1059;1957;581.561;1.92
1060;1915.19;546.159;1.92
1061;1917.63;581.561;1.92
1062;1954.56;591.571;1.92
1063;1974.4;579.608;1.92
1064;1981.72;565.935;1.92
1065;1976.84;579.608;1.92
1066;1954.56;577.654;1.93
1067;1927.4;601.337;1.93
1068;1959.44;567.888;1.93
1069;2001.56;569.842;1.93
1070;2021.39;605.243;1.93
1071;2031.16;563.738;1.93
1072;2013.76;563.738;1.93
1073;1976.84;567.888;1.93
1074;1954.56;585.467;1.93
1075;1976.84;567.888;1.93
1076;1996.67;571.795;1.93
1077;2001.56;550.066;1.93
1078;1991.79;587.42;1.93
1079;1961.88;579.608;1.93
1080;1917.63;546.159;1.93
1081;1915.19;585.467;1.93
1082;1954.56;585.467;1.93999
1083;1974.4;581.561;1.93999
1084;1979.28;561.785;1.93999
1085;1976.84;587.42;1.93999
1086;1952.12;577.654;1.93999
1087;1924.95;597.43;1.93999
1088;1954.56;575.701;1.93999
1089;2001.56;565.935;1.93999
1090;2021.39;597.43;1.93999
1091;2031.16;575.701;1.93999
1092;2013.76;557.878;1.93999
1093;1981.72;573.748;1.93999
1094;1957;581.561;1.93999
1095;1976.84;579.608;1.93999
1096;1996.67;569.842;1.93999
1097;2004;550.066;1.93999
1098;1994.23;579.608;1.95
1099;1961.88;583.514;1.95
1100;1920.07;550.066;1.95
1101;1915.19;577.654;1.95
1102;1954.56;593.524;1.95
1103;1974.4;577.654;1.95
1104;1984.16;563.738;1.95
1105;1979.28;573.748;1.95
1106;1954.56;577.654;1.95
1107;1929.84;601.337;1.95
1108;1957;571.795;1.95
1109;2004;565.935;1.95
1110;2021.39;603.29;1.95
1111;2031.16;569.842;1.95
1112;2016.21;559.832;1.95
1113;1981.72;571.795;1.95
1114;1957;585.467;1.96
1115;1974.4;573.748;1.96
1116;1991.79;569.842;1.96
1117;1999.11;550.066;1.96
1118;1994.23;583.514;1.96
1119;1964.63;583.514;1.96
1120;1922.51;548.112;1.96
1121;1915.19;581.561;1.96
1122;1957;591.571;1.96
1123;1976.84;579.608;1.96
1124;1984.16;561.785;1.96
1125;1979.28;581.561;1.96
1126;1957;577.654;1.96
1127;1932.28;599.384;1.96
1128;1957;569.842;1.96
1129;2004;569.842;1.96
1130;2026.28;605.243;1.96999
1131;2033.6;565.935;1.96999
1132;2018.95;561.785;1.96999
1133;1986.6;569.842;1.96999
1134;1959.44;583.514;1.96999
1135;1979.28;569.842;1.96999
1136;1999.11;571.795;1.96999
1137;2004;548.112;1.96999
1138;2001.56;587.42;1.96999
1139;1969.51;583.514;1.96999
1140;1927.4;544.206;1.96999
1141;1920.07;589.618;1.96999
1142;1961.88;587.42;1.96999
1143;1976.84;581.561;1.96999
1144;1991.79;567.888;1.96999
1145;1986.6;567.888;1.96999
1146;1961.88;579.608;1.98
1147;1934.72;589.618;1.98
1148;1961.88;585.467;1.98
1149;2008.88;555.925;1.98
1150;2028.72;587.42;1.98
1151;2040.93;589.618;1.98
1152;2026.28;546.159;1.98
1153;1994.23;573.748;1.98
1154;1967.07;581.561;1.98
1155;1984.16;581.561;1.98
1156;2004;567.888;1.98
1157;2008.88;557.878;1.98
1158;2004;569.842;1.98
1159;1974.4;591.571;1.98
1160;1932.28;561.785;1.98
1161;1922.51;563.738;1.99
1162;1961.88;605.243;1.99
1163;1984.16;575.701;1.99
1164;1991.79;569.842;1.99
1165;1989.04;571.795;1.99
1166;1969.51;579.608;1.99
1167;1939.91;593.524;1.99
1168;1964.63;579.608;1.99
1169;2008.88;561.785;1.99
1170;2031.16;593.524;1.99
1171;2040.93;581.561;1.99
1172;2028.72;548.112;1.99
1173;1999.11;573.748;1.99
1174;1969.51;579.608;1.99
1175;1984.16;581.561;1.99
1176;2004;567.888;1.99
1177;2008.88;555.925;2
1178;2006.44;571.795;2
1179;1976.84;587.42;2
1180;1932.28;553.972;2
1181;1922.51;571.795;2
1182;1961.88;601.337;2
1183;1984.16;573.748;2
1184;1994.23;563.738;2
1185;1991.79;567.888;2
1186;1969.51;579.608;2
1187;1942.35;595.477;2
1188;1961.88;575.701;2
1189;2008.88;563.738;2
1190;2028.72;593.524;2
1191;2040.93;579.608;2.00999
1192;2028.72;552.019;2.00999
1193;1996.67;573.748;2.00999
1194;1969.51;581.561;2.00999
1195;1981.72;583.514;2.00999
1196;2004;569.842;2.00999
1197;2008.88;553.972;2.00999
1198;2008.88;577.654;2.00999
1199;1976.84;585.467;2.00999
1200;1934.72;550.066;2.00999
1201;1922.51;573.748;2.00999
1202;1961.88;599.384;2.00999
1203;1986.6;577.654;2.00999
1204;1994.23;563.738;2.00999
1205;1986.6;571.795;2.00999
1206;1957;577.654;2.00999
1207;1937.47;599.384;2.02
1208;1981.72;573.748;2.02
1209;2018.95;561.785;2.02
1210;2033.6;601.337;2.02
1211;2040.93;573.748;2.02
1212;2018.95;555.925;2.02
1213;1984.16;571.795;2.02
1214;1969.51;583.514;2.02
1215;1994.23;579.608;2.02
1216;2008.88;569.842;2.02
1217;2011.32;550.066;2.02
1218;1999.11;579.608;2.02
1219;1961.88;585.467;2.02
1220;1922.51;546.159;2.02
1221;1934.72;577.654;2.02
1222;1974.4;593.524;2.03
1223;1989.04;577.654;2.03
1224;1996.67;565.935;2.03
1225;1984.16;573.748;2.03
1226;1959.44;577.654;2.03
1227;1939.91;599.384;2.03
1228;1981.72;573.748;2.03
1229;2021.39;565.935;2.03
1230;2038.48;601.337;2.03
1231;2043.37;571.795;2.03
1232;2023.83;559.832;2.03
1233;1986.6;569.842;2.03
1234;1971.95;583.514;2.03
1235;1999.11;573.748;2.03
1236;2013.76;569.842;2.03
1237;2016.21;548.112;2.03999
1238;2004;583.514;2.03999
1239;1969.51;581.561;2.03999
1240;1932.28;548.112;2.03999
1241;1939.91;583.514;2.03999
1242;1981.72;589.618;2.03999
1243;1994.23;579.608;2.03999
1244;2004;563.738;2.03999
1245;1996.67;581.561;2.03999
1246;1964.63;575.701;2.03999
1247;1944.79;599.384;2.03999
1248;1986.6;569.842;2.03999
1249;2023.83;565.935;2.03999
1250;2040.93;603.29;2.03999
1251;2048.55;565.935;2.03999
1252;2028.72;563.738;2.03999
1253;1994.23;569.842;2.05
1254;1976.84;581.561;2.05
1255;1999.11;567.888;2.05
1256;2013.76;571.795;2.05
1257;2016.21;548.112;2.05
1258;2006.44;587.42;2.05
1259;1971.95;579.608;2.05
1260;1932.28;561.785;2.05
1261;1939.91;559.832;2.05
1262;1979.28;609.149;2.05
1263;1994.23;575.701;2.05
1264;2004;567.888;2.05
1265;1996.67;567.888;2.05
1266;1969.51;579.608;2.05
1267;1947.23;587.42;2.05
1268;1984.16;585.467;2.06
1269;2026.28;555.925;2.06
1270;2043.37;585.467;2.06
1271;2048.55;583.514;2.06
1272;2033.6;546.159;2.06
1273;1996.67;573.748;2.06
1274;1976.84;579.608;2.06
1275;2004;581.561;2.06
1276;2021.39;567.888;2.06
1277;2026.28;553.972;2.06
1278;2016.21;569.842;2.06
1279;1979.28;589.618;2.06
1280;1939.91;561.785;2.06
1281;1944.79;563.738;2.06
1282;1986.6;605.243;2.06
1283;2004;575.701;2.07
1284;2008.88;569.842;2.07
1285;2004;567.888;2.07
1286;1974.4;577.654;2.07
1287;1954.56;591.571;2.07
1288;1989.04;579.608;2.07
1289;2031.16;559.832;2.07
1290;2048.55;589.618;2.07
1291;2055.88;581.561;2.07
1292;2038.48;550.066;2.07
1293;2004;571.795;2.07
1294;1984.16;581.561;2.07
1295;2006.44;583.514;2.07
1296;2026.28;569.842;2.07
1297;2028.72;552.019;2.07
1298;2021.39;573.748;2.07999
1299;1984.16;587.42;2.07999
1300;1942.35;552.019;2.07999
1301;1947.23;569.842;2.07999
1302;1989.04;599.384;2.07999
1303;2006.44;573.748;2.07999
1304;2013.76;563.738;2.07999
1305;2008.88;565.935;2.07999
1306;1981.72;577.654;2.07999
1307;1959.44;593.524;2.07999
1308;1991.79;575.701;2.07999
1309;2033.6;559.832;2.07999
1310;2051;595.477;2.07999
1311;2058.32;575.701;2.07999
1312;2038.48;553.972;2.07999
1313;2006.44;569.842;2.09
1314;1984.16;581.561;2.09
1315;2011.32;581.561;2.09
1316;2026.28;569.842;2.09
1317;2028.72;552.019;2.09
1318;2021.39;575.701;2.09
1319;1986.6;585.467;2.09
1320;1947.23;552.019;2.09
1321;1949.67;573.748;2.09
1322;1989.04;595.477;2.09
1323;2006.44;575.701;2.09
1324;2011.32;561.785;2.09
1325;2006.44;569.842;2.09
1326;1981.72;577.654;2.09
1327;1957;593.524;2.09
1328;1991.79;575.701;2.1
1329;2033.6;563.738;2.1
1330;2053.44;597.43;2.1
1331;2060.76;571.795;2.1
1332;2043.37;557.878;2.1
1333;2008.88;571.795;2.1
1334;1989.04;581.561;2.1
1335;2011.32;577.654;2.1
1336;2028.72;569.842;2.1
1337;2036.04;550.066;2.1
1338;2026.28;581.561;2.1
1339;1994.23;585.467;2.1
1340;1947.23;546.159;2.1
1341;1949.67;579.608;2.1
1342;1989.04;591.571;2.1
1343;2008.88;575.701;2.1
1344;2016.21;563.738;2.10999
1345;2008.88;577.654;2.10999
1346;1986.6;577.654;2.10999
1347;1961.88;599.384;2.10999
1348;1991.79;569.842;2.10999
1349;2038.48;565.935;2.10999
1350;2055.88;601.337;2.10999
1351;2063.2;567.888;2.10999
1352;2048.55;559.832;2.10999
1353;2013.76;569.842;2.10999
1354;1989.04;585.467;2.10999
1355;2011.32;571.795;2.10999
1356;2031.16;569.842;2.10999
1357;2036.04;546.159;2.10999
1358;2028.72;583.514;2.10999
1359;1994.23;583.514;2.10999
1360;1954.56;544.206;2.12
1361;1952.12;581.561;2.12
1362;1991.79;587.42;2.12
1363;2008.88;579.608;2.12
1364;2021.39;561.785;2.12
1365;2013.76;581.561;2.12
1366;1989.04;577.654;2.12
1367;1964.63;599.384;2.12
1368;1994.23;567.888;2.12
1369;2038.48;567.888;2.12
1370;2058.32;607.196;2.12
1371;2068.09;563.738;2.12
1372;2053.44;561.785;2.12
1373;2018.95;567.888;2.12
1374;1994.23;585.467;2.12
1375;2016.21;567.888;2.12
1376;2033.6;569.842;2.13
1377;2038.48;552.019;2.13
1378;2033.6;575.701;2.13
1379;1999.11;585.467;2.13
1380;1957;552.019;2.13
1381;1954.56;573.748;2.13
1382;1994.23;595.477;2.13
1383;2016.21;575.701;2.13
1384;2021.39;563.738;2.13
1385;2021.39;569.842;2.13
1386;1994.23;575.701;2.13
1387;1967.07;597.43;2.13
1388;1994.23;573.748;2.13
1389;2040.93;561.785;2.13
1390;2063.2;599.384;2.13
1391;2073.27;571.795;2.14
1392;2058.32;555.925;2.14
1393;2026.28;571.795;2.14
1394;1999.11;583.514;2.14
1395;2018.95;577.654;2.14
1396;2038.48;569.842;2.14
1397;2043.37;548.112;2.14
1398;2036.04;581.561;2.14
1399;2006.44;583.514;2.14
1400;1961.88;546.159;2.14
1401;1957;579.608;2.14
1402;1996.67;591.571;2.14
1403;2018.95;577.654;2.14
1404;2026.28;563.738;2.14
1405;2023.83;575.701;2.14
1406;2001.56;577.654;2.14
1407;1971.95;599.384;2.14999
1408;1999.11;571.795;2.14999
1409;2046.11;565.935;2.14999
1410;2065.65;601.337;2.14999
1411;2075.72;567.888;2.14999
1412;2063.2;561.785;2.14999
1413;2026.28;567.888;2.14999
1414;1999.11;585.467;2.14999
1415;2016.21;571.795;2.14999
1416;2040.93;569.842;2.14999
1417;2043.37;548.112;2.14999
1418;2040.93;583.514;2.14999
1419;2008.88;581.561;2.14999
1420;1967.07;544.206;2.14999
1421;1954.56;583.514;2.14999
1422;1999.11;587.42;2.14999
1423;2021.39;577.654;2.16
1424;2028.72;563.738;2.16
1425;2023.83;583.514;2.16
1426;2001.56;575.701;2.16
1427;1971.95;599.384;2.16
1428;2001.56;565.935;2.16
1429;2048.55;567.888;2.16
1430;2068.09;605.243;2.16
1431;2080.6;561.785;2.16
1432;2068.09;563.738;2.16
1433;2033.6;563.738;2.16
1434;2004;577.654;2.16
1435;2026.28;581.561;2.16
1436;2046.11;569.842;2.16
1437;2051;557.878;2.16
1438;2046.11;565.935;2.16
1439;2016.21;591.571;2.17
1440;1974.4;561.785;2.17
1441;1964.63;561.785;2.17
1442;2004;605.243;2.17
1443;2028.72;573.748;2.17
1444;2038.48;565.935;2.17
1445;2031.16;567.888;2.17
1446;2011.32;579.608;2.17
1447;1979.28;587.42;2.17
1448;2004;581.561;2.17
1449;2053.44;553.972;2.17
1450;2075.72;587.42;2.17
1451;2085.48;585.467;2.17
1452;2075.72;544.206;2.17
1453;2040.93;571.795;2.17
1454;2013.76;579.608;2.18
1455;2031.16;581.561;2.18
1456;2051;567.888;2.18
1457;2058.32;553.972;2.18
1458;2051;569.842;2.18
1459;2023.83;589.618;2.18
1460;1976.84;557.878;2.18
1461;1967.07;565.935;2.18
1462;2008.88;601.337;2.18
1463;2028.72;573.748;2.18
1464;2038.48;565.935;2.18
1465;2036.04;567.888;2.18
1466;2013.76;575.701;2.18
1467;1981.72;593.524;2.18
1468;2006.44;575.701;2.18999
1469;2055.88;559.832;2.18999
1470;2078.16;593.524;2.18999
1471;2090.37;579.608;2.18999
1472;2078.16;548.112;2.18999
1473;2046.11;573.748;2.18999
1474;2016.21;579.608;2.18999
1475;2031.16;579.608;2.18999
1476;2053.44;567.888;2.18999
1477;2058.32;552.019;2.18999
1478;2055.88;573.748;2.18999
1479;2026.28;585.467;2.18999
1480;1984.16;552.019;2.18999
1481;1971.95;569.842;2.18999
1482;2011.32;599.384;2.2
1483;2033.6;573.748;2.2
1484;2043.37;565.935;2.2
1485;2040.93;569.842;2.2
1486;2016.21;575.701;2.2
1487;1989.04;593.524;2.2
1488;2008.88;575.701;2.2
1489;2068.09;559.832;2.2
1490;2085.48;593.524;2.2
1491;2090.37;573.748;2.2
1492;2068.09;553.972;2.2
1493;2033.6;571.795;2.2
1494;2018.95;581.561;2.2
1495;2046.11;579.608;2.2
1496;2058.32;571.795;2.2
1497;2060.76;550.066;2.21
1498;2051;577.654;2.21
1499;2011.32;583.514;2.21
1500;1971.95;550.066;2.21
1501;1986.6;573.748;2.21
1502;2026.28;595.477;2.21
1503;2043.37;577.654;2.21
1504;2048.55;563.738;2.21
1505;2040.93;571.795;2.21
1506;2011.32;575.701;2.21
1507;1991.79;593.524;2.21
1508;2033.6;571.795;2.21
1509;2075.72;561.785;2.21
1510;2092.81;597.43;2.21
1511;2097.69;569.842;2.21999
1512;2078.16;557.878;2.21999
1513;2040.93;569.842;2.21999
1514;2023.83;581.561;2.21999
1515;2053.44;573.748;2.21999
1516;2065.65;569.842;2.21999
1517;2065.65;548.112;2.21999
1518;2055.88;579.608;2.21999
1519;2016.21;581.561;2.21999
1520;1976.84;544.206;2.21999
1521;1986.6;577.654;2.21999
1522;2031.16;589.618;2.21999
1523;2048.55;575.701;2.21999
1524;2055.88;561.785;2.21999
1525;2046.11;575.701;2.23
1526;2021.39;575.701;2.23
1527;1996.67;597.43;2.23
1528;2038.48;567.888;2.23
1529;2075.72;567.888;2.23
1530;2092.81;601.337;2.23
1531;2100.44;563.738;2.23
1532;2080.6;559.832;2.23
1533;2043.37;565.935;2.23
1534;2026.28;581.561;2.23
1535;2053.44;567.888;2.23
1536;2065.65;565.935;2.23
1537;2073.27;544.206;2.23
1538;2063.2;583.514;2.23
1539;2028.72;581.561;2.24
1540;1981.72;542.009;2.24
1541;1994.23;583.514;2.24
1542;2033.6;587.42;2.24
1543;2048.55;577.654;2.24
1544;2058.32;561.785;2.24
1545;2048.55;579.608;2.24
1546;2021.39;575.701;2.24
1547;1999.11;599.384;2.24
1548;2040.93;565.935;2.24
1549;2078.16;563.738;2.24
1550;2097.69;583.514;2.24
1551;2105.32;585.467;2.24
1552;2083.04;542.009;2.25
1553;2046.11;571.795;2.25
1554;2026.28;577.654;2.25
1555;2053.44;581.561;2.25
1556;2068.09;565.935;2.25
1557;2075.72;553.972;2.25
1558;2063.2;565.935;2.25
1559;2028.72;591.571;2.25
1560;1986.6;561.785;2.25
1561;1994.23;561.785;2.25
1562;2036.04;605.243;2.25
1563;2053.44;571.795;2.25
1564;2058.32;563.738;2.25
1565;2051;567.888;2.25
1566;2021.39;577.654;2.25999
1567;1999.11;589.618;2.25999
1568;2040.93;581.561;2.25999
1569;2080.6;555.925;2.25999
1570;2100.44;587.42;2.25999
1571;2110.2;583.514;2.25999
1572;2090.37;546.159;2.25999
1573;2053.44;571.795;2.25999
1574;2033.6;577.654;2.25999
1575;2058.32;579.608;2.25999
1576;2075.72;567.888;2.25999
1577;2080.6;552.019;2.25999
1578;2070.53;569.842;2.25999
1579;2033.6;589.618;2.27
1580;1994.23;553.972;2.27
1581;1996.67;567.888;2.27
1582;2040.93;599.384;2.27
1583;2060.76;569.842;2.27
1584;2065.65;563.738;2.27
1585;2060.76;565.935;2.27
1586;2031.16;575.701;2.27
1587;2006.44;591.571;2.27
1588;2043.37;575.701;2.27
1589;2090.37;557.878;2.27
1590;2107.76;591.571;2.27
1591;2117.53;577.654;2.27
1592;2100.44;548.112;2.28
1593;2063.2;569.842;2.28
1594;2040.93;579.608;2.28
1595;2063.2;581.561;2.28
1596;2083.04;567.888;2.28
1597;2085.48;548.112;2.28
1598;2075.72;573.748;2.28
1599;2038.48;585.467;2.28
1600;1996.67;550.066;2.28
1601;1996.67;569.842;2.28
1602;2043.37;597.43;2.28
1603;2060.76;571.795;2.28
1604;2070.53;561.785;2.28
1605;2063.2;565.935;2.28999
1606;2036.04;575.701;2.28999
1607;2013.76;591.571;2.28999
1608;2046.11;573.748;2.28999
1609;2087.92;561.785;2.28999
1610;2107.76;595.477;2.28999
1611;2117.53;573.748;2.28999
1612;2100.44;552.019;2.28999
1613;2063.2;567.888;2.28999
1614;2040.93;579.608;2.28999
1615;2063.2;579.608;2.28999
1616;2083.04;569.842;2.28999
1617;2087.92;548.112;2.28999
1618;2080.6;575.701;2.3
1619;2046.11;581.561;2.3
1620;2001.56;548.112;2.3
1621;2004;573.748;2.3
1622;2048.55;593.524;2.3
1623;2065.65;575.701;2.3
1624;2073.27;561.785;2.3
1625;2068.09;569.842;2.3
1626;2046.11;575.701;2.3
1627;2018.95;595.477;2.3
1628;2048.55;569.842;2.3
1629;2095.25;563.738;2.3
1630;2117.53;599.384;2.3
1631;2122.41;567.888;2.31
1632;2100.44;557.878;2.31
1633;2063.2;567.888;2.31
1634;2048.55;581.561;2.31
1635;2075.72;571.795;2.31
1636;2092.81;567.888;2.31
1637;2092.81;546.159;2.31
1638;2083.04;581.561;2.31
1639;2043.37;579.608;2.31
1640;2004;544.206;2.31
1641;2016.21;577.654;2.31
1642;2058.32;589.618;2.31
1643;2070.53;575.701;2.31
1644;2078.16;559.832;2.32
1645;2068.09;573.748;2.32
1646;2040.93;573.748;2.32
1647;2021.39;597.43;2.32
1648;2063.2;565.935;2.32
1649;2105.32;563.738;2.32
1650;2122.41;601.337;2.32
1651;2127.6;561.785;2.32
1652;2105.32;561.785;2.32
1653;2070.53;563.738;2.32
1654;2051;581.561;2.32
1655;2080.6;567.888;2.32
1656;2095.25;569.842;2.32
1657;2102.88;546.159;2.32999
1658;2090.37;583.514;2.32999
1659;2051;579.608;2.32999
1660;2008.88;540.056;2.32999
1661;2021.39;583.514;2.32999
1662;2060.76;585.467;2.32999
1663;2080.6;577.654;2.32999
1664;2083.04;559.832;2.32999
1665;2075.72;581.561;2.32999
1666;2046.11;573.748;2.32999
1667;2023.83;595.477;2.32999
1668;2065.65;573.748;2.32999
1669;2107.76;559.832;2.34
