<WeldAnalyseData xmlns:i="http:www.w3.org/2001/XMLSchema-instance">
<WeldParameter>
<TimeStamp>DT#2024-01-25-09:46:42</TimeStamp>
<Generator>SG-22-10000</Generator>
<GenFreq>20</GenFreq>
<MaxForce>8000</MaxForce>
<MaxPower>10000</MaxPower>
<RunupPressure>1.5</RunupPressure>
<RunupDist>10</RunupDist>
<RunPress>0.8</RunPress>
<ShakeDelay>0.03</ShakeDelay>
<ShakeTime>0.3</ShakeTime>
<RunBackPress1>6</RunBackPress1>
<RunBackPress2>2</RunBackPress2>
<RunBackDist>1</RunBackDist>
<TrigValue>500</TrigValue>
<TrigModeUnit>W</TrigModeUnit>
<WeldModeUnit>Ws</WeldModeUnit>
<PressNr>0</PressNr>
<MaxLoss>1500</MaxLoss>
</WeldParameter>
<WeldSets>
<WeldSet>
<PressRiseTime>0</PressRiseTime>
<RunPressure>1</RunPressure>
<Amplitude>86</Amplitude>
<WeldMode>3270</WeldMode>
</WeldSet>
</WeldSets>
<WeldValue>
<WeldNr>2987</WeldNr>
<RecipeName>RickStyle</RecipeName>
<WeldTime>1676</WeldTime>
<DistDiff>2.32999</DistDiff>
<DistAbs>78.09</DistAbs>
<Energy>3270.8</Energy>
<MaxPower>2142.63</MaxPower>
<CycleTime>6040</CycleTime>
<TrigForce>504.654</TrigForce>
<TrigDist>75.76</TrigDist>
<RunSpeed>67.7033</RunSpeed>
<MaxForce>619.16</MaxForce>
<LossPower>323.878</LossPower>
</WeldValue>
</WeldAnalyseData>
#CSV-START#
ms;Power[W];Force[N];Distance[mm]
1;0;0;0
2;0;504.654;0
3;0;506.607;0
4;0;506.607;0
5;0;508.56;0
6;0;508.56;0
7;0;504.654;0.00999451
8;0;492.691;0.00999451
9;0;429.456;0.0199966
10;0;411.878;0.0400009
11;0;374.279;0.0799942
12;24.0333;356.456;0.110001
13;90.8689;346.69;0.150002
14;169.912;330.821;0.189995
15;238.884;312.998;0.229996
16;303.278;307.138;0.279999
17;364.925;303.232;0.32
18;429.014;297.372;0.360001
19;488.22;295.419;0.400002
20;552.614;311.045;0.439995
21;606.937;309.091;0.479996
22;663.701;326.914;0.509995
23;745.186;311.045;0.540001
24;821.787;321.055;0.559998
25;890.759;354.503;0.589996
26;952.406;328.867;0.610001
27;994.522;334.727;0.619995
28;1026.57;354.503;0.639999
29;1063.49;378.185;0.650002
30;1115.38;376.232;0.659996
31;1159.93;388.195;0.669998
32;1196.86;376.232;0.669998
33;1219.14;413.831;0.68
34;1224.02;409.925;0.68
35;1224.02;384.045;0.689995
36;1261.25;421.644;0.699997
37;1310.39;417.737;0.699997
38;1345.18;419.691;0.709999
39;1377.22;407.971;0.709999
40;1401.94;427.503;0.720001
41;1409.27;423.597;0.729996
42;1421.78;447.279;0.729996
43;1473.36;415.784;0.739998
44;1527.68;421.644;0.739998
45;1562.47;457.289;0.75
46;1587.19;413.831;0.75
47;1594.52;423.597;0.759995
48;1587.19;427.503;0.769997
49;1592.07;447.279;0.769997
50;1631.44;425.55;0.779999
51;1663.49;433.607;0.779999
52;1688.21;415.784;0.790001
53;1700.72;459.243;0.799995
54;1683.32;447.279;0.799995
55;1666.23;409.925;0.809998
56;1700.72;467.055;0.82
57;1755.04;455.336;0.82
58;1789.53;457.289;0.829994
59;1811.81;443.373;0.839996
60;1821.57;470.962;0.839996
61;1811.81;461.196;0.849998
62;1809.37;486.831;0.849998
63;1863.69;445.326;0.860001
64;1910.38;459.243;0.860001
65;1942.73;500.748;0.869995
66;1957.38;445.326;0.869995
67;1950.06;463.149;0.879997
68;1922.9;465.102;0.879997
69;1913.13;486.831;0.879997
70;1950.06;463.149;0.889999
71;1974.78;475.112;0.889999
72;1986.98;453.383;0.900002
73;1982.1;504.654;0.900002
74;1952.5;484.878;0.900002
75;1918.01;449.232;0.909996
76;1937.54;510.514;0.909996
77;1986.98;490.738;0.919998
78;2014.15;492.691;0.919998
79;2026.66;477.065;0.93
80;2021.77;500.748;0.93
81;1997.05;490.738;0.939995
82;1982.1;516.373;0.939995
83;2029.1;467.055;0.939995
84;2070.91;492.691;0.949997
85;2095.63;526.383;0.949997
86;2100.51;469.008;0.959999
87;2083.42;492.691;0.959999
88;2048.94;492.691;0.959999
89;2029.1;510.514;0.970001
90;2061.14;492.691;0.970001
91;2076.1;500.748;0.979996
92;2085.86;477.065;0.979996
93;2078.54;522.477;0.979996
94;2041.31;510.514;0.989998
95;1999.5;472.915;0.989998
96;2016.59;526.383;0.989998
97;2061.14;516.373;1
98;2085.86;516.373;1
99;2098.07;496.597;1
100;2088.31;522.477;1.00999
101;2053.82;510.514;1.00999
102;2036.42;536.149;1.00999
103;2076.1;500.748;1.02
104;2115.47;508.56;1.02
105;2135.3;548.112;1.02
106;2142.63;490.738;1.03
107;2115.47;508.56;1.03
108;2076.1;506.607;1.03
109;2056.26;524.43;1.04
110;2080.98;502.701;1.04
111;2095.63;516.373;1.04
112;2103.26;490.738;1.05
113;2090.75;538.102;1.05
114;2051.38;518.326;1.05
115;2006.82;484.878;1.06
116;2019.03;542.009;1.06
117;2066.03;524.43;1.06
118;2085.86;526.383;1.06
119;2093.19;508.56;1.07
120;2083.42;534.196;1.07
121;2051.38;520.524;1.07
122;2031.54;548.112;1.07
123;2068.47;500.748;1.07999
124;2110.58;518.326;1.07999
125;2127.67;555.925;1.07999
126;2132.86;500.748;1.07999
127;2108.14;520.524;1.09
128;2066.03;518.326;1.09
129;2043.75;538.102;1.09
130;2068.47;512.467;1.09
131;2083.42;526.383;1.1
132;2085.86;502.701;1.1
133;2076.1;552.019;1.1
134;2036.42;532.243;1.1
135;1991.87;494.644;1.11
136;1999.5;557.878;1.11
137;2046.19;532.243;1.11
138;2066.03;534.196;1.11
139;2073.35;516.373;1.12
140;2063.59;528.336;1.12
141;2031.54;532.243;1.12
142;2006.82;555.925;1.12
143;2048.94;528.336;1.12
144;2085.86;522.477;1.13
145;2105.7;561.785;1.13
146;2110.58;526.383;1.13
147;2085.86;516.373;1.13
148;2043.75;526.383;1.13
149;2021.77;542.009;1.14
150;2043.75;532.243;1.14
151;2061.14;528.336;1.14
152;2066.03;506.607;1.14
153;2053.82;542.009;1.14
154;2014.15;542.009;1.15
155;1969.89;508.56;1.15
156;1977.22;542.009;1.15
157;2019.03;552.019;1.15
158;2036.42;540.056;1.15
159;2043.75;524.43;1.16
160;2033.98;538.102;1.16
161;2004.38;540.056;1.16
162;1979.66;563.738;1.16
163;2016.59;532.243;1.16
164;2058.7;530.29;1.17
165;2078.54;569.842;1.17
166;2080.98;526.383;1.17
167;2058.7;528.336;1.17
168;2021.77;530.29;1.17
169;1994.61;550.066;1.17
170;2019.03;532.243;1.18
171;2036.42;538.102;1.18
172;2038.87;514.42;1.18
173;2029.1;550.066;1.18
174;1991.87;544.206;1.18
175;1947.61;512.467;1.18999
176;1952.5;555.925;1.18999
177;1994.61;553.972;1.18999
178;2014.15;548.112;1.18999
179;2021.77;532.243;1.18999
180;2011.7;552.019;1.18999
181;1984.54;546.159;1.2
182;1962.26;571.795;1.2
183;1997.05;532.243;1.2
184;2038.87;538.102;1.2
185;2058.7;577.654;1.2
186;2066.03;528.336;1.2
187;2041.31;534.196;1.21
188;2001.94;536.149;1.21
189;1977.22;553.972;1.21
190;1999.5;534.196;1.21
191;2016.59;542.009;1.21
192;2019.03;520.524;1.21
193;2009.26;559.832;1.22
194;1969.89;548.112;1.22
195;1927.78;514.42;1.22
196;1932.66;565.935;1.22
197;1974.78;555.925;1.22
198;1997.05;553.972;1.23
199;2004.38;534.196;1.23
200;1986.98;559.832;1.23
201;1952.5;550.066;1.23
202;1947.61;575.701;1.23
203;1997.05;536.149;1.23
204;2029.1;544.206;1.23
205;2041.31;581.561;1.24
206;2038.87;530.29;1.24
207;2006.82;544.206;1.24
208;1972.33;542.009;1.24
209;1964.71;561.785;1.24
210;1989.43;538.102;1.24
211;1999.5;552.019;1.25
212;1999.5;526.383;1.25
213;1979.66;573.748;1.25
214;1935.1;553.972;1.25
215;1905.5;520.524;1.25
216;1935.1;575.701;1.25
217;1972.33;557.878;1.25
218;1986.98;559.832;1.25999
219;1991.87;540.056;1.25999
220;1977.22;563.738;1.25999
221;1945.17;555.925;1.25999
222;1942.73;579.608;1.25999
223;1986.98;534.196;1.25999
224;2019.03;550.066;1.25999
225;2031.54;587.42;1.27
226;2029.1;530.29;1.27
227;1999.5;548.112;1.27
228;1959.82;546.159;1.27
229;1957.38;567.888;1.27
230;1986.98;542.009;1.27
231;1994.61;555.925;1.27
232;1991.87;532.243;1.27
233;1977.22;581.561;1.28
234;1932.66;559.832;1.28
235;1900.62;524.43;1.28
236;1927.78;585.467;1.28
237;1964.71;561.785;1.28
238;1977.22;561.785;1.28
239;1982.1;544.206;1.28
240;1969.89;569.842;1.29
241;1937.54;557.878;1.29
242;1930.22;581.561;1.29
243;1977.22;532.243;1.29
244;2009.26;555.925;1.29
245;2024.22;583.514;1.29
246;2021.77;553.972;1.29
247;1991.87;540.056;1.29
248;1954.94;553.972;1.3
249;1947.61;567.888;1.3
250;1972.33;557.878;1.3
251;1982.1;555.925;1.3
252;1986.98;536.149;1.3
253;1967.45;567.888;1.3
254;1925.34;569.842;1.3
255;1890.85;532.243;1.3
256;1918.01;567.888;1.31
257;1952.5;575.701;1.31
258;1967.45;561.785;1.31
259;1969.89;548.112;1.31
260;1954.94;567.888;1.31
261;1927.78;563.738;1.31
262;1918.01;587.42;1.31
263;1967.45;555.925;1.31
264;1997.05;553.972;1.31
265;2014.15;589.618;1.32
266;2014.15;550.066;1.32
267;1984.54;550.066;1.32
268;1947.61;555.925;1.32
269;1940.29;573.748;1.32
270;1967.45;555.925;1.32
271;1974.78;559.832;1.32
272;1977.22;540.056;1.32
273;1959.82;573.748;1.32
274;1918.01;569.842;1.32999
275;1888.41;532.243;1.32999
276;1910.38;575.701;1.32999
277;1947.61;577.654;1.32999
278;1962.26;571.795;1.32999
279;1969.89;555.925;1.32999
280;1952.5;575.701;1.32999
281;1922.9;567.888;1.32999
282;1913.13;595.477;1.34
283;1962.26;559.832;1.34
284;1997.05;559.832;1.34
285;2011.7;599.384;1.34
286;2011.7;553.972;1.34
287;1984.54;559.832;1.34
288;1947.61;559.832;1.34
289;1937.54;579.608;1.34
290;1962.26;557.878;1.35
291;1972.33;565.935;1.35
292;1977.22;546.159;1.35
293;1959.82;583.514;1.35
294;1918.01;575.701;1.35
295;1883.22;538.102;1.35
296;1910.38;589.618;1.35
297;1945.17;577.654;1.35
298;1962.26;579.608;1.35
299;1967.45;557.878;1.36
300;1954.94;583.514;1.36
301;1925.34;573.748;1.36
302;1915.57;597.43;1.36
303;1962.26;557.878;1.36
304;1994.61;567.888;1.36
305;2009.26;607.196;1.36
306;2009.26;555.925;1.36
307;1984.54;565.935;1.36
308;1947.61;565.935;1.36
309;1940.29;583.514;1.37
310;1964.71;563.738;1.37
311;1974.78;571.795;1.37
312;1977.22;550.066;1.37
313;1957.38;597.43;1.37
314;1920.45;579.608;1.37
315;1883.22;542.009;1.37
316;1907.94;597.43;1.37
317;1945.17;581.561;1.37
318;1962.26;581.561;1.38
319;1967.45;563.738;1.38
320;1954.94;589.618;1.38
321;1925.34;575.701;1.38
322;1913.13;601.337;1.38
323;1959.82;555.925;1.38
324;1991.87;575.701;1.38
325;2009.26;609.149;1.38
326;2009.26;553.972;1.38
327;1984.54;573.748;1.38
328;1945.17;571.795;1.39
329;1935.1;589.618;1.39
330;1962.26;565.935;1.39
331;1972.33;579.608;1.39
332;1974.78;555.925;1.39
333;1959.82;607.196;1.39
334;1920.45;585.467;1.39
335;1885.97;550.066;1.39
336;1907.94;609.149;1.39
337;1945.17;585.467;1.39
338;1964.71;585.467;1.4
339;1969.89;569.842;1.4
340;1954.94;589.618;1.4
341;1927.78;579.608;1.4
342;1915.57;603.29;1.4
343;1964.71;555.925;1.4
344;1997.05;577.654;1.4
345;2009.26;613.3;1.4
346;2014.15;552.019;1.4
347;1989.43;579.608;1.4
348;1950.06;573.748;1.41
349;1937.54;591.571;1.41
350;1964.71;567.888;1.41
351;1974.78;579.608;1.41
352;1979.66;555.925;1.41
353;1964.71;599.384;1.41
354;1925.34;589.618;1.41
355;1890.85;550.066;1.41
356;1907.94;601.337;1.41
357;1945.17;591.571;1.41
358;1962.26;589.618;1.42
359;1964.71;571.795;1.42
360;1954.94;595.477;1.42
361;1922.9;581.561;1.42
362;1913.13;611.347;1.42
363;1959.82;569.842;1.42
364;1994.61;577.654;1.42
365;2009.26;617.206;1.42
366;2011.7;561.785;1.42
367;1986.98;579.608;1.42
368;1947.61;575.701;1.42
369;1937.54;593.524;1.43
370;1962.26;569.842;1.43
371;1974.78;583.514;1.43
372;1977.22;559.832;1.43
373;1962.26;607.196;1.43
374;1922.9;587.42;1.43
375;1883.22;550.066;1.43
376;1907.94;609.149;1.43
377;1945.17;591.571;1.43
378;1962.26;589.618;1.43
379;1967.45;573.748;1.43
380;1959.82;595.477;1.43
381;1930.22;581.561;1.43999
382;1915.57;611.347;1.43999
383;1957.38;563.738;1.43999
384;1989.43;579.608;1.43999
385;2004.38;617.206;1.43999
386;2009.26;557.878;1.43999
387;1984.54;579.608;1.43999
388;1947.61;577.654;1.43999
389;1932.66;595.477;1.43999
390;1959.82;573.748;1.43999
391;1972.33;583.514;1.43999
392;1974.78;561.785;1.43999
393;1959.82;611.347;1.45
394;1918.01;585.467;1.45
395;1880.78;552.019;1.45
396;1900.62;615.253;1.45
397;1940.29;585.467;1.45
398;1957.38;589.618;1.45
399;1964.71;573.748;1.45
400;1954.94;593.524;1.45
401;1925.34;583.514;1.45
402;1913.13;607.196;1.45
403;1954.94;583.514;1.45
404;1989.43;575.701;1.45
405;2004.38;611.347;1.46
406;2009.26;577.654;1.46
407;1986.98;571.795;1.46
408;1950.06;579.608;1.46
409;1932.66;593.524;1.46
410;1962.26;579.608;1.46
411;1972.33;581.561;1.46
412;1974.78;559.832;1.46
413;1959.82;593.524;1.46
414;1925.34;591.571;1.46
415;1885.97;555.925;1.46
416;1905.5;591.571;1.46
417;1942.73;597.43;1.47
418;1959.82;587.42;1.47
419;1967.45;573.748;1.47
420;1957.38;591.571;1.47
421;1927.78;585.467;1.47
422;1910.38;609.149;1.47
423;1954.94;579.608;1.47
424;1989.43;577.654;1.47
425;2006.82;615.253;1.47
426;2011.7;571.795;1.47
427;1986.98;573.748;1.47
428;1950.06;579.608;1.47
429;1932.66;593.524;1.47
430;1957.38;577.654;1.48
431;1969.89;581.561;1.48
432;1974.78;559.832;1.48
433;1962.26;595.477;1.48
434;1920.45;591.571;1.48
435;1885.97;552.019;1.48
436;1900.62;601.337;1.48
437;1937.54;595.477;1.48
438;1954.94;589.618;1.48
439;1962.26;573.748;1.48
440;1952.5;595.477;1.48
441;1925.34;583.514;1.48
442;1907.94;609.149;1.48
443;1947.61;575.701;1.49
444;1984.54;577.654;1.49
445;2004.38;617.206;1.49
446;2004.38;565.935;1.49
447;1979.66;575.701;1.49
448;1942.73;573.748;1.49
449;1930.22;593.524;1.49
450;1952.5;571.795;1.49
451;1964.71;581.561;1.49
452;1967.45;557.878;1.49
453;1957.38;601.337;1.49
454;1918.01;587.42;1.49
455;1883.22;552.019;1.49
456;1893.29;603.29;1.49
457;1935.1;591.571;1.5
458;1950.06;591.571;1.5
459;1954.94;571.795;1.5
460;1947.61;597.43;1.5
461;1920.45;585.467;1.5
462;1903.06;609.149;1.5
463;1945.17;567.888;1.5
464;1982.1;579.608;1.5
465;2001.94;617.206;1.5
466;2006.82;561.785;1.5
467;1984.54;577.654;1.5
468;1947.61;577.654;1.5
469;1930.22;593.524;1.5
470;1954.94;571.795;1.50999
471;1967.45;581.561;1.50999
472;1972.33;557.878;1.50999
473;1957.38;607.196;1.50999
474;1920.45;587.42;1.50999
475;1883.22;552.019;1.50999
476;1898.18;609.149;1.50999
477;1937.54;589.618;1.50999
478;1954.94;589.618;1.50999
479;1962.26;571.795;1.50999
480;1954.94;599.384;1.50999
481;1925.34;583.514;1.50999
482;1907.94;607.196;1.50999
483;1945.17;559.832;1.50999
484;1986.98;581.561;1.52
485;2001.94;615.253;1.52
486;2006.82;557.878;1.52
487;1984.54;579.608;1.52
488;1950.06;577.654;1.52
489;1930.22;595.477;1.52
490;1952.5;571.795;1.52
491;1972.33;583.514;1.52
492;1972.33;559.832;1.52
493;1959.82;611.347;1.52
494;1925.34;587.42;1.52
495;1885.97;552.019;1.52
496;1895.73;611.347;1.52
497;1935.1;589.618;1.52
498;1952.5;587.42;1.53
499;1962.26;573.748;1.53
500;1952.5;595.477;1.53
501;1925.34;583.514;1.53
502;1905.5;607.196;1.53
503;1945.17;559.832;1.53
504;1984.54;581.561;1.53
505;2001.94;609.149;1.53
506;2006.82;579.608;1.53
507;1986.98;569.842;1.53
508;1947.61;579.608;1.53
509;1930.22;591.571;1.53
510;1952.5;583.514;1.53
511;1969.89;579.608;1.53
512;1972.33;559.832;1.54
513;1962.26;593.524;1.54
514;1925.34;591.571;1.54
515;1888.41;553.972;1.54
516;1898.18;593.524;1.54
517;1937.54;595.477;1.54
518;1952.5;587.42;1.54
519;1962.26;573.748;1.54
520;1954.94;589.618;1.54
521;1927.78;587.42;1.54
522;1907.94;611.347;1.54
523;1945.17;579.608;1.54
524;1986.98;579.608;1.54
525;2001.94;615.253;1.54
526;2009.26;571.795;1.55
527;1986.98;573.748;1.55
528;1947.61;577.654;1.55
529;1927.78;593.524;1.55
530;1957.38;575.701;1.55
531;1964.71;581.561;1.55
532;1972.33;555.925;1.55
533;1962.26;595.477;1.55
534;1930.22;589.618;1.55
535;1888.41;553.972;1.55
536;1895.73;597.43;1.55
537;1940.29;597.43;1.55
538;1957.38;589.618;1.55
539;1967.45;573.748;1.55
540;1959.82;597.43;1.55
541;1927.78;587.42;1.56
542;1907.94;611.347;1.56
543;1945.17;575.701;1.56
544;1986.98;577.654;1.56
545;2006.82;617.206;1.56
546;2011.7;567.888;1.56
547;1991.87;573.748;1.56
548;1954.94;579.608;1.56
549;1932.66;595.477;1.56
550;1957.38;573.748;1.56
551;1969.89;581.561;1.56
552;1974.78;557.878;1.56
553;1964.71;601.337;1.56
554;1927.78;589.618;1.56
555;1888.41;550.066;1.57
556;1898.18;603.29;1.57
557;1940.29;593.524;1.57
558;1957.38;591.571;1.57
559;1967.45;571.795;1.57
560;1959.82;599.384;1.57
561;1935.1;587.42;1.57
562;1910.38;611.347;1.57
563;1947.61;569.842;1.57
564;1997.05;581.561;1.57
565;2011.7;619.16;1.57
566;2006.82;563.738;1.57
567;1979.66;579.608;1.57
568;1945.17;577.654;1.57
569;1942.73;595.477;1.57
570;1967.45;573.748;1.57999
571;1977.22;581.561;1.57999
572;1979.66;559.832;1.57999
573;1957.38;607.196;1.57999
574;1915.57;587.42;1.57999
575;1888.41;552.019;1.57999
576;1918.01;609.149;1.57999
577;1950.06;589.618;1.57999
578;1962.26;591.571;1.57999
579;1969.89;575.701;1.57999
580;1954.94;597.43;1.57999
581;1922.9;585.467;1.57999
582;1920.45;609.149;1.57999
583;1969.89;561.785;1.57999
584;1999.5;581.561;1.57999
585;2011.7;617.206;1.59
586;2009.26;559.832;1.59
587;1979.66;581.561;1.59
588;1945.17;577.654;1.59
589;1942.73;595.477;1.59
590;1969.89;571.795;1.59
591;1977.22;583.514;1.59
592;1977.22;563.738;1.59
593;1957.38;611.347;1.59
594;1918.01;585.467;1.59
595;1888.41;552.019;1.59
596;1920.45;615.253;1.59
597;1952.5;589.618;1.59
598;1969.89;589.618;1.59
599;1974.78;573.748;1.6
600;1959.82;595.477;1.6
601;1927.78;583.514;1.6
602;1922.9;609.149;1.6
603;1972.33;559.832;1.6
604;2001.94;579.608;1.6
605;2016.59;615.253;1.6
606;2014.15;553.972;1.6
607;1986.98;579.608;1.6
608;1947.61;577.654;1.6
609;1947.61;593.524;1.6
610;1969.89;573.748;1.6
611;1982.1;581.561;1.6
612;1984.54;555.925;1.6
613;1964.71;601.337;1.6
614;1918.01;587.42;1.61
615;1890.85;550.066;1.61
616;1918.01;607.196;1.61
617;1957.38;591.571;1.61
618;1967.45;589.618;1.61
619;1974.78;571.795;1.61
620;1959.82;595.477;1.61
621;1927.78;583.514;1.61
622;1925.34;613.3;1.61
623;1972.33;569.842;1.61
624;1999.5;579.608;1.61
625;2014.15;617.206;1.61
626;2014.15;557.878;1.61
627;1984.54;577.654;1.61
628;1945.17;577.654;1.61
629;1942.73;595.477;1.62
630;1967.45;569.842;1.62
631;1977.22;579.608;1.62
632;1979.66;557.878;1.62
633;1962.26;607.196;1.62
634;1925.34;585.467;1.62
635;1890.85;552.019;1.62
636;1918.01;609.149;1.62
637;1952.5;587.42;1.62
638;1967.45;587.42;1.62
639;1972.33;571.795;1.62
640;1959.82;593.524;1.62
641;1927.78;583.514;1.62
642;1920.45;607.196;1.62
643;1972.33;557.878;1.62
644;2001.94;581.561;1.63
645;2019.03;615.253;1.63
646;2016.59;553.972;1.63
647;1991.87;579.608;1.63
648;1954.94;575.701;1.63
649;1945.17;593.524;1.63
650;1972.33;569.842;1.63
651;1979.66;581.561;1.63
652;1982.1;561.785;1.63
653;1964.71;609.149;1.63
654;1920.45;583.514;1.63
655;1893.29;552.019;1.63
656;1915.57;615.253;1.63
657;1952.5;587.42;1.63
658;1967.45;585.467;1.63
659;1972.33;569.842;1.63
660;1957.38;593.524;1.64
661;1930.22;583.514;1.64
662;1920.45;607.196;1.64
663;1967.45;579.608;1.64
664;1999.5;575.701;1.64
665;2019.03;609.149;1.64
666;2014.15;575.701;1.64
667;1989.43;563.738;1.64
668;1950.06;577.654;1.64
669;1945.17;589.618;1.64
670;1969.89;577.654;1.64
671;1982.1;575.701;1.64
672;1982.1;553.972;1.64
673;1967.45;589.618;1.64
674;1922.9;587.42;1.64
675;1890.85;552.019;1.64
676;1915.57;591.571;1.65
677;1954.94;597.43;1.65
678;1967.45;587.42;1.65
679;1974.78;571.795;1.65
680;1959.82;591.571;1.65
681;1930.22;583.514;1.65
682;1922.9;607.196;1.65
683;1969.89;573.748;1.65
684;2001.94;577.654;1.65
685;2016.59;611.347;1.65
686;2019.03;567.888;1.65
687;1994.61;569.842;1.65
688;1954.94;575.701;1.65
689;1947.61;589.618;1.65
690;1974.78;571.795;1.65
691;1986.98;575.701;1.66
692;1986.98;553.972;1.66
693;1972.33;593.524;1.66
694;1932.66;585.467;1.66
695;1898.18;550.066;1.66
696;1920.45;595.477;1.66
697;1957.38;593.524;1.66
698;1974.78;587.42;1.66
699;1982.1;567.888;1.66
700;1969.89;593.524;1.66
701;1937.54;581.561;1.66
702;1927.78;607.196;1.66
703;1972.33;569.842;1.66
704;2009.26;575.701;1.66
705;2021.77;613.3;1.66
706;2024.22;563.738;1.67
707;1997.05;573.748;1.67
708;1957.38;571.795;1.67
709;1950.06;591.571;1.67
710;1974.78;567.888;1.67
711;1984.54;577.654;1.67
712;1989.43;553.972;1.67
713;1969.89;599.384;1.67
714;1930.22;583.514;1.67
715;1895.73;546.159;1.67
716;1918.01;601.337;1.67
717;1957.38;587.42;1.67
718;1972.33;587.42;1.67
719;1977.22;567.888;1.67
720;1967.45;593.524;1.67
721;1935.1;583.514;1.68
722;1925.34;607.196;1.68
723;1969.89;561.785;1.68
724;2001.94;575.701;1.68
725;2019.03;613.3;1.68
726;2019.03;557.878;1.68
727;1997.05;573.748;1.68
728;1957.38;573.748;1.68
729;1947.61;591.571;1.68
730;1974.78;567.888;1.68
731;1984.54;577.654;1.68
732;1986.98;555.925;1.68
733;1972.33;603.29;1.68
734;1932.66;583.514;1.68
735;1893.29;546.159;1.68
736;1918.01;605.243;1.68999
737;1957.38;585.467;1.68999
738;1972.33;585.467;1.68999
739;1984.54;565.935;1.68999
740;1967.45;593.524;1.68999
741;1940.29;579.608;1.68999
742;1925.34;605.243;1.68999
743;1969.89;555.925;1.68999
744;2001.94;575.701;1.68999
745;2021.77;611.347;1.68999
746;2019.03;552.019;1.68999
747;1986.98;575.701;1.68999
748;1950.06;573.748;1.68999
749;1950.06;587.42;1.68999
750;1977.22;567.888;1.68999
751;1986.98;575.701;1.68999
752;1989.43;557.878;1.7
753;1967.45;607.196;1.7
754;1927.78;581.561;1.7
755;1898.18;548.112;1.7
756;1930.22;609.149;1.7
757;1962.26;583.514;1.7
758;1977.22;581.561;1.7
759;1977.22;569.842;1.7
760;1964.71;591.571;1.7
761;1932.66;577.654;1.7
762;1932.66;601.337;1.7
763;1979.66;553.972;1.7
764;2009.26;575.701;1.7
765;2024.22;609.149;1.7
766;2021.77;573.748;1.7
767;1991.87;565.935;1.7
768;1957.38;571.795;1.71
769;1954.94;587.42;1.71
770;1979.66;575.701;1.71
771;1991.87;573.748;1.71
772;1991.87;552.019;1.71
773;1972.33;587.42;1.71
774;1930.22;585.467;1.71
775;1903.06;550.066;1.71
776;1927.78;587.42;1.71
777;1959.82;591.571;1.71
778;1974.78;581.561;1.71
779;1977.22;569.842;1.71
780;1964.71;587.42;1.71
781;1932.66;579.608;1.71
782;1930.22;603.29;1.71
783;1979.66;571.795;1.72
784;2011.7;571.795;1.72
785;2024.22;609.149;1.72
786;2019.03;565.935;1.72
787;1991.87;567.888;1.72
788;1957.38;571.795;1.72
789;1952.5;589.618;1.72
790;1974.78;569.842;1.72
791;1986.98;575.701;1.72
792;1986.98;553.972;1.72
793;1969.89;591.571;1.72
794;1927.78;585.467;1.72
795;1898.18;546.159;1.72
796;1925.34;595.477;1.72
797;1962.26;589.618;1.72
798;1977.22;585.467;1.73
799;1979.66;567.888;1.73
800;1964.71;587.42;1.73
801;1935.1;579.608;1.73
802;1927.78;605.243;1.73
803;1979.66;567.888;1.73
804;2011.7;573.748;1.73
805;2026.66;611.347;1.73
806;2024.22;559.832;1.73
807;1991.87;567.888;1.73
808;1954.94;569.842;1.73
809;1954.94;587.42;1.73
810;1977.22;565.935;1.73
811;1986.98;575.701;1.73
812;1989.43;553.972;1.73
813;1972.33;595.477;1.74
814;1930.22;583.514;1.74
815;1898.18;546.159;1.74
816;1925.34;597.43;1.74
817;1957.38;583.514;1.74
818;1974.78;585.467;1.74
819;1979.66;565.935;1.74
820;1964.71;589.618;1.74
821;1932.66;577.654;1.74
822;1927.78;605.243;1.74
823;1979.66;561.785;1.74
824;2006.82;573.748;1.74
825;2024.22;611.347;1.74
826;2024.22;555.925;1.74
827;1994.61;569.842;1.74
828;1957.38;571.795;1.74
829;1952.5;591.571;1.75
830;1977.22;567.888;1.75
831;1989.43;571.795;1.75
832;1991.87;552.019;1.75
833;1969.89;603.29;1.75
834;1930.22;583.514;1.75
835;1898.18;548.112;1.75
836;1925.34;603.29;1.75
837;1962.26;585.467;1.75
838;1977.22;583.514;1.75
839;1984.54;567.888;1.75
840;1969.89;591.571;1.75
841;1940.29;577.654;1.75
842;1930.22;601.337;1.75
843;1979.66;553.972;1.75
844;2009.26;573.748;1.75999
845;2024.22;609.149;1.75999
846;2026.66;550.066;1.75999
847;1994.61;573.748;1.75999
848;1957.38;571.795;1.75999
849;1954.94;587.42;1.75999
850;1979.66;565.935;1.75999
851;1991.87;573.748;1.75999
852;1989.43;555.925;1.75999
853;1974.78;607.196;1.75999
854;1932.66;579.608;1.75999
855;1900.62;546.159;1.75999
856;1930.22;607.196;1.75999
857;1964.71;581.561;1.75999
858;1979.66;581.561;1.75999
859;1984.54;565.935;1.75999
860;1969.89;589.618;1.77
861;1942.73;575.701;1.77
862;1932.66;599.384;1.77
863;1977.22;552.019;1.77
864;2009.26;571.795;1.77
865;2024.22;607.196;1.77
866;2021.77;548.112;1.77
867;1994.61;573.748;1.77
868;1957.38;571.795;1.77
869;1950.06;587.42;1.77
870;1977.22;561.785;1.77
871;1989.43;573.748;1.77
872;1991.87;550.066;1.77
873;1969.89;599.384;1.77
874;1932.66;579.608;1.77
875;1898.18;542.009;1.77
876;1925.34;597.43;1.78
877;1962.26;585.467;1.78
878;1977.22;585.467;1.78
879;1984.54;563.738;1.78
880;1969.89;585.467;1.78
881;1940.29;575.701;1.78
882;1927.78;601.337;1.78
883;1974.78;557.878;1.78
884;2009.26;571.795;1.78
885;2024.22;611.347;1.78
886;2021.77;553.972;1.78
887;1999.5;571.795;1.78
888;1959.82;569.842;1.78
889;1952.5;587.42;1.78
890;1979.66;563.738;1.78
891;1989.43;573.748;1.78
892;1991.87;550.066;1.79
893;1979.66;603.29;1.79
894;1935.1;581.561;1.79
895;1903.06;544.206;1.79
896;1925.34;603.29;1.79
897;1962.26;581.561;1.79
898;1974.78;583.514;1.79
899;1982.1;565.935;1.79
900;1969.89;587.42;1.79
901;1940.29;575.701;1.79
902;1927.78;601.337;1.79
903;1977.22;553.972;1.79
904;2009.26;571.795;1.79
905;2026.66;607.196;1.79
906;2026.66;548.112;1.79
907;1997.05;573.748;1.79
908;1959.82;569.842;1.8
909;1950.06;589.618;1.8
910;1979.66;563.738;1.8
911;1989.43;573.748;1.8
912;1989.43;555.925;1.8
913;1972.33;605.243;1.8
914;1932.66;581.561;1.8
915;1903.06;548.112;1.8
916;1922.9;607.196;1.8
917;1962.26;579.608;1.8
918;1977.22;579.608;1.8
919;1982.1;567.888;1.8
920;1969.89;587.42;1.8
921;1942.73;577.654;1.8
922;1927.78;597.43;1.8
923;1972.33;571.795;1.8
924;2006.82;567.888;1.81
925;2026.66;605.243;1.81
926;2029.1;567.888;1.81
927;2001.94;563.738;1.81
928;1964.71;567.888;1.81
929;1954.94;583.514;1.81
930;1979.66;571.795;1.81
931;1991.87;571.795;1.81
932;1991.87;548.112;1.81
933;1977.22;585.467;1.81
934;1937.54;581.561;1.81
935;1900.62;544.206;1.81
936;1922.9;587.42;1.81
937;1962.26;587.42;1.81
938;1977.22;581.561;1.81
939;1986.98;563.738;1.82
940;1972.33;585.467;1.82
941;1942.73;577.654;1.82
942;1927.78;601.337;1.82
943;1974.78;569.842;1.82
944;2009.26;569.842;1.82
945;2024.22;607.196;1.82
946;2026.66;559.832;1.82
947;1999.5;565.935;1.82
948;1959.82;567.888;1.82
949;1950.06;585.467;1.82
950;1977.22;565.935;1.82
951;1989.43;571.795;1.82
952;1991.87;548.112;1.82
953;1977.22;589.618;1.82
954;1937.54;581.561;1.82
955;1900.62;542.009;1.82999
956;1920.45;589.618;1.82999
957;1959.82;587.42;1.82999
958;1977.22;581.561;1.82999
959;1984.54;563.738;1.82999
960;1972.33;587.42;1.82999
961;1942.73;577.654;1.82999
962;1927.78;605.243;1.82999
963;1974.78;563.738;1.82999
964;2009.26;569.842;1.82999
965;2024.22;605.243;1.82999
966;2026.66;555.925;1.82999
967;2001.94;565.935;1.82999
968;1964.71;565.935;1.82999
969;1952.5;583.514;1.82999
970;1977.22;563.738;1.82999
971;1986.98;571.795;1.84
972;1989.43;550.066;1.84
973;1977.22;593.524;1.84
974;1940.29;575.701;1.84
975;1900.62;542.009;1.84
976;1918.01;597.43;1.84
977;1959.82;583.514;1.84
978;1974.78;581.561;1.84
979;1982.1;565.935;1.84
980;1969.89;587.42;1.84
981;1942.73;573.748;1.84
982;1927.78;599.384;1.84
983;1974.78;557.878;1.84
984;2009.26;569.842;1.84
985;2024.22;607.196;1.84
986;2026.66;552.019;1.84
987;2004.38;569.842;1.84
988;1967.45;567.888;1.85
989;1950.06;583.514;1.85
990;1979.66;561.785;1.85
991;1989.43;573.748;1.85
992;1991.87;550.066;1.85
993;1979.66;599.384;1.85
994;1940.29;577.654;1.85
995;1905.5;542.009;1.85
996;1920.45;599.384;1.85
997;1962.26;577.654;1.85
998;1979.66;579.608;1.85
999;1986.98;563.738;1.85
1000;1977.22;585.467;1.85
1001;1950.06;573.748;1.85
1002;1932.66;597.43;1.85
1003;1974.78;550.066;1.85
1004;2006.82;571.795;1.86
1005;2026.66;607.196;1.86
1006;2029.1;546.159;1.86
1007;2004.38;571.795;1.86
1008;1967.45;565.935;1.86
1009;1952.5;585.467;1.86
1010;1979.66;561.785;1.86
1011;1994.61;569.842;1.86
1012;1994.61;552.019;1.86
1013;1982.1;601.337;1.86
1014;1945.17;577.654;1.86
1015;1905.5;542.009;1.86
1016;1920.45;605.243;1.86
1017;1959.82;575.701;1.86
1018;1977.22;579.608;1.86
1019;1979.66;563.738;1.86
1020;1974.78;585.467;1.86
1021;1945.17;575.701;1.86
1022;1927.78;597.43;1.87
1023;1969.89;548.112;1.87
1024;2006.82;571.795;1.87
1025;2024.22;605.243;1.87
1026;2026.66;542.009;1.87
1027;2004.38;559.832;1.87
1028;1969.89;569.842;1.87
1029;1950.06;585.467;1.87
1030;1977.22;569.842;1.87
1031;1991.87;571.795;1.87
1032;1997.05;546.159;1.87
1033;1982.1;583.514;1.87
1034;1945.17;581.561;1.87
1035;1907.94;546.159;1.87
1036;1920.45;581.561;1.87
1037;1964.71;587.42;1.87
1038;1982.1;579.608;1.87
1039;1989.43;563.738;1.88
1040;1982.1;579.608;1.88
1041;1952.5;577.654;1.88
1042;1935.1;599.384;1.88
1043;1974.78;565.935;1.88
1044;2011.7;567.888;1.88
1045;2029.1;603.29;1.88
1046;2036.42;561.785;1.88
1047;2011.7;563.738;1.88
1048;1972.33;567.888;1.88
1049;1959.82;583.514;1.88
1050;1984.54;563.738;1.88
1051;1997.05;569.842;1.88
1052;1997.05;546.159;1.88
1053;1986.98;585.467;1.88
1054;1950.06;577.654;1.88
1055;1907.94;544.206;1.88
1056;1922.9;587.42;1.89
1057;1964.71;583.514;1.89
1058;1979.66;579.608;1.89
1059;1989.43;559.832;1.89
1060;1982.1;585.467;1.89
1061;1950.06;573.748;1.89
1062;1932.66;601.337;1.89
1063;1974.78;563.738;1.89
1064;2014.15;569.842;1.89
1065;2029.1;605.243;1.89
1066;2031.54;557.878;1.89
1067;2011.7;567.888;1.89
1068;1974.78;565.935;1.89
1069;1957.38;583.514;1.89
1070;1979.66;561.785;1.89
1071;1991.87;571.795;1.89
1072;1997.05;548.112;1.89
1073;1984.54;593.524;1.9
1074;1947.61;577.654;1.9
1075;1905.5;542.009;1.9
1076;1920.45;595.477;1.9
1077;1959.82;579.608;1.9
1078;1979.66;579.608;1.9
1079;1986.98;563.738;1.9
1080;1974.78;585.467;1.9
1081;1950.06;573.748;1.9
1082;1927.78;597.43;1.9
1083;1969.89;557.878;1.9
1084;2006.82;571.795;1.9
1085;2024.22;607.196;1.9
1086;2029.1;548.112;1.9
1087;2006.82;567.888;1.9
1088;1969.89;563.738;1.9
1089;1950.06;583.514;1.91
1090;1979.66;561.785;1.91
1091;1991.87;571.795;1.91
1092;1994.61;548.112;1.91
1093;1982.1;597.43;1.91
1094;1945.17;579.608;1.91
1095;1907.94;540.056;1.91
1096;1913.13;597.43;1.91
1097;1957.38;579.608;1.91
1098;1974.78;579.608;1.91
1099;1982.1;563.738;1.91
1100;1974.78;585.467;1.91
1101;1950.06;571.795;1.91
1102;1925.34;597.43;1.91
1103;1967.45;550.066;1.91
1104;2006.82;567.888;1.91
1105;2029.1;607.196;1.92
1106;2029.1;546.159;1.92
1107;2009.26;571.795;1.92
1108;1974.78;567.888;1.92
1109;1954.94;585.467;1.92
1110;1979.66;559.832;1.92
1111;1994.61;573.748;1.92
1112;1997.05;550.066;1.92
1113;1989.43;601.337;1.92
1114;1950.06;577.654;1.92
1115;1907.94;542.009;1.92
1116;1940.29;603.29;1.92
1117;1974.78;577.654;1.92
1118;1986.98;577.654;1.92
1119;1991.87;563.738;1.92
1120;1974.78;585.467;1.92
1121;1945.17;573.748;1.93
1122;1942.73;593.524;1.93
1123;1991.87;548.112;1.93
1124;2021.77;569.842;1.93
1125;2033.98;601.337;1.93
1126;2031.54;540.056;1.93
1127;2004.38;569.842;1.93
1128;1964.71;567.888;1.93
1129;1964.71;581.561;1.93
1130;1991.87;563.738;1.93
1131;2001.94;571.795;1.93
1132;1999.5;548.112;1.93
1133;1982.1;595.477;1.93
1134;1937.54;577.654;1.93
1135;1910.38;540.056;1.93
1136;1942.73;595.477;1.93
1137;1974.78;577.654;1.93999
1138;1989.43;579.608;1.93999
1139;1997.05;559.832;1.93999
1140;1974.78;585.467;1.93999
1141;1945.17;573.748;1.93999
1142;1945.17;599.384;1.93999
1143;1997.05;553.972;1.93999
1144;2024.22;569.842;1.93999
1145;2038.87;603.29;1.93999
1146;2033.98;548.112;1.93999
1147;2004.38;567.888;1.93999
1148;1967.45;565.935;1.93999
1149;1967.45;583.514;1.93999
1150;1994.61;559.832;1.93999
1151;2004.38;571.795;1.93999
1152;2001.94;550.066;1.93999
1153;1982.1;599.384;1.95
1154;1940.29;573.748;1.95
1155;1910.38;540.056;1.95
1156;1945.17;601.337;1.95
1157;1979.66;577.654;1.95
1158;1994.61;575.701;1.95
1159;1999.5;559.832;1.95
1160;1984.54;585.467;1.95
1161;1952.5;571.795;1.95
1162;1950.06;597.43;1.95
1163;1999.5;550.066;1.95
1164;2026.66;569.842;1.95
1165;2041.31;603.29;1.95
1166;2036.42;544.206;1.95
1167;2009.26;569.842;1.95
1168;1972.33;565.935;1.96
1169;1969.89;583.514;1.96
1170;1994.61;559.832;1.96
1171;2004.38;571.795;1.96
1172;2004.38;550.066;1.96
1173;1986.98;599.384;1.96
1174;1942.73;575.701;1.96
1175;1910.38;542.009;1.96
1176;1942.73;607.196;1.96
1177;1979.66;575.701;1.96
1178;1991.87;577.654;1.96
1179;1997.05;559.832;1.96
1180;1979.66;583.514;1.96
1181;1950.06;571.795;1.96
1182;1945.17;593.524;1.96
1183;1994.61;565.935;1.97
1184;2021.77;565.935;1.97
1185;2036.42;599.384;1.97
1186;2036.42;563.738;1.97
1187;2006.82;559.832;1.97
1188;1972.33;565.935;1.97
1189;1967.45;583.514;1.97
1190;1994.61;565.935;1.97
1191;2001.94;567.888;1.97
1192;2001.94;546.159;1.97
1193;1986.98;581.561;1.97
1194;1942.73;577.654;1.97
1195;1910.38;540.056;1.97
1196;1940.29;583.514;1.97
1197;1977.22;583.514;1.97
1198;1991.87;577.654;1.98
1199;1997.05;559.832;1.98
1200;1982.1;583.514;1.98
1201;1952.5;573.748;1.98
1202;1945.17;599.384;1.98
1203;1994.61;565.935;1.98
1204;2024.22;565.935;1.98
1205;2041.31;603.29;1.98
1206;2041.31;559.832;1.98
1207;2009.26;561.785;1.98
1208;1974.78;563.738;1.98
1209;1969.89;583.514;1.98
1210;1997.05;561.785;1.98
1211;2004.38;569.842;1.98
1212;2004.38;546.159;1.98
1213;1989.43;587.42;1.99
1214;1945.17;577.654;1.99
1215;1913.13;538.102;1.99
1216;1942.73;589.618;1.99
1217;1979.66;581.561;1.99
1218;1991.87;577.654;1.99
1219;1997.05;559.832;1.99
1220;1982.1;581.561;1.99
1221;1954.94;573.748;1.99
1222;1945.17;597.43;1.99
1223;1994.61;559.832;1.99
1224;2029.1;565.935;1.99
1225;2041.31;605.243;1.99
1226;2041.31;552.019;1.99
1227;2011.7;565.935;1.99
1228;1974.78;563.738;2
1229;1969.89;583.514;2
1230;1997.05;559.832;2
1231;2006.82;567.888;2
1232;2004.38;546.159;2
1233;1986.98;591.571;2
1234;1950.06;577.654;2
1235;1915.57;540.056;2
1236;1945.17;595.477;2
1237;1982.1;577.654;2
1238;1991.87;577.654;2
1239;2001.94;559.832;2
1240;1984.54;585.467;2
1241;1954.94;569.842;2
1242;1945.17;597.43;2
1243;1997.05;555.925;2.00999
1244;2029.1;567.888;2.00999
1245;2046.19;605.243;2.00999
1246;2046.19;548.112;2.00999
1247;2016.59;565.935;2.00999
1248;1979.66;565.935;2.00999
1249;1974.78;581.561;2.00999
1250;2001.94;557.878;2.00999
1251;2011.7;569.842;2.00999
1252;2009.26;548.112;2.00999
1253;1991.87;597.43;2.00999
1254;1952.5;575.701;2.00999
1255;1918.01;538.102;2.00999
1256;1945.17;601.337;2.00999
1257;1982.1;577.654;2.00999
1258;1997.05;577.654;2.02
1259;2004.38;559.832;2.02
1260;1991.87;583.514;2.02
1261;1959.82;567.888;2.02
1262;1950.06;595.477;2.02
1263;1999.5;546.159;2.02
1264;2029.1;567.888;2.02
1265;2046.19;603.29;2.02
1266;2046.19;542.009;2.02
1267;2019.03;567.888;2.02
1268;1979.66;565.935;2.02
1269;1974.78;583.514;2.02
1270;2001.94;559.832;2.02
1271;2011.7;569.842;2.02
1272;2011.7;546.159;2.02
1273;1997.05;599.384;2.03
1274;1954.94;573.748;2.03
1275;1925.34;542.009;2.03
1276;1947.61;603.29;2.03
1277;1986.98;577.654;2.03
1278;2004.38;577.654;2.03
1279;2009.26;561.785;2.03
1280;1994.61;581.561;2.03
1281;1964.71;571.795;2.03
1282;1957.38;593.524;2.03
1283;2001.94;544.206;2.03
1284;2036.42;567.888;2.03
1285;2048.94;601.337;2.03
1286;2051.38;538.102;2.03
1287;2024.22;571.795;2.04
1288;1986.98;565.935;2.04
1289;1977.22;579.608;2.04
1290;2006.82;567.888;2.04
1291;2016.59;569.842;2.04
1292;2019.03;544.206;2.04
1293;1999.5;579.608;2.04
1294;1959.82;577.654;2.04
1295;1925.34;542.009;2.04
1296;1947.61;581.561;2.04
1297;1989.43;583.514;2.04
1298;2004.38;577.654;2.04
1299;2011.7;557.878;2.04
1300;1999.5;581.561;2.04
1301;1967.45;571.795;2.04
1302;1954.94;595.477;2.05
1303;2001.94;563.738;2.05
1304;2036.42;565.935;2.05
1305;2051.38;601.337;2.05
1306;2051.38;555.925;2.05
1307;2021.77;561.785;2.05
1308;1989.43;561.785;2.05
1309;1977.22;581.561;2.05
1310;2004.38;559.832;2.05
1311;2016.59;567.888;2.05
1312;2019.03;544.206;2.05
1313;1999.5;585.467;2.05
1314;1959.82;573.748;2.05
1315;1920.45;540.056;2.05
1316;1947.61;589.618;2.06
1317;1986.98;579.608;2.06
1318;1999.5;575.701;2.06
1319;2009.26;559.832;2.06
1320;1994.61;583.514;2.06
1321;1964.71;569.842;2.06
1322;1952.5;599.384;2.06
1323;1999.5;557.878;2.06
1324;2036.42;567.888;2.06
1325;2051.38;605.243;2.06
1326;2051.38;552.019;2.06
1327;2026.66;565.935;2.06
1328;1986.98;563.738;2.06
1329;1977.22;583.514;2.06
1330;2006.82;559.832;2.06
1331;2019.03;567.888;2.07
1332;2019.03;542.009;2.07
1333;2006.82;591.571;2.07
1334;1967.45;575.701;2.07
1335;1930.22;538.102;2.07
1336;1952.5;591.571;2.07
1337;1991.87;577.654;2.07
1338;2006.82;573.748;2.07
1339;2014.15;559.832;2.07
1340;2004.38;585.467;2.07
1341;1972.33;571.795;2.07
1342;1957.38;597.43;2.07
1343;2006.82;552.019;2.07
1344;2038.87;567.888;2.07
1345;2056.26;605.243;2.07
1346;2061.14;546.159;2.07999
1347;2033.98;565.935;2.07999
1348;1994.61;563.738;2.07999
1349;1982.1;579.608;2.07999
1350;2009.26;557.878;2.07999
1351;2021.77;567.888;2.07999
1352;2024.22;546.159;2.07999
1353;2006.82;595.477;2.07999
1354;1967.45;573.748;2.07999
1355;1930.22;538.102;2.07999
1356;1950.06;597.43;2.07999
1357;1991.87;575.701;2.07999
1358;2009.26;575.701;2.07999
1359;2016.59;559.832;2.07999
1360;2001.94;579.608;2.07999
1361;1974.78;569.842;2.09
1362;1957.38;595.477;2.09
1363;2004.38;548.112;2.09
1364;2041.31;569.842;2.09
1365;2058.7;601.337;2.09
1366;2058.7;540.056;2.09
1367;2031.54;565.935;2.09
1368;1994.61;563.738;2.09
1369;1982.1;581.561;2.09
1370;2011.7;557.878;2.09
1371;2024.22;567.888;2.09
1372;2026.66;548.112;2.09
1373;2009.26;601.337;2.09
1374;1969.89;571.795;2.09
1375;1930.22;540.056;2.09
1376;1952.5;603.29;2.1
1377;1994.61;573.748;2.1
1378;2009.26;573.748;2.1
1379;2016.59;561.785;2.1
1380;2006.82;583.514;2.1
1381;1974.78;573.748;2.1
1382;1962.26;593.524;2.1
1383;2009.26;544.206;2.1
1384;2043.75;567.888;2.1
1385;2058.7;599.384;2.1
1386;2063.59;536.149;2.1
1387;2036.42;567.888;2.1
1388;1997.05;565.935;2.1
1389;1986.98;581.561;2.1
1390;2014.15;559.832;2.11
1391;2029.1;567.888;2.11
1392;2029.1;546.159;2.11
1393;2014.15;593.524;2.11
1394;1974.78;573.748;2.11
1395;1935.1;536.149;2.11
1396;1957.38;593.524;2.11
1397;1991.87;575.701;2.11
1398;2014.15;575.701;2.11
1399;2019.03;559.832;2.11
1400;2006.82;583.514;2.11
1401;1979.66;569.842;2.11
1402;1962.26;595.477;2.11
1403;2009.26;548.112;2.11
1404;2048.94;567.888;2.11
1405;2063.59;603.29;2.12
1406;2066.03;542.009;2.12
1407;2043.75;565.935;2.12
1408;2006.82;563.738;2.12
1409;1991.87;581.561;2.12
1410;2019.03;557.878;2.12
1411;2033.98;567.888;2.12
1412;2033.98;546.159;2.12
1413;2019.03;597.43;2.12
1414;1982.1;571.795;2.12
1415;1942.73;538.102;2.12
1416;1959.82;599.384;2.12
1417;2001.94;573.748;2.12
1418;2019.03;575.701;2.12
1419;2024.22;557.878;2.12
1420;2014.15;581.561;2.13
1421;1984.54;569.842;2.13
1422;1967.45;593.524;2.13
1423;2014.15;548.112;2.13
1424;2051.38;571.795;2.13
1425;2066.03;601.337;2.13
1426;2070.91;542.009;2.13
1427;2048.94;565.935;2.13
1428;2011.7;565.935;2.13
1429;1994.61;579.608;2.13
1430;2019.03;559.832;2.13
1431;2033.98;567.888;2.13
1432;2038.87;550.066;2.13
1433;2024.22;597.43;2.13
1434;1986.98;571.795;2.13
1435;1947.61;540.056;2.14
1436;1964.71;603.29;2.14
1437;2004.38;571.795;2.14
1438;2024.22;573.748;2.14
1439;2031.54;557.878;2.14
1440;2024.22;581.561;2.14
1441;1994.61;571.795;2.14
1442;1974.78;591.571;2.14
1443;2019.03;565.935;2.14
1444;2058.7;563.738;2.14
1445;2073.35;599.384;2.14
1446;2078.54;557.878;2.14
1447;2053.82;557.878;2.14
1448;2014.15;561.785;2.14
1449;1999.5;579.608;2.15
1450;2026.66;561.785;2.15
1451;2043.75;567.888;2.15
1452;2043.75;542.009;2.15
1453;2033.98;579.608;2.15
1454;1997.05;573.748;2.15
1455;1957.38;538.102;2.15
1456;1972.33;583.514;2.15
1457;2011.7;579.608;2.15
1458;2031.54;571.795;2.15
1459;2041.31;557.878;2.15
1460;2029.1;579.608;2.15
1461;1999.5;571.795;2.15
1462;1982.1;595.477;2.16
1463;2024.22;561.785;2.16
1464;2061.14;561.785;2.16
1465;2080.98;601.337;2.16
1466;2083.42;553.972;2.16
1467;2063.59;559.832;2.16
1468;2024.22;561.785;2.16
1469;2006.82;579.608;2.16
1470;2033.98;559.832;2.16
1471;2048.94;567.888;2.16
1472;2051.38;542.009;2.16
1473;2038.87;585.467;2.16
1474;1997.05;573.748;2.16
1475;1957.38;536.149;2.16
1476;1972.33;589.618;2.17
1477;2014.15;579.608;2.17
1478;2036.42;577.654;2.17
1479;2043.75;557.878;2.17
1480;2031.54;581.561;2.17
1481;2001.94;569.842;2.17
1482;1982.1;597.43;2.17
1483;2024.22;553.972;2.17
1484;2066.03;563.738;2.17
1485;2083.42;603.29;2.17
1486;2085.86;548.112;2.17
1487;2066.03;563.738;2.17
1488;2026.66;561.785;2.17
1489;2006.82;579.608;2.18
1490;2033.98;555.925;2.18
1491;2053.82;569.842;2.18
1492;2051.38;544.206;2.18
1493;2029.1;591.571;2.18
1494;1984.54;569.842;2.18
1495;1957.38;536.149;2.18
1496;1994.61;593.524;2.18
1497;2026.66;575.701;2.18
1498;2038.87;573.748;2.18
1499;2043.75;555.925;2.18
1500;2029.1;581.561;2.18
1501;1994.61;571.795;2.18
1502;1997.05;595.477;2.18
1503;2051.38;548.112;2.18999
1504;2078.54;565.935;2.18999
1505;2090.75;603.29;2.18999
1506;2088.31;544.206;2.18999
1507;2056.26;565.935;2.18999
1508;2021.77;561.785;2.18999
1509;2021.77;581.561;2.18999
1510;2048.94;555.925;2.18999
1511;2058.7;567.888;2.18999
1512;2056.26;546.159;2.18999
1513;2033.98;595.477;2.18999
1514;1989.43;571.795;2.18999
1515;1962.26;536.149;2.18999
1516;1999.5;597.43;2.2
1517;2033.98;575.701;2.2
1518;2051.38;573.748;2.2
1519;2051.38;555.925;2.2
1520;2033.98;583.514;2.2
1521;2001.94;569.842;2.2
1522;2001.94;595.477;2.2
1523;2053.82;542.009;2.2
1524;2080.98;565.935;2.2
1525;2095.63;599.384;2.2
1526;2093.19;540.056;2.2
1527;2063.59;565.935;2.2
1528;2026.66;561.785;2.21
1529;2026.66;581.561;2.21
1530;2053.82;557.878;2.21
1531;2061.14;565.935;2.21
1532;2061.14;546.159;2.21
1533;2038.87;597.43;2.21
1534;1997.05;571.795;2.21
1535;1967.45;538.102;2.21
1536;2004.38;603.29;2.21
1537;2038.87;571.795;2.21
1538;2053.82;573.748;2.21
1539;2058.7;557.878;2.21
1540;2041.31;581.561;2.21
1541;2006.82;569.842;2.22
1542;2006.82;591.571;2.22
1543;2058.7;544.206;2.22
1544;2085.86;567.888;2.22
1545;2098.07;599.384;2.22
1546;2095.63;532.243;2.22
1547;2063.59;565.935;2.22
1548;2024.22;561.785;2.22
1549;2026.66;577.654;2.22
1550;2053.82;561.785;2.22
1551;2063.59;563.738;2.22
1552;2066.03;540.056;2.22
1553;2043.75;579.608;2.22
1554;2001.94;573.748;2.23
1555;1967.45;536.149;2.23
1556;2001.94;579.608;2.23
1557;2036.42;583.514;2.23
1558;2051.38;573.748;2.23
1559;2056.26;557.878;2.23
1560;2038.87;577.654;2.23
1561;2009.26;571.795;2.23
1562;2006.82;597.43;2.23
1563;2058.7;557.878;2.23
1564;2090.75;561.785;2.23
1565;2103.26;601.337;2.23
1566;2103.26;553.972;2.24
1567;2070.91;557.878;2.24
1568;2033.98;559.832;2.24
1569;2031.54;577.654;2.24
1570;2063.59;557.878;2.24
1571;2073.35;567.888;2.24
1572;2070.91;540.056;2.24
1573;2053.82;583.514;2.24
1574;2009.26;575.701;2.24
1575;1979.66;536.149;2.24
1576;2009.26;585.467;2.24
1577;2048.94;577.654;2.24
1578;2061.14;573.748;2.24
1579;2066.03;555.925;2.25
1580;2048.94;579.608;2.25
1581;2016.59;571.795;2.25
1582;2011.7;595.477;2.25
1583;2066.03;553.972;2.25
1584;2098.07;563.738;2.25
1585;2110.58;603.29;2.25
1586;2108.14;548.112;2.25
1587;2078.54;559.832;2.25
1588;2038.87;557.878;2.25
1589;2036.42;577.654;2.25
1590;2066.03;553.972;2.25
1591;2076.1;565.935;2.25999
1592;2076.1;542.009;2.25999
1593;2058.7;587.42;2.25999
1594;2014.15;573.748;2.25999
1595;1982.1;532.243;2.25999
1596;2011.7;591.571;2.25999
1597;2051.38;573.748;2.25999
1598;2068.47;573.748;2.25999
1599;2068.47;555.925;2.25999
1600;2056.26;581.561;2.25999
1601;2021.77;569.842;2.25999
1602;2019.03;593.524;2.25999
1603;2068.47;550.066;2.25999
1604;2100.51;563.738;2.27
1605;2115.47;601.337;2.27
1606;2113.03;544.206;2.27
1607;2085.86;563.738;2.27
1608;2046.19;559.832;2.27
1609;2043.75;581.561;2.27
1610;2068.47;555.925;2.27
1611;2080.98;565.935;2.27
1612;2080.98;542.009;2.27
1613;2063.59;593.524;2.27
1614;2019.03;571.795;2.27
1615;1984.54;534.196;2.27
1616;2016.59;595.477;2.28
1617;2056.26;573.748;2.28
1618;2070.91;571.795;2.28
1619;2076.1;559.832;2.28
1620;2058.7;579.608;2.28
1621;2029.1;567.888;2.28
1622;2019.03;593.524;2.28
1623;2070.91;542.009;2.28
1624;2103.26;563.738;2.28
1625;2120.35;599.384;2.28
1626;2120.35;538.102;2.28
1627;2088.31;563.738;2.29
1628;2051.38;561.785;2.29
1629;2046.19;579.608;2.29
1630;2073.35;555.925;2.29
1631;2083.42;565.935;2.29
1632;2085.86;546.159;2.29
1633;2066.03;595.477;2.29
1634;2024.22;571.795;2.29
1635;1989.43;538.102;2.29
1636;2019.03;601.337;2.29
1637;2058.7;571.795;2.29
1638;2076.1;573.748;2.29
1639;2083.42;555.925;2.29
1640;2068.47;577.654;2.3
1641;2033.98;567.888;2.3
1642;2026.66;591.571;2.3
1643;2076.1;540.056;2.3
1644;2105.7;565.935;2.3
1645;2125.23;595.477;2.3
1646;2117.91;532.243;2.3
1647;2090.75;563.738;2.3
1648;2053.82;563.738;2.3
1649;2051.38;577.654;2.3
1650;2080.98;555.925;2.3
1651;2093.19;563.738;2.31
1652;2093.19;542.009;2.31
1653;2078.54;593.524;2.31
1654;2033.98;571.795;2.31
1655;1994.61;532.243;2.31
1656;2024.22;593.524;2.31
1657;2063.59;575.701;2.31
1658;2078.54;573.748;2.31
1659;2085.86;553.972;2.31
1660;2068.47;579.608;2.31
1661;2038.87;565.935;2.31
1662;2029.1;595.477;2.31
1663;2080.98;546.159;2.32
1664;2113.03;565.935;2.32
1665;2132.86;599.384;2.32
1666;2127.67;540.056;2.32
1667;2098.07;561.785;2.32
1668;2061.14;561.785;2.32
1669;2056.26;579.608;2.32
1670;2083.42;555.925;2.32
1671;2093.19;563.738;2.32
1672;2095.63;542.009;2.32
1673;2078.54;595.477;2.32
1674;2036.42;569.842;2.32
1675;2001.94;538.102;2.32999
1676;2029.1;597.43;2.32999
