<WeldAnalyseData xmlns:i="http:www.w3.org/2001/XMLSchema-instance">
<WeldParameter>
<TimeStamp>DT#2024-01-25-11:46:56</TimeStamp>
<Generator>SG-22-10000</Generator>
<GenFreq>20</GenFreq>
<MaxForce>8000</MaxForce>
<MaxPower>10000</MaxPower>
<RunupPressure>1.5</RunupPressure>
<RunupDist>10</RunupDist>
<RunPress>0.8</RunPress>
<ShakeDelay>0.03</ShakeDelay>
<ShakeTime>0.3</ShakeTime>
<RunBackPress1>6</RunBackPress1>
<RunBackPress2>2</RunBackPress2>
<RunBackDist>1</RunBackDist>
<TrigValue>500</TrigValue>
<TrigModeUnit>W</TrigModeUnit>
<WeldModeUnit>Ws</WeldModeUnit>
<PressNr>0</PressNr>
<MaxLoss>1500</MaxLoss>
</WeldParameter>
<WeldSets>
<WeldSet>
<PressRiseTime>0</PressRiseTime>
<RunPressure>1</RunPressure>
<Amplitude>86</Amplitude>
<WeldMode>3270</WeldMode>
</WeldSet>
</WeldSets>
<WeldValue>
<WeldNr>3004</WeldNr>
<RecipeName>RickStyle</RecipeName>
<WeldTime>1696</WeldTime>
<DistDiff>2.32</DistDiff>
<DistAbs>78.11</DistAbs>
<Energy>3270.53</Energy>
<MaxPower>2122.22</MaxPower>
<CycleTime>6140</CycleTime>
<TrigForce>502.701</TrigForce>
<TrigDist>75.79</TrigDist>
<RunSpeed>67.6093</RunSpeed>
<MaxForce>623.066</MaxForce>
<LossPower>319.567</LossPower>
</WeldValue>
</WeldAnalyseData>
#CSV-START#
ms;Power[W];Force[N];Distance[mm]
1;0;0;0
2;0;502.701;0
3;0;502.701;0
4;0;504.654;0
5;0;502.701;0
6;0;504.654;0
7;0;504.654;0
8;0;479.019;0
9;0;431.654;0.0100021
10;0;409.925;0.0299988
11;0;384.045;0.0599976
12;16.1367;360.363;0.0999985
13;70.4596;342.784;0.129997
14;139.431;330.821;0.169998
15;211.15;314.951;0.220001
16;275.239;305.185;0.260002
17;329.562;287.362;0.309998
18;386.326;301.279;0.349998
19;443.091;305.185;0.389999
20;492.531;293.222;0.43
21;554.483;312.998;0.459999
22;628.338;328.867;0.489998
23;697.615;328.867;0.519997
24;766.587;328.867;0.540001
25;833.422;350.597;0.559998
26;890.187;354.503;0.580002
27;937.185;380.139;0.589996
28;1001.27;372.326;0.599998
29;1067.8;366.466;0.610001
30;1122.13;392.102;0.620003
31;1169.13;411.878;0.629997
32;1201.17;378.185;0.629997
33;1213.68;409.925;0.629997
34;1223.45;411.878;0.639999
35;1255.49;419.691;0.639999
36;1295.17;411.878;0.650002
37;1327.21;405.774;0.659996
38;1354.37;409.925;0.659996
39;1366.58;433.607;0.669998
40;1364.14;411.878;0.68
41;1381.53;411.878;0.68
42;1438.3;451.186;0.690002
43;1477.67;427.503;0.690002
44;1512.46;419.691;0.699997
45;1537.18;417.737;0.709999
46;1544.5;431.654;0.709999
47;1546.95;445.326;0.720001
48;1583.87;439.467;0.720001
49;1643.38;421.644;0.729996
50;1682.75;449.232;0.739998
51;1717.24;443.373;0.739998
52;1724.56;413.831;0.75
53;1717.24;439.467;0.760002
54;1707.47;445.326;0.760002
55;1737.08;449.232;0.769997
56;1774;441.42;0.779999
57;1796.28;431.654;0.790001
58;1813.68;449.232;0.790001
59;1798.72;467.055;0.799995
60;1774;437.513;0.799995
61;1776.44;455.336;0.809998
62;1830.77;486.831;0.809998
63;1868;461.196;0.82
64;1887.53;455.336;0.82
65;1897.6;461.196;0.830002
66;1890.28;469.008;0.830002
67;1872.88;488.784;0.839996
68;1902.49;475.112;0.839996
69;1956.81;463.149;0.849998
70;1988.85;498.795;0.849998
71;2006.25;477.065;0.849998
72;2001.37;453.383;0.860001
73;1971.76;477.065;0.860001
74;1944.6;488.784;0.870003
75;1966.57;486.831;0.870003
76;1991.29;477.065;0.870003
77;2003.81;459.243;0.879997
78;2008.69;486.831;0.879997
79;1983.97;496.597;0.889999
80;1941.85;459.243;0.889999
81;1936.97;492.691;0.900002
82;1983.97;510.514;0.900002
83;2016.01;492.691;0.900002
84;2033.41;482.925;0.909996
85;2035.85;492.691;0.909996
86;2016.01;498.795;0.919998
87;1991.29;518.326;0.919998
88;2013.57;492.691;0.919998
89;2065.45;488.784;0.93
90;2087.73;526.383;0.93
91;2102.38;494.644;0.940002
92;2090.17;484.878;0.940002
93;2053.25;496.597;0.940002
94;2023.34;514.42;0.949997
95;2035.85;502.701;0.949997
96;2063.01;500.748;0.949997
97;2072.78;486.831;0.959999
98;2072.78;506.607;0.959999
99;2040.73;520.524;0.959999
100;2001.37;486.831;0.970001
101;1986.41;506.607;0.970001
102;2035.85;534.196;0.970001
103;2063.01;510.514;0.979996
104;2075.22;500.748;0.979996
105;2075.22;504.654;0.979996
106;2050.5;512.467;0.989998
107;2023.34;534.196;0.989998
108;2040.73;514.42;0.989998
109;2087.73;502.701;1
110;2112.45;540.056;1
111;2122.22;514.42;1
112;2107.57;492.691;1.01
113;2067.9;512.467;1.01
114;2033.41;522.477;1.01
115;2048.06;522.477;1.02
116;2070.34;514.42;1.02
117;2075.22;494.644;1.02
118;2070.34;524.43;1.03
119;2038.29;526.383;1.03
120;1996.18;494.644;1.03
121;1983.97;524.43;1.03
122;2030.97;542.009;1.04
123;2060.57;524.43;1.04
124;2080.41;512.467;1.04
125;2080.41;522.477;1.04
126;2058.13;524.43;1.05
127;2030.97;550.066;1.05
128;2050.5;520.524;1.05
129;2092.62;516.373;1.05
130;2117.34;553.972;1.06
131;2122.22;516.373;1.06
132;2107.57;486.831;1.06
133;2063.01;522.477;1.06
134;2026.09;526.383;1.07
135;2035.85;534.196;1.07
136;2058.13;518.326;1.07
137;2060.57;516.373;1.07
138;2053.25;514.42;1.08
139;2020.9;544.206;1.08
140;1974.2;518.326;1.08
141;1959.25;514.42;1.08
142;2003.81;563.738;1.09
143;2028.53;528.336;1.09
144;2038.29;524.43;1.09
145;2035.85;522.477;1.09
146;2008.69;532.243;1.09
147;1979.09;542.009;1.1
148;1998.92;540.056;1.1
149;2045.62;510.514;1.1
150;2067.9;542.009;1.1
151;2077.66;544.206;1.1
152;2065.45;500.748;1.11
153;2023.34;532.243;1.11
154;1991.29;536.149;1.11
155;2006.25;540.056;1.11
156;2028.53;528.336;1.11
157;2033.41;516.373;1.12
158;2030.97;526.383;1.12
159;2001.37;550.066;1.12
160;1959.25;518.326;1.12
161;1944.6;524.43;1.12
162;1991.29;567.888;1.13
163;2018.46;534.196;1.13
164;2030.97;526.383;1.13
165;2026.09;528.336;1.13
166;2003.81;540.056;1.13
167;1974.2;555.925;1.14
168;1988.85;542.009;1.14
169;2035.85;522.477;1.14
170;2058.13;557.878;1.14
171;2065.45;542.009;1.14
172;2050.5;514.42;1.15
173;2011.13;538.102;1.15
174;1976.65;546.159;1.15
175;1988.85;548.112;1.15
176;2008.69;534.196;1.15
177;2011.13;518.326;1.16
178;2006.25;540.056;1.16
179;1974.2;552.019;1.16
180;1929.65;520.524;1.16
181;1917.44;540.056;1.16
182;1959.25;565.935;1.17
183;1986.41;542.009;1.17
184;1996.18;530.29;1.17
185;1996.18;534.196;1.17
186;1974.2;544.206;1.17
187;1941.85;563.738;1.17
188;1961.69;546.159;1.18
189;2008.69;532.243;1.18
190;2030.97;565.935;1.18
191;2040.73;542.009;1.18
192;2026.09;522.477;1.18
193;1991.29;540.056;1.19
194;1956.81;553.972;1.19
195;1971.76;548.112;1.19
196;1991.29;540.056;1.19
197;1998.92;522.477;1.19
198;1993.74;550.066;1.19
199;1964.13;553.972;1.2
200;1922.32;542.009;1.2
201;1909.81;526.383;1.2
202;1954.37;585.467;1.2
203;1979.09;546.159;1.2
204;1991.29;546.159;1.2
205;1991.29;540.056;1.21
206;1966.57;552.019;1.21
207;1936.97;555.925;1.21
208;1959.25;563.738;1.21
209;2006.25;524.43;1.21
210;2030.97;552.019;1.21
211;2040.73;567.888;1.22
212;2028.53;514.42;1.22
213;1993.74;546.159;1.22
214;1961.69;553.972;1.22
215;1971.76;557.878;1.22
216;1991.29;544.206;1.22
217;1993.74;538.102;1.23
218;1988.85;538.102;1.23
219;1961.69;569.842;1.23
220;1917.44;538.102;1.23
221;1904.93;538.102;1.23
222;1947.04;587.42;1.23
223;1971.76;548.112;1.23
224;1983.97;546.159;1.24
225;1983.97;544.206;1.24
226;1961.69;557.878;1.24
227;1929.65;563.738;1.24
228;1951.93;561.785;1.24
229;1993.74;534.196;1.24
230;2016.01;565.935;1.25
231;2026.09;563.738;1.25
232;2011.13;522.477;1.25
233;1974.2;552.019;1.25
234;1941.85;557.878;1.25
235;1951.93;559.832;1.25
236;1974.2;548.112;1.25
237;1979.09;536.149;1.26
238;1974.2;548.112;1.26
239;1944.6;567.888;1.26
240;1902.49;540.056;1.26
241;1890.28;548.112;1.26
242;1932.09;583.514;1.26
243;1956.81;553.972;1.26
244;1966.57;548.112;1.27
245;1964.13;548.112;1.27
246;1941.85;559.832;1.27
247;1917.44;575.701;1.27
248;1932.09;561.785;1.27
249;1981.53;540.056;1.27
250;2003.81;577.654;1.27
251;2016.01;563.738;1.28
252;2001.37;534.196;1.28
253;1966.57;557.878;1.28
254;1932.09;567.888;1.28
255;1944.6;565.935;1.28
256;1969.02;555.925;1.28
257;1969.02;540.056;1.28
258;1964.13;559.832;1.29
259;1939.41;571.795;1.29
260;1897.6;538.102;1.29
261;1882.65;561.785;1.29
262;1924.76;585.467;1.29
263;1949.48;561.785;1.29
264;1961.69;552.019;1.29
265;1959.25;555.925;1.29
266;1939.41;565.935;1.3
267;1907.37;585.467;1.3
268;1929.65;563.738;1.3
269;1971.76;544.206;1.3
270;1996.18;577.654;1.3
271;2008.69;575.701;1.3
272;1993.74;534.196;1.3
273;1959.25;561.785;1.3
274;1927.21;569.842;1.31
275;1936.97;571.795;1.31
276;1956.81;559.832;1.31
277;1961.69;550.066;1.31
278;1956.81;557.878;1.31
279;1927.21;581.561;1.31
280;1890.28;550.066;1.31
281;1875.32;557.878;1.31
282;1917.44;597.43;1.32
283;1941.85;569.842;1.32
284;1951.93;557.878;1.32
285;1954.37;561.785;1.32
286;1932.09;571.795;1.32
287;1907.37;587.42;1.32
288;1922.32;573.748;1.32
289;1964.13;555.925;1.32
290;1988.85;589.618;1.33
291;2001.37;575.701;1.33
292;1988.85;548.112;1.33
293;1954.37;571.795;1.33
294;1919.88;579.608;1.33
295;1934.53;579.608;1.33
296;1954.37;565.935;1.33
297;1959.25;552.019;1.33
298;1956.81;569.842;1.33
299;1927.21;585.467;1.34
300;1887.53;550.066;1.34
301;1875.32;569.842;1.34
302;1914.69;595.477;1.34
303;1939.41;571.795;1.34
304;1951.93;573.748;1.34
305;1951.93;565.935;1.34
306;1929.65;581.561;1.34
307;1902.49;577.654;1.34
308;1919.88;591.571;1.35
309;1966.57;552.019;1.35
310;1986.41;577.654;1.35
311;1996.18;597.43;1.35
312;1983.97;540.056;1.35
313;1949.48;571.795;1.35
314;1919.88;575.701;1.35
315;1929.65;583.514;1.35
316;1951.93;567.888;1.35
317;1954.37;569.842;1.36
318;1951.93;563.738;1.36
319;1922.32;601.337;1.36
320;1880.21;571.795;1.36
321;1865.56;559.832;1.36
322;1907.37;619.16;1.36
323;1934.53;577.654;1.36
324;1941.85;573.748;1.36
325;1944.6;571.795;1.36
326;1922.32;585.467;1.37
327;1895.16;587.42;1.37
328;1912.25;589.618;1.37
329;1954.37;557.878;1.37
330;1976.65;589.618;1.37
331;1991.29;597.43;1.37
332;1976.65;546.159;1.37
333;1941.85;577.654;1.37
334;1912.25;581.561;1.37
335;1922.32;587.42;1.38
336;1944.6;573.748;1.38
337;1949.48;567.888;1.38
338;1941.85;571.795;1.38
339;1914.69;599.384;1.38
340;1875.32;569.842;1.38
341;1863.12;569.842;1.38
342;1904.93;615.253;1.38
343;1924.76;579.608;1.38
344;1936.97;573.748;1.38
345;1936.97;573.748;1.39
346;1919.88;585.467;1.39
347;1890.28;591.571;1.39
348;1907.37;591.571;1.39
349;1951.93;563.738;1.39
350;1974.2;597.43;1.39
351;1983.97;591.571;1.39
352;1971.76;552.019;1.39
353;1936.97;581.561;1.39
354;1904.93;587.42;1.39
355;1917.44;587.42;1.4
356;1936.97;575.701;1.4
357;1941.85;567.888;1.4
358;1939.41;577.654;1.4
359;1912.25;597.43;1.4
360;1870.44;567.888;1.4
361;1857.93;575.701;1.4
362;1897.6;613.3;1.4
363;1922.32;581.561;1.4
364;1932.09;575.701;1.4
365;1929.65;575.701;1.4
366;1912.25;587.42;1.41
367;1882.65;601.337;1.41
368;1902.49;587.42;1.41
369;1947.04;569.842;1.41
370;1969.02;605.243;1.41
371;1981.53;587.42;1.41
372;1969.02;552.019;1.41
373;1934.53;581.561;1.41
374;1902.49;577.654;1.41
375;1912.25;593.524;1.41
376;1932.09;575.701;1.41
377;1939.41;579.608;1.42
378;1932.09;565.935;1.42
379;1907.37;609.149;1.42
380;1865.56;583.514;1.42
381;1853.05;559.832;1.42
382;1892.72;617.206;1.42
383;1917.44;585.467;1.42
384;1929.65;583.514;1.42
385;1927.21;573.748;1.42
386;1909.81;591.571;1.42
387;1877.77;585.467;1.42
388;1897.6;599.384;1.43
389;1939.41;559.832;1.43
390;1961.69;587.42;1.43
391;1974.2;603.29;1.43
392;1961.69;544.206;1.43
393;1927.21;581.561;1.43
394;1895.16;583.514;1.43
395;1904.93;591.571;1.43
396;1924.76;577.654;1.43
397;1929.65;577.654;1.43
398;1924.76;571.795;1.43
399;1902.49;605.243;1.44
400;1857.93;577.654;1.44
401;1845.72;565.935;1.44
402;1882.65;623.066;1.44
403;1909.81;583.514;1.44
404;1919.88;579.608;1.44
405;1919.88;575.701;1.44
406;1902.49;591.571;1.44
407;1875.32;593.524;1.44
408;1892.72;597.43;1.44
409;1936.97;561.785;1.44
410;1956.81;593.524;1.44
411;1966.57;601.337;1.45
412;1956.81;550.066;1.45
413;1924.76;583.514;1.45
414;1895.16;589.618;1.45
415;1907.37;591.571;1.45
416;1924.76;577.654;1.45
417;1929.65;569.842;1.45
418;1927.21;577.654;1.45
419;1900.04;603.29;1.45
420;1863.12;573.748;1.45
421;1845.72;567.888;1.45
422;1885.09;621.113;1.45
423;1912.25;583.514;1.46
424;1922.32;577.654;1.46
425;1924.76;577.654;1.46
426;1902.49;589.618;1.46
427;1877.77;597.43;1.46
428;1895.16;593.524;1.46
429;1936.97;565.935;1.46
430;1956.81;597.43;1.46
431;1966.57;595.477;1.46
432;1956.81;555.925;1.46
433;1924.76;581.561;1.46
434;1895.16;589.618;1.46
435;1904.93;591.571;1.47
436;1922.32;579.608;1.47
437;1927.21;565.935;1.47
438;1922.32;581.561;1.47
439;1897.6;599.384;1.47
440;1857.93;577.654;1.47
441;1840.84;563.738;1.47
442;1885.09;623.066;1.47
443;1909.81;583.514;1.47
444;1919.88;581.561;1.47
445;1922.32;575.701;1.47
446;1907.37;589.618;1.47
447;1877.77;593.524;1.48
448;1892.72;599.384;1.48
449;1934.53;561.785;1.48
450;1956.81;591.571;1.48
451;1964.13;599.384;1.48
452;1959.25;550.066;1.48
453;1922.32;581.561;1.48
454;1892.72;587.42;1.48
455;1902.49;593.524;1.48
456;1922.32;579.608;1.48
457;1927.21;569.842;1.48
458;1924.76;575.701;1.48
459;1900.04;603.29;1.48
460;1857.93;573.748;1.49
461;1840.84;573.748;1.49
462;1885.09;617.206;1.49
463;1907.37;583.514;1.49
464;1917.44;579.608;1.49
465;1919.88;575.701;1.49
466;1902.49;587.42;1.49
467;1877.77;599.384;1.49
468;1887.53;591.571;1.49
469;1934.53;569.842;1.49
470;1954.37;597.43;1.49
471;1966.57;591.571;1.49
472;1956.81;557.878;1.49
473;1919.88;583.514;1.5
474;1890.28;591.571;1.5
475;1902.49;593.524;1.5
476;1922.32;571.795;1.5
477;1924.76;581.561;1.5
478;1922.32;563.738;1.5
479;1895.16;609.149;1.5
480;1857.93;583.514;1.5
481;1843.28;555.925;1.5
482;1880.21;615.253;1.5
483;1904.93;583.514;1.5
484;1917.44;585.467;1.5
485;1919.88;573.748;1.51
486;1895.16;593.524;1.51
487;1872.88;583.514;1.51
488;1887.53;603.29;1.51
489;1932.09;557.878;1.51
490;1954.37;583.514;1.51
491;1966.57;611.347;1.51
492;1954.37;548.112;1.51
493;1924.76;581.561;1.51
494;1887.53;579.608;1.51
495;1900.04;595.477;1.51
496;1919.88;573.748;1.51
497;1924.76;581.561;1.51
498;1922.32;567.888;1.52
499;1897.6;611.347;1.52
500;1857.93;583.514;1.52
501;1843.28;561.785;1.52
502;1885.09;623.066;1.52
503;1909.81;587.42;1.52
504;1919.88;583.514;1.52
505;1922.32;575.701;1.52
506;1904.93;593.524;1.52
507;1875.32;587.42;1.52
508;1890.28;597.43;1.52
509;1936.97;559.832;1.52
510;1956.81;587.42;1.52
511;1971.76;607.196;1.53
512;1959.25;548.112;1.53
513;1927.21;583.514;1.53
514;1897.6;583.514;1.53
515;1907.37;593.524;1.53
516;1927.21;575.701;1.53
517;1934.53;575.701;1.53
518;1929.65;573.748;1.53
519;1904.93;607.196;1.53
520;1863.12;577.654;1.53
521;1850.6;567.888;1.53
522;1890.28;623.066;1.53
523;1912.25;585.467;1.54
524;1927.21;583.514;1.54
525;1922.32;575.701;1.54
526;1907.37;589.618;1.54
527;1880.21;593.524;1.54
528;1897.6;597.43;1.54
529;1939.41;563.738;1.54
530;1961.69;593.524;1.54
531;1974.2;599.384;1.54
532;1961.69;552.019;1.54
533;1929.65;583.514;1.54
534;1900.04;587.42;1.54
535;1907.37;591.571;1.54
536;1927.21;577.654;1.55
537;1934.53;569.842;1.55
538;1932.09;575.701;1.55
539;1907.37;601.337;1.55
540;1863.12;569.842;1.55
541;1853.05;575.701;1.55
542;1892.72;617.206;1.55
543;1917.44;587.42;1.55
544;1927.21;587.42;1.55
545;1929.65;573.748;1.55
546;1912.25;597.43;1.55
547;1882.65;583.514;1.55
548;1897.6;605.243;1.55
549;1941.85;557.878;1.56
550;1961.69;583.514;1.56
551;1974.2;613.3;1.56
552;1961.69;555.925;1.56
553;1929.65;579.608;1.56
554;1900.04;577.654;1.56
555;1909.81;593.524;1.56
556;1929.65;573.748;1.56
557;1934.53;583.514;1.56
558;1932.09;567.888;1.56
559;1904.93;611.347;1.56
560;1865.56;585.467;1.56
561;1850.6;555.925;1.56
562;1890.28;617.206;1.56
563;1914.69;587.42;1.57
564;1929.65;587.42;1.57
565;1927.21;573.748;1.57
566;1909.81;595.477;1.57
567;1882.65;587.42;1.57
568;1895.16;601.337;1.57
569;1941.85;559.832;1.57
570;1961.69;583.514;1.57
571;1974.2;613.3;1.57
572;1964.13;550.066;1.57
573;1932.09;579.608;1.57
574;1902.49;581.561;1.57
575;1912.25;593.524;1.57
576;1929.65;575.701;1.57
577;1934.53;579.608;1.58
578;1932.09;567.888;1.58
579;1909.81;611.347;1.58
580;1865.56;581.561;1.58
581;1853.05;561.785;1.58
582;1892.72;623.066;1.58
583;1917.44;585.467;1.58
584;1932.09;581.561;1.58
585;1932.09;575.701;1.58
586;1914.69;589.618;1.58
587;1887.53;589.618;1.58
588;1900.04;597.43;1.58
589;1944.6;561.785;1.58
590;1966.57;585.467;1.58
591;1981.53;605.243;1.59
592;1969.02;548.112;1.59
593;1934.53;581.561;1.59
594;1904.93;585.467;1.59
595;1912.25;593.524;1.59
596;1934.53;577.654;1.59
597;1939.41;573.748;1.59
598;1936.97;571.795;1.59
599;1912.25;605.243;1.59
600;1870.44;577.654;1.59
601;1855.49;565.935;1.59
602;1895.16;621.113;1.59
603;1919.88;585.467;1.59
604;1932.09;579.608;1.59
605;1932.09;575.701;1.59
606;1914.69;591.571;1.6
607;1885.09;593.524;1.6
608;1900.04;597.43;1.6
609;1944.6;563.738;1.6
610;1966.57;595.477;1.6
611;1976.65;597.43;1.6
612;1969.02;550.066;1.6
613;1934.53;579.608;1.6
614;1902.49;581.561;1.6
615;1909.81;591.571;1.6
616;1929.65;571.795;1.6
617;1936.97;577.654;1.6
618;1934.53;567.888;1.6
619;1907.37;609.149;1.6
620;1868;581.561;1.6
621;1853.05;559.832;1.61
622;1895.16;621.113;1.61
623;1917.44;583.514;1.61
624;1932.09;581.561;1.61
625;1929.65;573.748;1.61
626;1912.25;591.571;1.61
627;1885.09;587.42;1.61
628;1900.04;599.384;1.61
629;1941.85;559.832;1.61
630;1966.57;585.467;1.61
631;1976.65;605.243;1.61
632;1969.02;548.112;1.61
633;1934.53;581.561;1.61
634;1904.93;579.608;1.61
635;1912.25;591.571;1.61
636;1934.53;577.654;1.62
637;1939.41;573.748;1.62
638;1932.09;569.842;1.62
639;1912.25;603.29;1.62
640;1868;577.654;1.62
641;1855.49;563.738;1.62
642;1897.6;621.113;1.62
643;1919.88;583.514;1.62
644;1932.09;579.608;1.62
645;1934.53;573.748;1.62
646;1914.69;593.524;1.62
647;1885.09;583.514;1.62
648;1897.6;607.196;1.62
649;1944.6;565.935;1.62
650;1964.13;579.608;1.62
651;1974.2;613.3;1.62
652;1964.13;559.832;1.63
653;1932.09;575.701;1.63
654;1902.49;573.748;1.63
655;1909.81;591.571;1.63
656;1929.65;569.842;1.63
657;1934.53;577.654;1.63
658;1929.65;559.832;1.63
659;1904.93;605.243;1.63
660;1868;585.467;1.63
661;1850.6;552.019;1.63
662;1890.28;607.196;1.63
663;1917.44;587.42;1.63
664;1929.65;585.467;1.63
665;1932.09;573.748;1.63
666;1912.25;591.571;1.63
667;1887.53;581.561;1.64
668;1900.04;603.29;1.64
669;1947.04;559.832;1.64
670;1966.57;579.608;1.64
671;1974.2;613.3;1.64
672;1964.13;553.972;1.64
673;1947.04;577.654;1.64
674;1909.81;575.701;1.64
675;1902.49;591.571;1.64
676;1927.21;573.748;1.64
677;1936.97;577.654;1.64
678;1939.41;561.785;1.64
679;1924.76;607.196;1.64
680;1887.53;581.561;1.64
681;1855.49;552.019;1.64
682;1877.77;615.253;1.65
683;1914.69;585.467;1.65
684;1927.21;581.561;1.65
685;1934.53;571.795;1.65
686;1927.21;591.571;1.65
687;1900.04;581.561;1.65
688;1887.53;601.337;1.65
689;1929.65;555.925;1.65
690;1959.25;581.561;1.65
691;1976.65;603.29;1.65
692;1976.65;546.159;1.65
693;1949.48;577.654;1.65
694;1912.25;577.654;1.65
695;1904.93;591.571;1.65
696;1927.21;573.748;1.65
697;1936.97;573.748;1.66
698;1936.97;565.935;1.66
699;1924.76;603.29;1.66
700;1887.53;577.654;1.66
701;1853.05;561.785;1.66
702;1875.32;619.16;1.66
703;1912.25;583.514;1.66
704;1927.21;579.608;1.66
705;1936.97;571.795;1.66
706;1924.76;585.467;1.66
707;1897.6;585.467;1.66
708;1890.28;597.43;1.66
709;1932.09;557.878;1.66
710;1961.69;585.467;1.66
711;1979.09;599.384;1.66
712;1979.09;546.159;1.67
713;1954.37;579.608;1.67
714;1914.69;581.561;1.67
715;1907.37;587.42;1.67
716;1929.65;567.888;1.67
717;1936.97;577.654;1.67
718;1941.85;553.972;1.67
719;1927.21;599.384;1.67
720;1890.28;585.467;1.67
721;1855.49;548.112;1.67
722;1877.77;601.337;1.67
723;1914.69;587.42;1.67
724;1929.65;587.42;1.67
725;1934.53;567.888;1.67
726;1924.76;593.524;1.67
727;1897.6;581.561;1.67
728;1890.28;601.337;1.68
729;1929.65;563.738;1.68
730;1961.69;575.701;1.68
731;1976.65;611.347;1.68
732;1974.2;557.878;1.68
733;1949.48;573.748;1.68
734;1912.25;571.795;1.68
735;1902.49;589.618;1.68
736;1927.21;569.842;1.68
737;1936.97;577.654;1.68
738;1936.97;559.832;1.68
739;1924.76;607.196;1.68
740;1887.53;585.467;1.68
741;1853.05;550.066;1.68
742;1872.88;607.196;1.68
743;1912.25;585.467;1.69
744;1929.65;583.514;1.69
745;1934.53;569.842;1.69
746;1924.76;591.571;1.69
747;1897.6;579.608;1.69
748;1890.28;601.337;1.69
749;1932.09;557.878;1.69
750;1961.69;577.654;1.69
751;1976.65;609.149;1.69
752;1981.53;550.066;1.69
753;1954.37;577.654;1.69
754;1917.44;575.701;1.69
755;1907.37;589.618;1.69
756;1929.65;569.842;1.69
757;1939.41;577.654;1.69
758;1939.41;559.832;1.7
759;1927.21;607.196;1.7
760;1890.28;581.561;1.7
761;1855.49;552.019;1.7
762;1877.77;613.3;1.7
763;1917.44;583.514;1.7
764;1932.09;581.561;1.7
765;1939.41;571.795;1.7
766;1927.21;589.618;1.7
767;1902.49;581.561;1.7
768;1890.28;599.384;1.7
769;1932.09;553.972;1.7
770;1964.13;579.608;1.7
771;1976.65;603.29;1.7
772;1979.09;546.159;1.7
773;1954.37;577.654;1.71
774;1914.69;579.608;1.71
775;1907.37;589.618;1.71
776;1929.65;571.795;1.71
777;1939.41;571.795;1.71
778;1941.85;565.935;1.71
779;1924.76;605.243;1.71
780;1887.53;577.654;1.71
781;1855.49;555.925;1.71
782;1877.77;617.206;1.71
783;1914.69;579.608;1.71
784;1927.21;583.514;1.71
785;1936.97;569.842;1.71
786;1927.21;589.618;1.71
787;1900.04;579.608;1.71
788;1890.28;601.337;1.72
789;1929.65;555.925;1.72
790;1961.69;575.701;1.72
791;1976.65;609.149;1.72
792;1979.09;552.019;1.72
793;1951.93;577.654;1.72
794;1914.69;573.748;1.72
795;1907.37;589.618;1.72
796;1932.09;571.795;1.72
797;1939.41;577.654;1.72
798;1941.85;561.785;1.72
799;1924.76;609.149;1.72
800;1890.28;581.561;1.72
801;1855.49;555.925;1.72
802;1877.77;613.3;1.72
803;1919.88;583.514;1.72
804;1934.53;579.608;1.73
805;1941.85;573.748;1.73
806;1932.09;589.618;1.73
807;1904.93;583.514;1.73
808;1892.72;599.384;1.73
809;1932.09;557.878;1.73
810;1964.13;579.608;1.73
811;1976.65;605.243;1.73
812;1979.09;544.206;1.73
813;1951.93;577.654;1.73
814;1914.69;579.608;1.73
815;1904.93;587.42;1.73
816;1929.65;569.842;1.73
817;1936.97;573.748;1.73
818;1941.85;553.972;1.73
819;1927.21;593.524;1.74
820;1890.28;585.467;1.74
821;1857.93;552.019;1.74
822;1875.32;593.524;1.74
823;1912.25;589.618;1.74
824;1929.65;585.467;1.74
825;1934.53;569.842;1.74
826;1924.76;591.571;1.74
827;1902.49;581.561;1.74
828;1887.53;605.243;1.74
829;1929.65;569.842;1.74
830;1964.13;573.748;1.74
831;1979.09;611.347;1.74
832;1981.53;561.785;1.74
833;1956.81;571.795;1.74
834;1919.88;569.842;1.74
835;1909.81;587.42;1.75
836;1929.65;569.842;1.75
837;1941.85;575.701;1.75
838;1944.6;555.925;1.75
839;1929.65;597.43;1.75
840;1892.72;583.514;1.75
841;1860.37;548.112;1.75
842;1882.65;601.337;1.75
843;1919.88;585.467;1.75
844;1936.97;583.514;1.75
845;1944.6;569.842;1.75
846;1932.09;589.618;1.75
847;1907.37;581.561;1.75
848;1895.16;603.29;1.75
849;1939.41;561.785;1.75
850;1969.02;575.701;1.76
851;1983.97;607.196;1.76
852;1986.41;555.925;1.76
853;1961.69;573.748;1.76
854;1924.76;571.795;1.76
855;1912.25;589.618;1.76
856;1934.53;569.842;1.76
857;1947.04;577.654;1.76
858;1951.93;557.878;1.76
859;1936.97;605.243;1.76
860;1902.49;581.561;1.76
861;1865.56;548.112;1.76
862;1885.09;609.149;1.76
863;1924.76;583.514;1.76
864;1939.41;581.561;1.76
865;1949.48;569.842;1.77
866;1936.97;587.42;1.77
867;1912.25;579.608;1.77
868;1902.49;597.43;1.77
869;1939.41;553.972;1.77
870;1971.76;577.654;1.77
871;1988.85;605.243;1.77
872;1988.85;550.066;1.77
873;1964.13;577.654;1.77
874;1927.21;573.748;1.77
875;1917.44;585.467;1.77
876;1941.85;567.888;1.77
877;1951.93;577.654;1.77
878;1954.37;559.832;1.77
879;1939.41;605.243;1.77
880;1900.04;579.608;1.77
881;1868;553.972;1.78
882;1887.53;613.3;1.78
883;1929.65;583.514;1.78
884;1944.6;581.561;1.78
885;1949.48;571.795;1.78
886;1939.41;587.42;1.78
887;1912.25;579.608;1.78
888;1902.49;601.337;1.78
889;1941.85;573.748;1.78
890;1976.65;573.748;1.78
891;1988.85;607.196;1.78
892;1991.29;565.935;1.78
893;1966.57;567.888;1.78
894;1929.65;571.795;1.78
895;1917.44;589.618;1.78
896;1941.85;567.888;1.78
897;1954.37;575.701;1.79
898;1956.81;553.972;1.79
899;1941.85;591.571;1.79
900;1904.93;581.561;1.79
901;1872.88;548.112;1.79
902;1895.16;597.43;1.79
903;1932.09;587.42;1.79
904;1949.48;583.514;1.79
905;1959.25;567.888;1.79
906;1944.6;591.571;1.79
907;1922.32;577.654;1.79
908;1907.37;601.337;1.79
909;1947.04;567.888;1.79
910;1979.09;571.795;1.79
911;1993.74;609.149;1.79
912;1993.74;561.785;1.79
913;1971.76;571.795;1.8
914;1934.53;569.842;1.8
915;1924.76;585.467;1.8
916;1949.48;565.935;1.8
917;1956.81;577.654;1.8
918;1961.69;555.925;1.8
919;1947.04;599.384;1.8
920;1909.81;583.514;1.8
921;1872.88;548.112;1.8
922;1892.72;601.337;1.8
923;1934.53;585.467;1.8
924;1949.48;585.467;1.8
925;1956.81;567.888;1.8
926;1947.04;591.571;1.8
927;1919.88;577.654;1.8
928;1907.37;601.337;1.81
929;1947.04;559.832;1.81
930;1981.53;573.748;1.81
931;1993.74;609.149;1.81
932;1996.18;552.019;1.81
933;1971.76;575.701;1.81
934;1932.09;571.795;1.81
935;1919.88;589.618;1.81
936;1944.6;565.935;1.81
937;1956.81;575.701;1.81
938;1956.81;557.878;1.81
939;1944.6;603.29;1.81
940;1909.81;583.514;1.81
941;1870.44;550.066;1.81
942;1890.28;607.196;1.81
943;1929.65;581.561;1.81
944;1944.6;583.514;1.82
945;1951.93;569.842;1.82
946;1941.85;587.42;1.82
947;1914.69;579.608;1.82
948;1904.93;601.337;1.82
949;1947.04;553.972;1.82
950;1979.09;577.654;1.82
951;1993.74;605.243;1.82
952;1996.18;548.112;1.82
953;1971.76;575.701;1.82
954;1932.09;569.842;1.82
955;1922.32;589.618;1.82
956;1947.04;567.888;1.82
957;1956.81;579.608;1.82
958;1961.69;553.972;1.82
959;1944.6;599.384;1.82
960;1909.81;581.561;1.83
961;1875.32;546.159;1.83
962;1895.16;599.384;1.83
963;1932.09;583.514;1.83
964;1949.48;583.514;1.83
965;1951.93;565.935;1.83
966;1944.6;591.571;1.83
967;1917.44;577.654;1.83
968;1907.37;603.29;1.83
969;1949.48;557.878;1.83
970;1983.97;575.701;1.83
971;1998.92;607.196;1.83
972;2001.37;553.972;1.83
973;1976.65;571.795;1.83
974;1939.41;571.795;1.83
975;1924.76;587.42;1.83
976;1949.48;567.888;1.83
977;1959.25;577.654;1.84
978;1961.69;555.925;1.84
979;1947.04;605.243;1.84
980;1912.25;581.561;1.84
981;1875.32;552.019;1.84
982;1897.6;609.149;1.84
983;1934.53;579.608;1.84
984;1951.93;581.561;1.84
985;1959.25;569.842;1.84
986;1951.93;589.618;1.84
987;1922.32;579.608;1.84
988;1909.81;599.384;1.84
989;1949.48;575.701;1.84
990;1983.97;569.842;1.84
991;1998.92;605.243;1.84
992;2001.37;571.795;1.84
993;1976.65;563.738;1.84
994;1941.85;571.795;1.84
995;1927.21;589.618;1.85
996;1951.93;573.748;1.85
997;1961.69;575.701;1.85
998;1964.13;552.019;1.85
999;1951.93;591.571;1.85
1000;1914.69;585.467;1.85
1001;1877.77;546.159;1.85
1002;1897.6;587.42;1.85
1003;1936.97;591.571;1.85
1004;1951.93;583.514;1.85
1005;1961.69;567.888;1.85
1006;1951.93;587.42;1.85
1007;1924.76;581.561;1.85
1008;1912.25;603.29;1.85
1009;1951.93;569.842;1.85
1010;1983.97;573.748;1.85
1011;1998.92;609.149;1.85
1012;2003.81;563.738;1.86
1013;1979.09;569.842;1.86
1014;1939.41;569.842;1.86
1015;1929.65;587.42;1.86
1016;1951.93;567.888;1.86
1017;1964.13;577.654;1.86
1018;1966.57;550.066;1.86
1019;1954.37;591.571;1.86
1020;1917.44;583.514;1.86
1021;1882.65;546.159;1.86
1022;1900.04;597.43;1.86
1023;1939.41;585.467;1.86
1024;1956.81;585.467;1.86
1025;1961.69;565.935;1.86
1026;1951.93;591.571;1.86
1027;1927.21;577.654;1.86
1028;1912.25;603.29;1.86
1029;1954.37;565.935;1.87
1030;1986.41;577.654;1.87
1031;2001.37;609.149;1.87
1032;2003.81;557.878;1.87
1033;1979.09;571.795;1.87
1034;1941.85;569.842;1.87
1035;1927.21;591.571;1.87
1036;1954.37;567.888;1.87
1037;1964.13;575.701;1.87
1038;1969.02;553.972;1.87
1039;1951.93;601.337;1.87
1040;1917.44;583.514;1.87
1041;1880.21;548.112;1.87
1042;1900.04;599.384;1.87
1043;1939.41;583.514;1.87
1044;1954.37;583.514;1.87
1045;1961.69;567.888;1.87
1046;1951.93;589.618;1.88
1047;1927.21;577.654;1.88
1048;1912.25;599.384;1.88
1049;1951.93;557.878;1.88
1050;1986.41;575.701;1.88
1051;2001.37;607.196;1.88
1052;2003.81;552.019;1.88
1053;1979.09;573.748;1.88
1054;1941.85;569.842;1.88
1055;1927.21;585.467;1.88
1056;1951.93;565.935;1.88
1057;1964.13;573.748;1.88
1058;1966.57;553.972;1.88
1059;1954.37;583.514;1.88
1060;1919.88;587.42;1.88
1061;1885.09;552.019;1.88
1062;1902.49;583.514;1.88
1063;1939.41;595.477;1.89
1064;1956.81;579.608;1.89
1065;1964.13;567.888;1.89
1066;1954.37;581.561;1.89
1067;1927.21;581.561;1.89
1068;1914.69;605.243;1.89
1069;1954.37;575.701;1.89
1070;1988.85;571.795;1.89
1071;2006.25;609.149;1.89
1072;2006.25;571.795;1.89
1073;1983.97;567.888;1.89
1074;1944.6;571.795;1.89
1075;1932.09;587.42;1.89
1076;1956.81;575.701;1.89
1077;1966.57;575.701;1.89
1078;1971.76;552.019;1.89
1079;1956.81;587.42;1.89
1080;1922.32;583.514;1.9
1081;1885.09;548.112;1.9
1082;1902.49;589.618;1.9
1083;1944.6;591.571;1.9
1084;1959.25;583.514;1.9
1085;1969.02;565.935;1.9
1086;1961.69;587.42;1.9
1087;1932.09;579.608;1.9
1088;1917.44;603.29;1.9
1089;1959.25;569.842;1.9
1090;1993.74;571.795;1.9
1091;2006.25;609.149;1.9
1092;2011.13;561.785;1.9
1093;1983.97;567.888;1.9
1094;1947.04;569.842;1.9
1095;1932.09;585.467;1.9
1096;1959.25;567.888;1.91
1097;1969.02;573.748;1.91
1098;1971.76;550.066;1.91
1099;1959.25;593.524;1.91
1100;1922.32;581.561;1.91
1101;1887.53;548.112;1.91
1102;1907.37;597.43;1.91
1103;1947.04;585.467;1.91
1104;1961.69;581.561;1.91
1105;1969.02;569.842;1.91
1106;1959.25;589.618;1.91
1107;1932.09;575.701;1.91
1108;1919.88;603.29;1.91
1109;1961.69;561.785;1.91
1110;1993.74;571.795;1.91
1111;2013.57;609.149;1.91
1112;2016.01;555.925;1.92
1113;1991.29;573.748;1.92
1114;1949.48;569.842;1.92
1115;1941.85;587.42;1.92
1116;1964.13;567.888;1.92
1117;1974.2;575.701;1.92
1118;1976.65;553.972;1.92
1119;1961.69;601.337;1.92
1120;1924.76;581.561;1.92
1121;1890.28;548.112;1.92
1122;1912.25;601.337;1.92
1123;1949.48;581.561;1.92
1124;1966.57;581.561;1.92
1125;1976.65;567.888;1.92
1126;1966.57;591.571;1.92
1127;1936.97;577.654;1.92
1128;1924.76;601.337;1.93
1129;1966.57;569.842;1.93
1130;2001.37;571.795;1.93
1131;2013.57;607.196;1.93
1132;2016.01;563.738;1.93
1133;1993.74;567.888;1.93
1134;1956.81;569.842;1.93
1135;1941.85;589.618;1.93
1136;1969.02;567.888;1.93
1137;1976.65;573.748;1.93
1138;1981.53;552.019;1.93
1139;1966.57;595.477;1.93
1140;1927.21;583.514;1.93
1141;1892.72;546.159;1.93
1142;1914.69;597.43;1.93
1143;1951.93;583.514;1.93
1144;1966.57;583.514;1.94
1145;1976.65;569.842;1.94
1146;1966.57;591.571;1.94
1147;1939.41;579.608;1.94
1148;1924.76;603.29;1.94
1149;1964.13;563.738;1.94
1150;1998.92;575.701;1.94
1151;2013.57;609.149;1.94
1152;2018.46;557.878;1.94
1153;1991.29;573.748;1.94
1154;1954.37;569.842;1.94
1155;1941.85;585.467;1.94
1156;1966.57;565.935;1.94
1157;1979.09;575.701;1.94
1158;1981.53;553.972;1.94
1159;1969.02;579.608;1.94
1160;1932.09;587.42;1.95
1161;1895.16;552.019;1.95
1162;1912.25;579.608;1.95
1163;1951.93;599.384;1.95
1164;1969.02;577.654;1.95
1165;1976.65;567.888;1.95
1166;1971.76;577.654;1.95
1167;1941.85;577.654;1.95
1168;1929.65;599.384;1.95
1169;1969.02;577.654;1.95
1170;2001.37;567.888;1.95
1171;2016.01;605.243;1.95
1172;2020.9;573.748;1.95
1173;1991.29;561.785;1.95
1174;1956.81;571.795;1.95
1175;1941.85;587.42;1.96
1176;1969.02;575.701;1.96
1177;1981.53;571.795;1.96
1178;1983.97;552.019;1.96
1179;1969.02;585.467;1.96
1180;1934.53;585.467;1.96
1181;1897.6;550.066;1.96
1182;1912.25;583.514;1.96
1183;1954.37;593.524;1.96
1184;1971.76;581.561;1.96
1185;1979.09;565.935;1.96
1186;1971.76;583.514;1.96
1187;1941.85;579.608;1.96
1188;1929.65;601.337;1.96
1189;1971.76;571.795;1.96
1190;2006.25;571.795;1.96
1191;2023.34;607.196;1.97
1192;2026.09;565.935;1.97
1193;2001.37;567.888;1.97
1194;1959.25;571.795;1.97
1195;1947.04;585.467;1.97
1196;1971.76;571.795;1.97
1197;1983.97;575.701;1.97
1198;1986.41;552.019;1.97
1199;1974.2;589.618;1.97
1200;1936.97;583.514;1.97
1201;1900.04;546.159;1.97
1202;1917.44;591.571;1.97
1203;1956.81;589.618;1.97
1204;1974.2;581.561;1.97
1205;1981.53;565.935;1.97
1206;1971.76;589.618;1.97
1207;1944.6;579.608;1.98
1208;1927.21;599.384;1.98
1209;1974.2;569.842;1.98
1210;2008.69;573.748;1.98
1211;2023.34;609.149;1.98
1212;2023.34;559.832;1.98
1213;1998.92;565.935;1.98
1214;1961.69;569.842;1.98
1215;1947.04;587.42;1.98
1216;1971.76;565.935;1.98
1217;1986.41;575.701;1.98
1218;1986.41;552.019;1.98
1219;1974.2;595.477;1.98
1220;1936.97;583.514;1.98
1221;1902.49;546.159;1.98
1222;1914.69;597.43;1.98
1223;1956.81;585.467;1.99
1224;1971.76;585.467;1.99
1225;1981.53;567.888;1.99
1226;1971.76;589.618;1.99
1227;1944.6;579.608;1.99
1228;1929.65;597.43;1.99
1229;1974.2;579.608;1.99
1230;2008.69;563.738;1.99
1231;2026.09;601.337;1.99
1232;2026.09;577.654;1.99
1233;2001.37;555.925;1.99
1234;1964.13;573.748;1.99
1235;1949.48;587.42;1.99
1236;1976.65;583.514;1.99
1237;1986.41;573.748;1.99
1238;1988.85;555.925;2
1239;1976.65;577.654;2
1240;1941.85;587.42;2
1241;1904.93;550.066;2
1242;1922.32;581.561;2
1243;1961.69;599.384;2
1244;1981.53;577.654;2
1245;1988.85;567.888;2
1246;1976.65;575.701;2
1247;1951.93;579.608;2
1248;1934.53;599.384;2
1249;1976.65;575.701;2
1250;2011.13;569.842;2
1251;2026.09;605.243;2
1252;2033.41;573.748;2
1253;2006.25;559.832;2
1254;1969.02;571.795;2.01
1255;1954.37;585.467;2.01
1256;1979.09;577.654;2.01
1257;1991.29;571.795;2.01
1258;1993.74;552.019;2.01
1259;1979.09;587.42;2.01
1260;1944.6;583.514;2.01
1261;1907.37;548.112;2.01
1262;1924.76;585.467;2.01
1263;1964.13;593.524;2.01
1264;1983.97;579.608;2.01
1265;1988.85;565.935;2.01
1266;1979.09;581.561;2.01
1267;1954.37;579.608;2.01
1268;1936.97;601.337;2.01
1269;1981.53;573.748;2.02
1270;2013.57;573.748;2.02
1271;2028.53;607.196;2.02
1272;2033.41;567.888;2.02
1273;2008.69;565.935;2.02
1274;1969.02;569.842;2.02
1275;1954.37;587.42;2.02
1276;1983.97;569.842;2.02
1277;1993.74;575.701;2.02
1278;1998.92;552.019;2.02
1279;1983.97;589.618;2.02
1280;1947.04;581.561;2.02
1281;1909.81;546.159;2.02
1282;1927.21;589.618;2.02
1283;1966.57;587.42;2.02
1284;1983.97;583.514;2.02
1285;1993.74;567.888;2.03
1286;1986.41;589.618;2.03
1287;1956.81;579.608;2.03
1288;1944.6;601.337;2.03
1289;1983.97;567.888;2.03
1290;2016.01;571.795;2.03
1291;2033.41;607.196;2.03
1292;2035.85;561.785;2.03
1293;2008.69;567.888;2.03
1294;1971.76;567.888;2.03
1295;1956.81;585.467;2.03
1296;1983.97;577.654;2.03
1297;1993.74;569.842;2.03
1298;1996.18;550.066;2.03
1299;1981.53;583.514;2.03
1300;1944.6;583.514;2.03
1301;1907.37;546.159;2.04
1302;1922.32;585.467;2.04
1303;1966.57;593.524;2.04
1304;1981.53;581.561;2.04
1305;1988.85;565.935;2.04
1306;1981.53;583.514;2.04
1307;1951.93;579.608;2.04
1308;1936.97;603.29;2.04
1309;1979.09;571.795;2.04
1310;2013.57;571.795;2.04
1311;2028.53;607.196;2.04
1312;2030.97;563.738;2.04
1313;2008.69;567.888;2.04
1314;1969.02;569.842;2.04
1315;1956.81;587.42;2.04
1316;1981.53;569.842;2.05
1317;1988.85;573.748;2.05
1318;1996.18;552.019;2.05
1319;1983.97;591.571;2.05
1320;1947.04;581.561;2.05
1321;1909.81;546.159;2.05
1322;1927.21;589.618;2.05
1323;1969.02;587.42;2.05
1324;1988.85;583.514;2.05
1325;1993.74;567.888;2.05
1326;1983.97;589.618;2.05
1327;1954.37;579.608;2.05
1328;1939.41;601.337;2.05
1329;1983.97;567.888;2.05
1330;2018.46;561.785;2.05
1331;2035.85;595.477;2.05
1332;2035.85;585.467;2.06
1333;2013.57;552.019;2.06
1334;1976.65;575.701;2.06
1335;1961.69;583.514;2.06
1336;1986.41;585.467;2.06
1337;1998.92;573.748;2.06
1338;2001.37;555.925;2.06
1339;1988.85;575.701;2.06
1340;1951.93;589.618;2.06
1341;1912.25;557.878;2.06
1342;1929.65;571.795;2.06
1343;1974.2;603.29;2.06
1344;1991.29;575.701;2.06
1345;1996.18;567.888;2.06
1346;1988.85;567.888;2.06
1347;1961.69;581.561;2.06
1348;1944.6;599.384;2.07
1349;1986.41;579.608;2.07
1350;2023.34;565.935;2.07
1351;2038.29;599.384;2.07
1352;2040.73;575.701;2.07
1353;2018.46;555.925;2.07
1354;1979.09;575.701;2.07
1355;1966.57;585.467;2.07
1356;1988.85;583.514;2.07
1357;2001.37;573.748;2.07
1358;2003.81;553.972;2.07
1359;1991.29;579.608;2.07
1360;1954.37;587.42;2.07
1361;1912.25;546.159;2.07
1362;1932.09;579.608;2.07
1363;1976.65;599.384;2.07
1364;1993.74;579.608;2.08
1365;2003.81;565.935;2.08
1366;1993.74;575.701;2.08
1367;1969.02;579.608;2.08
1368;1951.93;601.337;2.08
1369;1991.29;575.701;2.08
1370;2028.53;567.888;2.08
1371;2043.18;603.29;2.08
1372;2048.06;571.795;2.08
1373;2020.9;561.785;2.08
1374;1986.41;571.795;2.08
1375;1971.76;587.42;2.08
1376;1996.18;573.748;2.08
1377;2011.13;573.748;2.08
1378;2013.57;552.019;2.08
1379;1998.92;585.467;2.08
1380;1959.25;583.514;2.09
1381;1922.32;550.066;2.09
1382;1941.85;587.42;2.09
1383;1981.53;593.524;2.09
1384;2001.37;583.514;2.09
1385;2011.13;565.935;2.09
1386;2001.37;585.467;2.09
1387;1974.2;579.608;2.09
1388;1954.37;603.29;2.09
1389;1998.92;571.795;2.09
1390;2035.85;569.842;2.09
1391;2048.06;607.196;2.09
1392;2053.25;565.935;2.09
1393;2026.09;567.888;2.09
1394;1991.29;567.888;2.09
1395;1974.2;587.42;2.09
1396;2001.37;569.842;2.1
1397;2016.01;575.701;2.1
1398;2016.01;552.019;2.1
1399;2003.81;569.842;2.1
1400;1966.57;593.524;2.1
1401;1929.65;559.832;2.1
1402;1949.48;569.842;2.1
1403;1991.29;609.149;2.1
1404;2011.13;573.748;2.1
1405;2018.46;567.888;2.1
1406;2008.69;571.795;2.1
1407;1979.09;581.561;2.1
1408;1964.13;595.477;2.1
1409;2006.25;583.514;2.1
1410;2040.73;561.785;2.1
1411;2060.57;595.477;2.1
1412;2060.57;581.561;2.11
1413;2038.29;550.066;2.11
1414;1998.92;573.748;2.11
1415;1983.97;585.467;2.11
1416;2008.69;585.467;2.11
1417;2020.9;571.795;2.11
1418;2018.46;555.925;2.11
1419;2008.69;575.701;2.11
1420;1969.02;589.618;2.11
1421;1929.65;553.972;2.11
1422;1949.48;573.748;2.11
1423;1991.29;601.337;2.11
1424;2008.69;575.701;2.11
1425;2018.46;565.935;2.11
1426;2008.69;571.795;2.11
1427;1979.09;579.608;2.11
1428;1966.57;597.43;2.12
1429;2006.25;577.654;2.12
1430;2043.18;565.935;2.12
1431;2058.13;599.384;2.12
1432;2058.13;575.701;2.12
1433;2035.85;559.832;2.12
1434;1996.18;573.748;2.12
1435;1981.53;585.467;2.12
1436;2003.81;583.514;2.12
1437;2018.46;573.748;2.12
1438;2020.9;552.019;2.12
1439;2008.69;579.608;2.12
1440;1969.02;585.467;2.12
1441;1932.09;550.066;2.12
1442;1939.41;579.608;2.12
1443;1983.97;597.43;2.13
1444;2006.25;579.608;2.13
1445;2018.46;561.785;2.13
1446;2011.13;575.701;2.13
1447;1986.41;579.608;2.13
1448;1964.13;601.337;2.13
1449;1996.18;571.795;2.13
1450;2040.73;565.935;2.13
1451;2060.57;605.243;2.13
1452;2065.45;565.935;2.13
1453;2048.06;561.785;2.13
1454;2011.13;569.842;2.13
1455;1983.97;585.467;2.13
1456;2003.81;571.795;2.13
1457;2023.34;571.795;2.13
1458;2028.53;552.019;2.14
1459;2020.9;585.467;2.14
1460;1983.97;583.514;2.14
1461;1944.6;546.159;2.14
1462;1947.04;585.467;2.14
1463;1991.29;589.618;2.14
1464;2013.57;583.514;2.14
1465;2023.34;563.738;2.14
1466;2016.01;585.467;2.14
1467;1991.29;579.608;2.14
1468;1969.02;597.43;2.14
1469;2001.37;575.701;2.14
1470;2043.18;565.935;2.14
1471;2060.57;601.337;2.14
1472;2067.9;573.748;2.15
1473;2053.25;557.878;2.15
1474;2013.57;571.795;2.15
1475;1988.85;583.514;2.15
1476;2008.69;583.514;2.15
1477;2028.53;571.795;2.15
1478;2030.97;552.019;2.15
1479;2023.34;579.608;2.15
1480;1986.41;583.514;2.15
1481;1947.04;544.206;2.15
1482;1949.48;577.654;2.15
1483;1996.18;593.524;2.15
1484;2013.57;575.701;2.15
1485;2023.34;563.738;2.15
1486;2023.34;573.748;2.15
1487;1996.18;577.654;2.16
1488;1974.2;603.29;2.16
1489;2006.25;571.795;2.16
1490;2050.5;567.888;2.16
1491;2067.9;603.29;2.16
1492;2075.22;567.888;2.16
1493;2055.69;561.785;2.16
1494;2020.9;567.888;2.16
1495;1993.74;585.467;2.16
1496;2013.57;573.748;2.16
1497;2030.97;571.795;2.16
1498;2035.85;548.112;2.16
1499;2028.53;581.561;2.16
1500;1993.74;583.514;2.16
1501;1951.93;542.009;2.17
1502;1954.37;561.785;2.17
1503;2001.37;611.347;2.17
1504;2023.34;575.701;2.17
1505;2033.41;567.888;2.17
1506;2028.53;569.842;2.17
1507;2001.37;579.608;2.17
1508;1979.09;589.618;2.17
1509;2008.69;585.467;2.17
1510;2053.25;557.878;2.17
1511;2072.78;587.42;2.17
1512;2077.66;587.42;2.17
1513;2060.57;546.159;2.17
1514;2023.34;573.748;2.17
1515;1996.18;581.561;2.18
1516;2018.46;585.467;2.18
1517;2035.85;569.842;2.18
1518;2038.29;555.925;2.18
1519;2028.53;569.842;2.18
1520;1993.74;589.618;2.18
1521;1951.93;557.878;2.18
1522;1954.37;565.935;2.18
1523;2001.37;605.243;2.18
1524;2023.34;573.748;2.18
1525;2033.41;563.738;2.18
1526;2030.97;569.842;2.18
1527;2001.37;577.654;2.18
1528;1981.53;595.477;2.18
1529;2011.13;577.654;2.19
1530;2053.25;559.832;2.19
1531;2070.34;593.524;2.19
1532;2077.66;579.608;2.19
1533;2060.57;550.066;2.19
1534;2026.09;573.748;2.19
1535;1998.92;583.514;2.19
1536;2020.9;585.467;2.19
1537;2038.29;569.842;2.19
1538;2040.73;552.019;2.19
1539;2030.97;573.748;2.19
1540;1998.92;587.42;2.19
1541;1954.37;548.112;2.19
1542;1959.25;573.748;2.2
1543;2008.69;601.337;2.2
1544;2030.97;573.748;2.2
1545;2043.18;561.785;2.2
1546;2035.85;567.888;2.2
1547;2011.13;577.654;2.2
1548;1988.85;597.43;2.2
1549;2018.46;573.748;2.2
1550;2060.57;563.738;2.2
1551;2080.41;599.384;2.2
1552;2087.73;571.795;2.2
1553;2065.45;553.972;2.2
1554;2026.09;569.842;2.2
1555;2001.37;585.467;2.21
1556;2020.9;581.561;2.21
1557;2040.73;569.842;2.21
1558;2043.18;548.112;2.21
1559;2035.85;579.608;2.21
1560;2003.81;585.467;2.21
1561;1961.69;546.159;2.21
1562;1959.25;579.608;2.21
1563;2008.69;591.571;2.21
1564;2028.53;577.654;2.21
1565;2040.73;561.785;2.21
1566;2035.85;577.654;2.21
1567;2008.69;577.654;2.21
1568;1983.97;599.384;2.22
1569;2016.01;571.795;2.22
1570;2060.57;565.935;2.22
1571;2080.41;583.514;2.22
1572;2087.73;591.571;2.22
1573;2070.34;538.102;2.22
1574;2030.97;573.748;2.22
1575;2003.81;577.654;2.22
1576;2028.53;583.514;2.22
1577;2043.18;567.888;2.22
1578;2045.62;561.785;2.22
1579;2035.85;565.935;2.22
1580;2003.81;593.524;2.22
1581;1961.69;561.785;2.22
1582;1964.13;561.785;2.23
1583;2011.13;609.149;2.23
1584;2030.97;573.748;2.23
1585;2043.18;565.935;2.23
1586;2040.73;565.935;2.23
1587;2013.57;579.608;2.23
1588;1988.85;587.42;2.23
1589;2020.9;581.561;2.23
1590;2063.01;553.972;2.23
1591;2082.85;587.42;2.23
1592;2090.17;583.514;2.23
1593;2072.78;544.206;2.23
1594;2035.85;571.795;2.23
1595;2008.69;579.608;2.24
1596;2030.97;581.561;2.24
1597;2048.06;567.888;2.24
1598;2053.25;553.972;2.24
1599;2043.18;571.795;2.24
1600;2011.13;589.618;2.24
1601;1966.57;555.925;2.24
1602;1969.02;565.935;2.24
1603;2013.57;603.29;2.24
1604;2038.29;571.795;2.24
1605;2050.5;565.935;2.24
1606;2045.62;565.935;2.24
1607;2018.46;575.701;2.25
1608;1991.29;591.571;2.25
1609;2023.34;579.608;2.25
1610;2070.34;559.832;2.25
1611;2087.73;595.477;2.25
1612;2092.62;577.654;2.25
1613;2075.22;548.112;2.25
1614;2035.85;571.795;2.25
1615;2008.69;583.514;2.25
1616;2033.41;579.608;2.25
1617;2050.5;569.842;2.25
1618;2058.13;550.066;2.25
1619;2048.06;573.748;2.25
1620;2016.01;585.467;2.26
1621;1971.76;548.112;2.26
1622;1974.2;573.748;2.26
1623;2023.34;599.384;2.26
1624;2045.62;575.701;2.26
1625;2055.69;561.785;2.26
1626;2053.25;567.888;2.26
1627;2028.53;575.701;2.26
1628;2001.37;599.384;2.26
1629;2033.41;575.701;2.26
1630;2072.78;563.738;2.26
1631;2092.62;601.337;2.26
1632;2102.38;569.842;2.27
1633;2082.85;553.972;2.27
1634;2045.62;569.842;2.27
1635;2020.9;583.514;2.27
1636;2040.73;577.654;2.27
1637;2060.57;569.842;2.27
1638;2063.01;548.112;2.27
1639;2058.13;581.561;2.27
1640;2023.34;589.618;2.27
1641;1979.09;557.878;2.27
1642;1979.09;567.888;2.27
1643;2026.09;603.29;2.27
1644;2053.25;571.795;2.27
1645;2060.57;559.832;2.28
1646;2058.13;565.935;2.28
1647;2033.41;577.654;2.28
1648;2008.69;593.524;2.28
1649;2038.29;575.701;2.28
1650;2082.85;557.878;2.28
1651;2102.38;593.524;2.28
1652;2112.45;575.701;2.28
1653;2092.62;550.066;2.28
1654;2050.5;571.795;2.28
1655;2026.09;581.561;2.28
1656;2048.06;581.561;2.28
1657;2065.45;569.842;2.29
1658;2070.34;552.019;2.29
1659;2065.45;575.701;2.29
1660;2028.53;583.514;2.29
1661;1986.41;548.112;2.29
1662;1988.85;573.748;2.29
1663;2035.85;597.43;2.29
1664;2058.13;575.701;2.29
1665;2070.34;561.785;2.29
1666;2063.01;567.888;2.29
1667;2040.73;575.701;2.29
1668;2013.57;597.43;2.29
1669;2045.62;573.748;2.3
1670;2090.17;563.738;2.3
1671;2110.01;599.384;2.3
1672;2119.78;567.888;2.3
1673;2099.94;553.972;2.3
1674;2060.57;571.795;2.3
1675;2033.41;571.795;2.3
1676;2058.13;581.561;2.3
1677;2075.22;563.738;2.3
1678;2075.22;563.738;2.3
1679;2070.34;561.785;2.3
1680;2035.85;595.477;2.3
1681;1993.74;567.888;2.31
1682;1993.74;553.972;2.31
1683;2040.73;609.149;2.31
1684;2063.01;571.795;2.31
1685;2072.78;567.888;2.31
1686;2067.9;563.738;2.31
1687;2043.18;573.748;2.31
1688;2018.46;581.561;2.31
1689;2048.06;585.467;2.31
1690;2092.62;552.019;2.31
1691;2114.89;579.608;2.31
1692;2122.22;587.42;2.31
1693;2102.38;538.102;2.32
1694;2065.45;569.842;2.32
1695;2040.73;577.654;2.32
1696;2060.57;581.561;2.32
