<WeldAnalyseData xmlns:i="http:www.w3.org/2001/XMLSchema-instance">
<WeldParameter>
<TimeStamp>DT#2024-01-25-11:51:24</TimeStamp>
<Generator>SG-22-10000</Generator>
<GenFreq>20</GenFreq>
<MaxForce>8000</MaxForce>
<MaxPower>10000</MaxPower>
<RunupPressure>1.5</RunupPressure>
<RunupDist>10</RunupDist>
<RunPress>0.8</RunPress>
<ShakeDelay>0.03</ShakeDelay>
<ShakeTime>0.3</ShakeTime>
<RunBackPress1>6</RunBackPress1>
<RunBackPress2>2</RunBackPress2>
<RunBackDist>1</RunBackDist>
<TrigValue>500</TrigValue>
<TrigModeUnit>W</TrigModeUnit>
<WeldModeUnit>Ws</WeldModeUnit>
<PressNr>0</PressNr>
<MaxLoss>1500</MaxLoss>
</WeldParameter>
<WeldSets>
<WeldSet>
<PressRiseTime>0</PressRiseTime>
<RunPressure>1</RunPressure>
<Amplitude>86</Amplitude>
<WeldMode>3270</WeldMode>
</WeldSet>
</WeldSets>
<WeldValue>
<WeldNr>3009</WeldNr>
<RecipeName>RickStyle</RecipeName>
<WeldTime>1661</WeldTime>
<DistDiff>2.28</DistDiff>
<DistAbs>77.93</DistAbs>
<Energy>3270.71</Energy>
<MaxPower>2183.81</MaxPower>
<CycleTime>6030</CycleTime>
<TrigForce>502.701</TrigForce>
<TrigDist>75.65</TrigDist>
<RunSpeed>68.7727</RunSpeed>
<MaxForce>626.972</MaxForce>
<LossPower>324.812</LossPower>
</WeldValue>
</WeldAnalyseData>
#CSV-START#
ms;Power[W];Force[N];Distance[mm]
1;0;0;0
2;0;500.748;0
3;0;508.56;0
4;0;504.654;0
5;0;506.607;0
6;0;504.654;0
7;0;506.607;0
8;0;496.597;0
9;0;431.654;0.0199966
10;0;413.831;0.0400009
11;0;378.185;0.0699997
12;35.6113;360.363;0.110001
13;109.466;340.831;0.150002
14;196.139;326.914;0.189995
15;272.435;305.185;0.229996
16;334.388;317.148;0.269997
17;388.71;295.419;0.32
18;443.033;269.539;0.360001
19;516.888;312.998;0.409996
20;586.165;295.419;0.459999
21;647.813;301.279;0.5
22;717.09;295.419;0.529999
23;783.62;312.998;0.57
24;848.014;317.148;0.599998
25;926.752;342.784;0.619995
26;1003.35;321.055;0.639999
27;1070.19;350.597;0.659996
28;1134.28;386.242;0.669998
29;1183.72;350.597;0.68
30;1208.44;390.149;0.689995
31;1227.97;396.008;0.699997
32;1267.64;413.831;0.699997
33;1309.45;405.774;0.699997
34;1339.36;413.831;0.699997
35;1366.52;403.821;0.709999
36;1378.73;439.467;0.709999
37;1376.29;419.691;0.720001
38;1390.94;409.925;0.720001
39;1450.45;463.149;0.729996
40;1494.7;429.456;0.729996
41;1529.49;427.503;0.739998
42;1556.65;425.55;0.739998
43;1568.86;437.513;0.75
44;1571.3;443.373;0.75
45;1610.98;445.326;0.760002
46;1672.62;415.784;0.760002
47;1716.88;441.42;0.769997
48;1746.48;453.383;0.779999
49;1758.99;407.971;0.779999
50;1749.23;439.467;0.790001
51;1739.15;445.326;0.790001
52;1771.2;451.186;0.799995
53;1810.87;437.513;0.809998
54;1835.59;431.654;0.809998
55;1850.24;439.467;0.82
56;1840.48;469.008;0.830002
57;1813.31;439.467;0.839996
58;1823.08;445.326;0.839996
59;1882.29;490.738;0.849998
60;1919.52;459.243;0.849998
61;1944.24;453.383;0.860001
62;1956.45;459.243;0.869995
63;1946.68;470.962;0.869995
64;1926.84;482.925;0.879997
65;1958.89;477.065;0.879997
66;2018.09;453.383;0.889999
67;2048;488.784;0.889999
68;2067.53;480.972;0.900002
69;2062.65;445.326;0.900002
70;2030.61;477.065;0.909996
71;2003.44;484.878;0.909996
72;2025.72;488.784;0.919998
73;2055.33;477.065;0.919998
74;2067.53;461.196;0.93
75;2069.98;475.112;0.93
76;2045.26;506.607;0.93
77;2001;480.972;0.939995
78;1996.12;469.008;0.939995
79;2045.26;526.383;0.949997
80;2077.6;490.738;0.949997
81;2094.7;488.784;0.959999
82;2097.14;488.784;0.959999
83;2075.16;500.748;0.970001
84;2050.44;504.654;0.970001
85;2075.16;506.607;0.970001
86;2126.74;477.065;0.979996
87;2153.9;510.514;0.979996
88;2166.41;512.467;0.989998
89;2151.46;469.008;0.989998
90;2112.09;502.701;0.989998
91;2082.49;508.56;1
92;2094.7;512.467;1
93;2121.86;500.748;1
94;2134.37;492.691;1.01
95;2129.49;502.701;1.01
96;2097.14;526.383;1.01
97;2052.88;496.597;1.02
98;2040.37;500.748;1.02
99;2087.37;546.159;1.02
100;2114.53;512.467;1.02
101;2129.49;506.607;1.03
102;2126.74;508.56;1.03
103;2104.77;518.326;1.03
104;2075.16;532.243;1.04
105;2099.58;520.524;1.04
106;2146.58;494.644;1.04
107;2173.74;538.102;1.05
108;2183.81;520.524;1.05
109;2166.41;486.831;1.05
110;2124.3;514.42;1.06
111;2089.81;508.56;1.06
112;2102.32;524.43;1.06
113;2126.74;506.607;1.06
114;2134.37;516.373;1.07
115;2129.49;500.748;1.07
116;2097.14;544.206;1.07
117;2050.44;522.477;1.08
118;2037.93;496.597;1.08
119;2082.49;553.972;1.08
120;2107.21;524.43;1.08
121;2119.42;524.43;1.09
122;2116.97;516.373;1.09
123;2087.37;532.243;1.09
124;2060.21;524.43;1.09
125;2082.49;542.009;1.1
126;2129.49;500.748;1.1
127;2153.9;526.383;1.1
128;2163.97;548.112;1.1
129;2149.02;490.738;1.11
130;2107.21;524.43;1.11
131;2075.16;528.336;1.11
132;2087.37;536.149;1.11
133;2109.65;520.524;1.12
134;2114.53;522.477;1.12
135;2107.21;516.373;1.12
136;2072.42;555.925;1.12
137;2025.72;524.43;1.13
138;2013.21;512.467;1.13
139;2057.77;569.842;1.13
140;2082.49;530.29;1.13
141;2094.7;530.29;1.14
142;2089.81;526.383;1.14
143;2065.09;540.056;1.14
144;2033.05;538.102;1.14
145;2052.88;544.206;1.14
146;2102.32;512.467;1.15
147;2121.86;538.102;1.15
148;2134.37;550.066;1.15
149;2116.97;498.795;1.15
150;2075.16;532.243;1.16
151;2045.26;540.056;1.16
152;2057.77;542.009;1.16
153;2077.6;530.29;1.16
154;2084.93;524.43;1.16
155;2080.05;528.336;1.17
156;2045.26;557.878;1.17
157;1998.56;524.43;1.17
158;1990.93;522.477;1.17
159;2033.05;571.795;1.17
160;2057.77;536.149;1.18
161;2069.98;530.29;1.18
162;2067.53;532.243;1.18
163;2040.37;544.206;1.18
164;2010.77;552.019;1.18
165;2033.05;548.112;1.18999
166;2077.6;520.524;1.18999
167;2102.32;553.972;1.18999
168;2112.09;552.019;1.18999
169;2094.7;510.514;1.18999
170;2057.77;540.056;1.18999
171;2025.72;546.159;1.2
172;2037.93;548.112;1.2
173;2055.33;538.102;1.2
174;2062.65;524.43;1.2
175;2057.77;540.056;1.2
176;2023.28;559.832;1.2
177;1978.72;528.336;1.21
178;1968.96;514.42;1.21
179;2010.77;571.795;1.21
180;2037.93;548.112;1.21
181;2050.44;548.112;1.21
182;2042.81;536.149;1.22
183;2018.09;553.972;1.22
184;1988.49;544.206;1.22
185;2010.77;567.888;1.22
186;2057.77;522.477;1.22
187;2077.6;544.206;1.22
188;2087.37;571.795;1.23
189;2072.42;516.373;1.23
190;2033.05;544.206;1.23
191;2001;542.009;1.23
192;2015.65;555.925;1.23
193;2035.49;534.196;1.23
194;2040.37;542.009;1.23
195;2033.05;530.29;1.24
196;2003.44;571.795;1.24
197;1954;548.112;1.24
198;1949.12;522.477;1.24
199;1988.49;581.561;1.24
200;2008.33;550.066;1.24
201;2023.28;550.066;1.25
202;2028.16;542.009;1.25
203;2013.21;557.878;1.25
204;1981.17;552.019;1.25
205;1981.17;567.888;1.25
206;2025.72;528.336;1.25
207;2055.33;552.019;1.25
208;2069.98;573.748;1.26
209;2067.53;514.42;1.26
210;2035.49;550.066;1.26
211;1998.56;552.019;1.26
212;1990.93;559.832;1.26
213;2015.65;544.206;1.26
214;2028.16;546.159;1.26
215;2025.72;540.056;1.27
216;2003.44;577.654;1.27
217;1963.77;548.112;1.27
218;1929.28;536.149;1.27
219;1958.89;591.571;1.27
220;1998.56;553.972;1.27
221;2013.21;552.019;1.27
222;2018.09;548.112;1.28
223;2001;561.785;1.28
224;1973.84;561.785;1.28
225;1968.96;567.888;1.28
226;2015.65;532.243;1.28
227;2042.81;563.738;1.28
228;2055.33;569.842;1.28
229;2055.33;522.477;1.29
230;2023.28;553.972;1.29
231;1983.61;559.832;1.29
232;1981.17;563.738;1.29
233;2005.89;550.066;1.29
234;2010.77;542.009;1.29
235;2013.21;548.112;1.29
236;1993.68;577.654;1.29
237;1951.56;546.159;1.3
238;1914.64;546.159;1.3
239;1944.24;589.618;1.3
240;1981.17;555.925;1.3
241;1996.12;553.972;1.3
242;2001;553.972;1.3
243;1986.05;563.738;1.3
244;1956.45;571.795;1.31
245;1949.12;565.935;1.31
246;2001;540.056;1.31
247;2028.16;561.785;1.31
248;2042.81;579.608;1.31
249;2042.81;524.43;1.31
250;2010.77;557.878;1.31
251;1971.4;559.832;1.31
252;1966.52;567.888;1.32
253;1990.93;553.972;1.32
254;1998.56;553.972;1.32
255;1998.56;550.066;1.32
256;1981.17;585.467;1.32
257;1939.36;557.878;1.32
258;1907.01;544.206;1.32
259;1936.61;599.384;1.32
260;1971.4;561.785;1.33
261;1988.49;557.878;1.33
262;1993.68;555.925;1.33
263;1978.72;569.842;1.33
264;1946.68;571.795;1.33
265;1944.24;573.748;1.33
266;1990.93;544.206;1.33
267;2018.09;567.888;1.33
268;2035.49;579.608;1.34
269;2033.05;530.29;1.34
270;2003.44;565.935;1.34
271;1963.77;569.842;1.34
272;1961.33;573.748;1.34
273;1986.05;557.878;1.34
274;1993.68;552.019;1.34
275;1996.12;559.832;1.34
276;1973.84;587.42;1.34
277;1931.73;553.972;1.35
278;1902.12;555.925;1.35
279;1929.28;605.243;1.35
280;1968.96;569.842;1.35
281;1983.61;575.701;1.35
282;1990.93;559.832;1.35
283;1971.4;581.561;1.35
284;1944.24;567.888;1.35
285;1944.24;593.524;1.36
286;1988.49;550.066;1.36
287;2018.09;567.888;1.36
288;2030.61;599.384;1.36
289;2028.16;546.159;1.36
290;1993.68;569.842;1.36
291;1958.89;565.935;1.36
292;1951.56;579.608;1.36
293;1978.72;561.785;1.36
294;1988.49;571.795;1.37
295;1990.93;553.972;1.37
296;1971.4;599.384;1.37
297;1931.73;573.748;1.37
298;1902.12;548.112;1.37
299;1926.84;601.337;1.37
300;1961.33;575.701;1.37
301;1978.72;577.654;1.37
302;1978.72;567.888;1.38
303;1966.52;585.467;1.38
304;1934.17;577.654;1.38
305;1931.73;595.477;1.38
306;1983.61;552.019;1.38
307;2010.77;573.748;1.38
308;2028.16;603.29;1.38
309;2023.28;542.009;1.38
310;1993.68;571.795;1.38
311;1956.45;573.748;1.39
312;1954;583.514;1.39
313;1978.72;567.888;1.39
314;1986.05;575.701;1.39
315;1986.05;563.738;1.39
316;1963.77;601.337;1.39
317;1924.4;575.701;1.39
318;1894.8;555.925;1.39
319;1924.4;615.253;1.39
320;1958.89;581.561;1.4
321;1976.28;579.608;1.4
322;1978.72;573.748;1.4
323;1963.77;587.42;1.4
324;1936.61;585.467;1.4
325;1934.17;597.43;1.4
326;1978.72;557.878;1.4
327;2013.21;585.467;1.4
328;2030.61;601.337;1.4
329;2028.16;542.009;1.41
330;1996.12;577.654;1.41
331;1956.45;581.561;1.41
332;1954;587.42;1.41
333;1981.17;573.748;1.41
334;1986.05;575.701;1.41
335;1988.49;571.795;1.41
336;1966.52;605.243;1.41
337;1929.28;575.701;1.41
338;1897.24;565.935;1.41
339;1929.28;619.16;1.42
340;1963.77;583.514;1.42
341;1981.17;577.654;1.42
342;1986.05;575.701;1.42
343;1971.4;589.618;1.42
344;1939.36;593.524;1.42
345;1936.61;595.477;1.42
346;1983.61;563.738;1.42
347;2013.21;591.571;1.42
348;2028.16;597.43;1.42
349;2025.72;552.019;1.43
350;1993.68;577.654;1.43
351;1958.89;575.701;1.43
352;1956.45;591.571;1.43
353;1981.17;571.795;1.43
354;1988.49;581.561;1.43
355;1988.49;559.832;1.43
356;1968.96;607.196;1.43
357;1929.28;585.467;1.43
358;1897.24;553.972;1.43
359;1926.84;611.347;1.43999
360;1963.77;589.618;1.43999
361;1978.72;587.42;1.43999
362;1981.17;577.654;1.43999
363;1968.96;595.477;1.43999
364;1939.36;583.514;1.43999
365;1936.61;607.196;1.43999
366;1983.61;561.785;1.43999
367;2015.65;581.561;1.43999
368;2025.72;613.3;1.43999
369;2023.28;557.878;1.45
370;1996.12;579.608;1.45
371;1954;579.608;1.45
372;1954;591.571;1.45
373;1976.28;573.748;1.45
374;1983.61;581.561;1.45
375;1983.61;567.888;1.45
376;1966.52;613.3;1.45
377;1921.96;585.467;1.45
378;1892.36;559.832;1.45
379;1926.84;617.206;1.45
380;1966.52;589.618;1.46
381;1981.17;587.42;1.46
382;1986.05;577.654;1.46
383;1968.96;595.477;1.46
384;1939.36;585.467;1.46
385;1936.61;601.337;1.46
386;1983.61;559.832;1.46
387;2010.77;587.42;1.46
388;2025.72;609.149;1.46
389;2023.28;552.019;1.46
390;1993.68;583.514;1.47
391;1954;585.467;1.47
392;1951.56;591.571;1.47
393;1976.28;575.701;1.47
394;1986.05;579.608;1.47
395;1986.05;571.795;1.47
396;1963.77;609.149;1.47
397;1921.96;583.514;1.47
398;1892.36;563.738;1.47
399;1924.4;625.019;1.47
400;1961.33;587.42;1.47
401;1976.28;585.467;1.48
402;1983.61;577.654;1.48
403;1966.52;593.524;1.48
404;1936.61;589.618;1.48
405;1936.61;599.384;1.48
406;1983.61;563.738;1.48
407;2013.21;593.524;1.48
408;2028.16;603.29;1.48
409;2023.28;550.066;1.48
410;1993.68;583.514;1.48
411;1954;587.42;1.48
412;1951.56;593.524;1.49
413;1978.72;577.654;1.49
414;1986.05;575.701;1.49
415;1988.49;575.701;1.49
416;1966.52;607.196;1.49
417;1924.4;575.701;1.49
418;1899.68;571.795;1.49
419;1926.84;621.113;1.49
420;1961.33;589.618;1.49
421;1976.28;585.467;1.49
422;1983.61;575.701;1.49
423;1963.77;595.477;1.49
424;1936.61;587.42;1.5
425;1934.17;605.243;1.5
426;1986.05;559.832;1.5
427;2010.77;587.42;1.5
428;2025.72;609.149;1.5
429;2023.28;550.066;1.5
430;1990.93;583.514;1.5
431;1954;585.467;1.5
432;1954;591.571;1.5
433;1978.72;577.654;1.5
434;1986.05;579.608;1.5
435;1986.05;571.795;1.5
436;1966.52;609.149;1.51
437;1926.84;579.608;1.51
438;1897.24;567.888;1.51
439;1929.28;623.066;1.51
440;1963.77;583.514;1.51
441;1981.17;581.561;1.51
442;1986.05;577.654;1.51
443;1971.4;589.618;1.51
444;1941.8;591.571;1.51
445;1939.36;593.524;1.51
446;1986.05;563.738;1.51
447;2015.65;593.524;1.52
448;2028.16;601.337;1.52
449;2028.16;552.019;1.52
450;1996.12;585.467;1.52
451;1958.89;587.42;1.52
452;1956.45;591.571;1.52
453;1978.72;573.748;1.52
454;1988.49;583.514;1.52
455;1988.49;563.738;1.52
456;1968.96;607.196;1.52
457;1929.28;589.618;1.52
458;1899.68;552.019;1.52
459;1931.73;609.149;1.52
460;1966.52;591.571;1.53
461;1981.17;591.571;1.53
462;1988.49;575.701;1.53
463;1968.96;597.43;1.53
464;1939.36;581.561;1.53
465;1939.36;609.149;1.53
466;1988.49;565.935;1.53
467;2015.65;583.514;1.53
468;2030.61;615.253;1.53
469;2028.16;557.878;1.53
470;1996.12;581.561;1.53
471;1958.89;577.654;1.53
472;1954;595.477;1.53
473;1978.72;571.795;1.54
474;1986.05;583.514;1.54
475;1988.49;565.935;1.54
476;1966.52;611.347;1.54
477;1926.84;589.618;1.54
478;1897.24;555.925;1.54
479;1926.84;615.253;1.54
480;1958.89;589.618;1.54
481;1976.28;591.571;1.54
482;1981.17;577.654;1.54
483;1961.33;595.477;1.54
484;1934.17;585.467;1.54
485;1931.73;605.243;1.55
486;1981.17;559.832;1.55
487;2010.77;583.514;1.55
488;2023.28;611.347;1.55
489;2023.28;552.019;1.55
490;1988.49;583.514;1.55
491;1954;581.561;1.55
492;1951.56;593.524;1.55
493;1973.84;573.748;1.55
494;1983.61;581.561;1.55
495;1983.61;569.842;1.55
496;1963.77;611.347;1.55
497;1924.4;585.467;1.55
498;1897.24;561.785;1.55
499;1929.28;621.113;1.56
500;1963.77;587.42;1.56
501;1976.28;583.514;1.56
502;1983.61;577.654;1.56
503;1966.52;595.477;1.56
504;1936.61;587.42;1.56
505;1936.61;603.29;1.56
506;1983.61;563.738;1.56
507;2010.77;587.42;1.56
508;2028.16;605.243;1.56
509;2023.28;552.019;1.56
510;1993.68;585.467;1.56
511;1956.45;585.467;1.56
512;1954;591.571;1.57
513;1978.72;577.654;1.57
514;1983.61;577.654;1.57
515;1986.05;573.748;1.57
516;1968.96;611.347;1.57
517;1926.84;579.608;1.57
518;1897.24;571.795;1.57
519;1929.28;626.972;1.57
520;1963.77;587.42;1.57
521;1978.72;585.467;1.57
522;1981.17;575.701;1.57
523;1966.52;599.384;1.57
524;1936.61;585.467;1.57
525;1939.36;613.3;1.58
526;1983.61;573.748;1.58
527;2013.21;583.514;1.58
528;2028.16;621.113;1.58
529;2023.28;565.935;1.58
530;1990.93;579.608;1.58
531;1954;577.654;1.58
532;1951.56;595.477;1.58
533;1978.72;573.748;1.58
534;1986.05;583.514;1.58
535;1986.05;563.738;1.58
536;1966.52;609.149;1.58
537;1926.84;591.571;1.58
538;1897.24;552.019;1.58
539;1931.73;613.3;1.59
540;1966.52;593.524;1.59
541;1978.72;591.571;1.59
542;1986.05;575.701;1.59
543;1971.4;597.43;1.59
544;1939.36;585.467;1.59
545;1939.36;609.149;1.59
546;1983.61;563.738;1.59
547;2015.65;583.514;1.59
548;2028.16;615.253;1.59
549;2023.28;559.832;1.59
550;1990.93;583.514;1.59
551;1956.45;579.608;1.59
552;1956.45;593.524;1.59
553;1981.17;573.748;1.6
554;1990.93;585.467;1.6
555;1993.68;569.842;1.6
556;1968.96;613.3;1.6
557;1929.28;589.618;1.6
558;1899.68;559.832;1.6
559;1934.17;617.206;1.6
560;1968.96;591.571;1.6
561;1981.17;587.42;1.6
562;1986.05;579.608;1.6
563;1971.4;595.477;1.6
564;1941.8;589.618;1.6
565;1939.36;605.243;1.6
566;1986.05;561.785;1.6
567;2013.21;587.42;1.61
568;2028.16;609.149;1.61
569;2025.72;553.972;1.61
570;1993.68;587.42;1.61
571;1956.45;583.514;1.61
572;1954;593.524;1.61
573;1981.17;577.654;1.61
574;1990.93;579.608;1.61
575;1988.49;573.748;1.61
576;1968.96;611.347;1.61
577;1926.84;585.467;1.61
578;1899.68;565.935;1.61
579;1931.73;621.113;1.61
580;1966.52;587.42;1.61
581;1978.72;583.514;1.61
582;1983.61;577.654;1.62
583;1966.52;595.477;1.62
584;1936.61;593.524;1.62
585;1936.61;599.384;1.62
586;1986.05;563.738;1.62
587;2013.21;591.571;1.62
588;2028.16;603.29;1.62
589;2023.28;552.019;1.62
590;1993.68;583.514;1.62
591;1954;579.608;1.62
592;1954;593.524;1.62
593;1978.72;573.748;1.62
594;1986.05;583.514;1.62
595;1986.05;569.842;1.62
596;1966.52;613.3;1.63
597;1924.4;587.42;1.63
598;1897.24;557.878;1.63
599;1931.73;619.16;1.63
600;1961.33;589.618;1.63
601;1981.17;587.42;1.63
602;1983.61;579.608;1.63
603;1968.96;595.477;1.63
604;1936.61;585.467;1.63
605;1936.61;603.29;1.63
606;1983.61;559.832;1.63
607;2013.21;587.42;1.63
608;2028.16;609.149;1.63
609;2020.84;553.972;1.63
610;1990.93;581.561;1.63
611;1954;585.467;1.64
612;1956.45;591.571;1.64
613;1981.17;577.654;1.64
614;1988.49;577.654;1.64
615;1988.49;571.795;1.64
616;1968.96;611.347;1.64
617;1926.84;583.514;1.64
618;1899.68;563.738;1.64
619;1931.73;623.066;1.64
620;1963.77;583.514;1.64
621;1978.72;583.514;1.64
622;1986.05;579.608;1.64
623;1968.96;591.571;1.64
624;1939.36;591.571;1.64
625;1939.36;613.3;1.64
626;1988.49;575.701;1.65
627;2013.21;579.608;1.65
628;2025.72;617.206;1.65
629;2023.28;563.738;1.65
630;1990.93;577.654;1.65
631;1956.45;571.795;1.65
632;1956.45;593.524;1.65
633;1981.17;573.748;1.65
634;1988.49;579.608;1.65
635;1990.93;559.832;1.65
636;1968.96;601.337;1.65
637;1929.28;589.618;1.65
638;1902.12;550.066;1.65
639;1934.17;605.243;1.65
640;1966.52;591.571;1.66
641;1978.72;591.571;1.66
642;1986.05;575.701;1.66
643;1968.96;595.477;1.66
644;1939.36;583.514;1.66
645;1941.8;609.149;1.66
646;1988.49;565.935;1.66
647;2018.09;579.608;1.66
648;2030.61;615.253;1.66
649;2025.72;559.832;1.66
650;1993.68;579.608;1.66
651;1958.89;575.701;1.66
652;1956.45;591.571;1.66
653;1986.05;569.842;1.66
654;1993.68;579.608;1.66
655;1990.93;563.738;1.67
656;1968.96;611.347;1.67
657;1924.4;587.42;1.67
658;1902.12;555.925;1.67
659;1936.61;609.149;1.67
660;1971.4;587.42;1.67
661;1983.61;585.467;1.67
662;1988.49;577.654;1.67
663;1973.84;595.477;1.67
664;1939.36;585.467;1.67
665;1941.8;605.243;1.67
666;1990.93;559.832;1.67
667;2013.21;581.561;1.67
668;2028.16;609.149;1.67
669;2023.28;552.019;1.67
670;1993.68;581.561;1.67
671;1956.45;577.654;1.68
672;1956.45;591.571;1.68
673;1983.61;571.795;1.68
674;1988.49;577.654;1.68
675;1990.93;569.842;1.68
676;1968.96;609.149;1.68
677;1929.28;585.467;1.68
678;1904.56;557.878;1.68
679;1939.36;619.16;1.68
680;1971.4;583.514;1.68
681;1983.61;585.467;1.68
682;1990.93;575.701;1.68
683;1971.4;589.618;1.68
684;1944.24;585.467;1.68
685;1941.8;601.337;1.68
686;1990.93;559.832;1.68999
687;2018.09;585.467;1.68999
688;2030.61;605.243;1.68999
689;2028.16;548.112;1.68999
690;1996.12;581.561;1.68999
691;1958.89;583.514;1.68999
692;1961.33;589.618;1.68999
693;1983.61;575.701;1.68999
694;1993.68;579.608;1.68999
695;1990.93;555.925;1.68999
696;1968.96;595.477;1.68999
697;1929.28;589.618;1.68999
698;1904.56;548.112;1.68999
699;1936.61;599.384;1.68999
700;1971.4;589.618;1.68999
701;1983.61;589.618;1.68999
702;1986.05;571.795;1.7
703;1973.84;593.524;1.7
704;1941.8;581.561;1.7
705;1941.8;609.149;1.7
706;1988.49;569.842;1.7
707;2013.21;577.654;1.7
708;2030.61;615.253;1.7
709;2025.72;559.832;1.7
710;1996.12;577.654;1.7
711;1954;573.748;1.7
712;1956.45;589.618;1.7
713;1981.17;571.795;1.7
714;1988.49;579.608;1.7
715;1988.49;557.878;1.7
716;1968.96;605.243;1.7
717;1926.84;583.514;1.7
718;1899.68;550.066;1.71
719;1934.17;605.243;1.71
720;1968.96;587.42;1.71
721;1978.72;587.42;1.71
722;1988.49;573.748;1.71
723;1968.96;591.571;1.71
724;1941.8;581.561;1.71
725;1941.8;603.29;1.71
726;1990.93;565.935;1.71
727;2018.09;579.608;1.71
728;2030.61;611.347;1.71
729;2025.72;557.878;1.71
730;1996.12;577.654;1.71
731;1961.33;573.748;1.71
732;1958.89;589.618;1.71
733;1983.61;569.842;1.71
734;1990.93;579.608;1.72
735;1988.49;563.738;1.72
736;1966.52;607.196;1.72
737;1926.84;583.514;1.72
738;1904.56;553.972;1.72
739;1936.61;611.347;1.72
740;1966.52;585.467;1.72
741;1981.17;583.514;1.72
742;1983.61;573.748;1.72
743;1966.52;591.571;1.72
744;1936.61;581.561;1.72
745;1939.36;599.384;1.72
746;1990.93;557.878;1.72
747;2020.84;579.608;1.72
748;2033.05;605.243;1.72
749;2028.16;550.066;1.72
750;1996.12;579.608;1.72
751;1961.33;575.701;1.73
752;1961.33;589.618;1.73
753;1983.61;573.748;1.73
754;1993.68;579.608;1.73
755;1993.68;563.738;1.73
756;1968.96;607.196;1.73
757;1926.84;581.561;1.73
758;1904.56;555.925;1.73
759;1936.61;617.206;1.73
760;1968.96;581.561;1.73
761;1983.61;581.561;1.73
762;1990.93;571.795;1.73
763;1968.96;593.524;1.73
764;1941.8;577.654;1.73
765;1944.24;603.29;1.73
766;1990.93;559.832;1.73
767;2018.09;577.654;1.73
768;2030.61;611.347;1.74
769;2028.16;555.925;1.74
770;1996.12;577.654;1.74
771;1956.45;573.748;1.74
772;1961.33;587.42;1.74
773;1986.05;569.842;1.74
774;1993.68;579.608;1.74
775;1996.12;561.785;1.74
776;1971.4;605.243;1.74
777;1931.73;583.514;1.74
778;1907.01;555.925;1.74
779;1941.8;611.347;1.74
780;1973.84;583.514;1.74
781;1988.49;585.467;1.74
782;1990.93;571.795;1.74
783;1976.28;591.571;1.74
784;1944.24;581.561;1.74
785;1946.68;601.337;1.75
786;1993.68;553.972;1.75
787;2020.84;581.561;1.75
788;2035.49;607.196;1.75
789;2028.16;546.159;1.75
790;1998.56;579.608;1.75
791;1958.89;577.654;1.75
792;1958.89;587.42;1.75
793;1983.61;571.795;1.75
794;1990.93;573.748;1.75
795;1993.68;565.935;1.75
796;1968.96;591.571;1.75
797;1929.28;585.467;1.75
798;1904.56;548.112;1.75
799;1936.61;593.524;1.75
800;1968.96;591.571;1.75
801;1981.17;587.42;1.75
802;1986.05;571.795;1.76
803;1968.96;591.571;1.76
804;1941.8;583.514;1.76
805;1944.24;607.196;1.76
806;1993.68;569.842;1.76
807;2020.84;575.701;1.76
808;2030.61;613.3;1.76
809;2028.16;563.738;1.76
810;1998.56;573.748;1.76
811;1961.33;569.842;1.76
812;1961.33;589.618;1.76
813;1986.05;569.842;1.76
814;1993.68;575.701;1.76
815;1993.68;555.925;1.76
816;1968.96;595.477;1.76
817;1929.28;583.514;1.76
818;1904.56;546.159;1.76
819;1939.36;597.43;1.77
820;1971.4;585.467;1.77
821;1983.61;587.42;1.77
822;1990.93;569.842;1.77
823;1971.4;589.618;1.77
824;1944.24;579.608;1.77
825;1944.24;603.29;1.77
826;1993.68;565.935;1.77
827;2023.28;575.701;1.77
828;2035.49;611.347;1.77
829;2030.61;557.878;1.77
830;1996.12;573.748;1.77
831;1961.33;571.795;1.77
832;1958.89;587.42;1.77
833;1988.49;567.888;1.77
834;1996.12;577.654;1.77
835;1996.12;557.878;1.77
836;1973.84;603.29;1.78
837;1934.17;583.514;1.78
838;1907.01;550.066;1.78
839;1944.24;605.243;1.78
840;1976.28;583.514;1.78
841;1988.49;583.514;1.78
842;1996.12;571.795;1.78
843;1976.28;591.571;1.78
844;1944.24;579.608;1.78
845;1949.12;599.384;1.78
846;1996.12;557.878;1.78
847;2025.72;579.608;1.78
848;2035.49;605.243;1.78
849;2030.61;550.066;1.78
850;2001;579.608;1.78
851;1963.77;571.795;1.78
852;1963.77;587.42;1.79
853;1988.49;569.842;1.79
854;1993.68;577.654;1.79
855;1993.68;561.785;1.79
856;1971.4;605.243;1.79
857;1929.28;581.561;1.79
858;1907.01;553.972;1.79
859;1939.36;611.347;1.79
860;1973.84;581.561;1.79
861;1986.05;581.561;1.79
862;1988.49;571.795;1.79
863;1971.4;587.42;1.79
864;1941.8;581.561;1.79
865;1944.24;603.29;1.79
866;1993.68;571.795;1.79
867;2023.28;573.748;1.79
868;2035.49;613.3;1.79
869;2030.61;565.935;1.8
870;1998.56;569.842;1.8
871;1963.77;573.748;1.8
872;1963.77;589.618;1.8
873;1990.93;571.795;1.8
874;1996.12;573.748;1.8
875;1996.12;552.019;1.8
876;1971.4;593.524;1.8
877;1931.73;581.561;1.8
878;1907.01;546.159;1.8
879;1946.68;595.477;1.8
880;1978.72;587.42;1.8
881;1990.93;587.42;1.8
882;1996.12;567.888;1.8
883;1976.28;589.618;1.8
884;1949.12;579.608;1.8
885;1951.56;605.243;1.8
886;1998.56;569.842;1.8
887;2025.72;573.748;1.81
888;2037.93;611.347;1.81
889;2030.61;561.785;1.81
890;2001;573.748;1.81
891;1963.77;569.842;1.81
892;1966.52;587.42;1.81
893;1993.68;567.888;1.81
894;1998.56;575.701;1.81
895;1998.56;553.972;1.81
896;1978.72;599.384;1.81
897;1936.61;581.561;1.81
898;1914.64;544.206;1.81
899;1946.68;599.384;1.81
900;1978.72;585.467;1.81
901;1990.93;583.514;1.81
902;1996.12;567.888;1.81
903;1978.72;589.618;1.81
904;1954;577.654;1.82
905;1944.24;601.337;1.82
906;1990.93;561.785;1.82
907;2023.28;573.748;1.82
908;2037.93;607.196;1.82
909;2037.93;552.019;1.82
910;2010.77;573.748;1.82
911;1973.84;571.795;1.82
912;1963.77;585.467;1.82
913;1990.93;565.935;1.82
914;1998.56;575.701;1.82
915;1998.56;557.878;1.82
916;1983.61;601.337;1.82
917;1944.24;579.608;1.82
918;1912.19;550.066;1.82
919;1936.61;605.243;1.82
920;1973.84;579.608;1.82
921;1990.93;581.561;1.83
922;1996.12;567.888;1.83
923;1986.05;589.618;1.83
924;1956.45;577.654;1.83
925;1949.12;597.43;1.83
926;1993.68;553.972;1.83
927;2025.72;575.701;1.83
928;2037.93;603.29;1.83
929;2040.37;548.112;1.83
930;2013.21;575.701;1.83
931;1971.4;573.748;1.83
932;1963.77;585.467;1.83
933;1990.93;565.935;1.83
934;2001;577.654;1.83
935;2003.44;553.972;1.83
936;1986.05;601.337;1.83
937;1944.24;581.561;1.83
938;1914.64;544.206;1.84
939;1939.36;603.29;1.84
940;1976.28;583.514;1.84
941;1990.93;581.561;1.84
942;1998.56;569.842;1.84
943;1986.05;589.618;1.84
944;1958.89;575.701;1.84
945;1949.12;603.29;1.84
946;1993.68;559.832;1.84
947;2023.28;573.748;1.84
948;2037.93;607.196;1.84
949;2037.93;550.066;1.84
950;2008.33;575.701;1.84
951;1971.4;573.748;1.84
952;1966.52;585.467;1.84
953;1988.49;565.935;1.84
954;1998.56;573.748;1.84
955;2001;559.832;1.85
956;1983.61;603.29;1.85
957;1946.68;579.608;1.85
958;1909.45;550.066;1.85
959;1939.36;607.196;1.85
960;1973.84;577.654;1.85
961;1990.93;579.608;1.85
962;1996.12;569.842;1.85
963;1983.61;587.42;1.85
964;1954;575.701;1.85
965;1946.68;595.477;1.85
966;1990.93;553.972;1.85
967;2025.72;575.701;1.85
968;2037.93;611.347;1.85
969;2040.37;567.888;1.85
970;2008.33;567.888;1.85
971;1971.4;569.842;1.85
972;1966.52;587.42;1.86
973;1990.93;571.795;1.86
974;1998.56;575.701;1.86
975;2003.44;550.066;1.86
976;1986.05;585.467;1.86
977;1944.24;581.561;1.86
978;1909.45;546.159;1.86
979;1941.8;591.571;1.86
980;1978.72;587.42;1.86
981;1993.68;583.514;1.86
982;1998.56;567.888;1.86
983;1986.05;587.42;1.86
984;1956.45;579.608;1.86
985;1951.56;603.29;1.86
986;1998.56;565.935;1.86
987;2028.16;573.748;1.86
988;2042.81;609.149;1.86
989;2042.81;561.785;1.87
990;2015.65;569.842;1.87
991;1976.28;565.935;1.87
992;1968.96;585.467;1.87
993;1996.12;567.888;1.87
994;2003.44;573.748;1.87
995;2001;550.066;1.87
996;1986.05;593.524;1.87
997;1946.68;581.561;1.87
998;1914.64;542.009;1.87
999;1944.24;599.384;1.87
1000;1978.72;583.514;1.87
1001;1996.12;583.514;1.87
1002;2003.44;567.888;1.87
1003;1990.93;589.618;1.87
1004;1961.33;577.654;1.87
1005;1954;603.29;1.87
1006;1998.56;561.785;1.87
1007;2030.61;575.701;1.88
1008;2048;609.149;1.88
1009;2045.26;553.972;1.88
1010;2018.09;571.795;1.88
1011;1978.72;567.888;1.88
1012;1973.84;585.467;1.88
1013;1998.56;563.738;1.88
1014;2008.33;575.701;1.88
1015;2008.33;552.019;1.88
1016;1996.12;597.43;1.88
1017;1954;583.514;1.88
1018;1919.52;546.159;1.88
1019;1946.68;603.29;1.88
1020;1986.05;579.608;1.88
1021;2001;581.561;1.88
1022;2008.33;567.888;1.88
1023;1993.68;589.618;1.88
1024;1966.52;575.701;1.89
1025;1956.45;599.384;1.89
1026;2001;553.972;1.89
1027;2033.05;573.748;1.89
1028;2048;603.29;1.89
1029;2045.26;548.112;1.89
1030;2018.09;573.748;1.89
1031;1978.72;573.748;1.89
1032;1973.84;585.467;1.89
1033;1998.56;565.935;1.89
1034;2008.33;573.748;1.89
1035;2013.21;557.878;1.89
1036;1993.68;583.514;1.89
1037;1951.56;583.514;1.89
1038;1917.08;544.206;1.89
1039;1946.68;585.467;1.89
1040;1983.61;589.618;1.89
1041;1998.56;579.608;1.9
1042;2005.89;565.935;1.9
1043;1993.68;581.561;1.9
1044;1961.33;577.654;1.9
1045;1958.89;603.29;1.9
1046;2005.89;567.888;1.9
1047;2033.05;567.888;1.9
1048;2048;611.347;1.9
1049;2048;563.738;1.9
1050;2015.65;565.935;1.9
1051;1978.72;567.888;1.9
1052;1971.4;587.42;1.9
1053;2001;569.842;1.9
1054;2008.33;573.748;1.9
1055;2010.77;550.066;1.9
1056;1988.49;589.618;1.9
1057;1951.56;581.561;1.9
1058;1921.96;540.056;1.91
1059;1949.12;591.571;1.91
1060;1988.49;585.467;1.91
1061;1998.56;585.467;1.91
1062;2005.89;565.935;1.91
1063;1993.68;587.42;1.91
1064;1963.77;577.654;1.91
1065;1954;603.29;1.91
1066;1998.56;567.888;1.91
1067;2033.05;569.842;1.91
1068;2048;609.149;1.91
1069;2045.26;555.925;1.91
1070;2015.65;569.842;1.91
1071;1981.17;567.888;1.91
1072;1973.84;585.467;1.91
1073;2001;563.738;1.91
1074;2008.33;573.748;1.91
1075;2010.77;550.066;1.92
1076;1993.68;595.477;1.92
1077;1954;579.608;1.92
1078;1921.96;546.159;1.92
1079;1949.12;599.384;1.92
1080;1986.05;581.561;1.92
1081;2001;581.561;1.92
1082;2008.33;565.935;1.92
1083;1993.68;587.42;1.92
1084;1966.52;577.654;1.92
1085;1958.89;601.337;1.92
1086;2008.33;557.878;1.92
1087;2037.93;571.795;1.92
1088;2052.88;607.196;1.92
1089;2050.44;552.019;1.92
1090;2023.28;571.795;1.92
1091;1983.61;569.842;1.92
1092;1976.28;583.514;1.93
1093;2003.44;563.738;1.93
1094;2010.77;573.748;1.93
1095;2013.21;555.925;1.93
1096;1993.68;599.384;1.93
1097;1956.45;579.608;1.93
1098;1924.4;546.159;1.93
1099;1951.56;603.29;1.93
1100;1990.93;579.608;1.93
1101;2005.89;579.608;1.93
1102;2013.21;569.842;1.93
1103;1996.12;587.42;1.93
1104;1966.52;575.701;1.93
1105;1961.33;599.384;1.93
1106;2008.33;565.935;1.93
1107;2037.93;571.795;1.93
1108;2052.88;607.196;1.93
1109;2048;555.925;1.93
1110;2023.28;569.842;1.93999
1111;1983.61;565.935;1.93999
1112;1976.28;583.514;1.93999
1113;2003.44;565.935;1.93999
1114;2013.21;571.795;1.93999
1115;2010.77;552.019;1.93999
1116;1993.68;595.477;1.93999
1117;1951.56;579.608;1.93999
1118;1919.52;544.206;1.93999
1119;1954;597.43;1.93999
1120;1988.49;579.608;1.93999
1121;2005.89;579.608;1.93999
1122;2013.21;565.935;1.93999
1123;1998.56;587.42;1.93999
1124;1968.96;575.701;1.93999
1125;1961.33;599.384;1.93999
1126;2008.33;557.878;1.93999
1127;2037.93;571.795;1.95
1128;2050.44;605.243;1.95
1129;2048;552.019;1.95
1130;2020.84;571.795;1.95
1131;1981.17;567.888;1.95
1132;1978.72;583.514;1.95
1133;2008.33;565.935;1.95
1134;2018.09;573.748;1.95
1135;2015.65;553.972;1.95
1136;1996.12;601.337;1.95
1137;1958.89;577.654;1.95
1138;1926.84;546.159;1.95
1139;1956.45;605.243;1.95
1140;1990.93;593.524;1.95
1141;2008.33;579.608;1.95
1142;2015.65;561.785;1.95
1143;2001;577.654;1.95
1144;1971.4;577.654;1.96
1145;1966.52;599.384;1.96
1146;2013.21;569.842;1.96
1147;2042.81;567.888;1.96
1148;2055.33;605.243;1.96
1149;2052.88;561.785;1.96
1150;2025.72;561.785;1.96
1151;1988.49;567.888;1.96
1152;1981.17;585.467;1.96
1153;2010.77;571.795;1.96
1154;2020.84;573.748;1.96
1155;2020.84;548.112;1.96
1156;2001;585.467;1.96
1157;1961.33;581.561;1.96
1158;1929.28;542.009;1.96
1159;1958.89;585.467;1.96
1160;1993.68;589.618;1.96
1161;2010.77;581.561;1.96
1162;2015.65;563.738;1.97
1163;2001;583.514;1.97
1164;1968.96;575.701;1.97
1165;1966.52;599.384;1.97
1166;2015.65;567.888;1.97
1167;2042.81;571.795;1.97
1168;2060.21;607.196;1.97
1169;2057.77;557.878;1.97
1170;2028.16;567.888;1.97
1171;1990.93;565.935;1.97
1172;1986.05;585.467;1.97
1173;2013.21;561.785;1.97
1174;2018.09;569.842;1.97
1175;2020.84;548.112;1.97
1176;2003.44;589.618;1.97
1177;1963.77;583.514;1.97
1178;1931.73;540.056;1.97
1179;1961.33;595.477;1.98
1180;1998.56;583.514;1.98
1181;2015.65;579.608;1.98
1182;2018.09;563.738;1.98
1183;2005.89;587.42;1.98
1184;1976.28;575.701;1.98
1185;1971.4;599.384;1.98
1186;2018.09;561.785;1.98
1187;2048;571.795;1.98
1188;2060.21;607.196;1.98
1189;2057.77;555.925;1.98
1190;2028.16;569.842;1.98
1191;1990.93;567.888;1.98
1192;1983.61;583.514;1.98
1193;2013.21;561.785;1.98
1194;2020.84;571.795;1.98
1195;2023.28;550.066;1.98
1196;2001;599.384;1.98
1197;1961.33;577.654;1.98
1198;1931.73;542.009;1.99
1199;1958.89;599.384;1.99
1200;1996.12;579.608;1.99
1201;2013.21;581.561;1.99
1202;2018.09;565.935;1.99
1203;2003.44;585.467;1.99
1204;1973.84;573.748;1.99
1205;1966.52;599.384;1.99
1206;2013.21;553.972;1.99
1207;2045.26;571.795;1.99
1208;2057.77;603.29;1.99
1209;2055.33;571.795;1.99
1210;2025.72;555.925;1.99
1211;1988.49;571.795;1.99
1212;1986.05;587.42;1.99
1213;2010.77;577.654;1.99
1214;2023.28;573.748;1.99
1215;2023.28;548.112;1.99
1216;2005.89;581.561;1.99
1217;1961.33;583.514;2
1218;1931.73;542.009;2
1219;1961.33;583.514;2
1220;1998.56;589.618;2
1221;2013.21;579.608;2
1222;2018.09;561.785;2
1223;2005.89;581.561;2
1224;1973.84;575.701;2
1225;1971.4;599.384;2
1226;2018.09;569.842;2
1227;2050.44;567.888;2
1228;2065.09;607.196;2
1229;2060.21;561.785;2
1230;2033.05;563.738;2
1231;1993.68;567.888;2
1232;1990.93;585.467;2
1233;2015.65;569.842;2
1234;2025.72;571.795;2.01
1235;2025.72;546.159;2.01
1236;2003.44;585.467;2.01
1237;1961.33;581.561;2.01
1238;1929.28;542.009;2.01
1239;1946.68;589.618;2.01
1240;1988.49;585.467;2.01
1241;2010.77;579.608;2.01
1242;2015.65;561.785;2.01
1243;2013.21;585.467;2.01
1244;1988.49;577.654;2.01
1245;1966.52;601.337;2.01
1246;1996.12;565.935;2.01
1247;2040.37;571.795;2.01
1248;2062.65;607.196;2.01
1249;2069.98;555.925;2.01
1250;2048;565.935;2.01
1251;2010.77;563.738;2.01
1252;1986.05;583.514;2.02
1253;2008.33;563.738;2.02
1254;2025.72;571.795;2.02
1255;2030.61;548.112;2.02
1256;2018.09;591.571;2.02
1257;1983.61;577.654;2.02
1258;1941.8;542.009;2.02
1259;1946.68;597.43;2.02
1260;1993.68;583.514;2.02
1261;2013.21;581.561;2.02
1262;2023.28;565.935;2.02
1263;2015.65;587.42;2.02
1264;1990.93;575.701;2.02
1265;1966.52;601.337;2.02
1266;1998.56;559.832;2.02
1267;2042.81;573.748;2.02
1268;2060.21;607.196;2.02
1269;2069.98;552.019;2.02
1270;2048;571.795;2.03
1271;2010.77;567.888;2.03
1272;1986.05;581.561;2.03
1273;2010.77;563.738;2.03
1274;2025.72;571.795;2.03
1275;2030.61;552.019;2.03
1276;2023.28;599.384;2.03
1277;1986.05;579.608;2.03
1278;1944.24;540.056;2.03
1279;1951.56;587.42;2.03
1280;1993.68;585.467;2.03
1281;2015.65;581.561;2.03
1282;2025.72;561.785;2.03
1283;2015.65;587.42;2.03
1284;1990.93;575.701;2.03
1285;1971.4;601.337;2.03
1286;2005.89;565.935;2.03
1287;2045.26;569.842;2.03
1288;2065.09;609.149;2.04
1289;2072.42;555.925;2.04
1290;2050.44;567.888;2.04
1291;2010.77;565.935;2.04
1292;1988.49;585.467;2.04
1293;2013.21;563.738;2.04
1294;2028.16;571.795;2.04
1295;2035.49;548.112;2.04
1296;2023.28;593.524;2.04
1297;1988.49;577.654;2.04
1298;1949.12;540.056;2.04
1299;1956.45;595.477;2.04
1300;2001;581.561;2.04
1301;2020.84;583.514;2.04
1302;2028.16;563.738;2.04
1303;2023.28;587.42;2.04
1304;1996.12;573.748;2.04
1305;1971.4;597.43;2.05
1306;2008.33;557.878;2.05
1307;2050.44;569.842;2.05
1308;2067.53;605.243;2.05
1309;2072.42;552.019;2.05
1310;2055.33;567.888;2.05
1311;2018.09;571.795;2.05
1312;1996.12;585.467;2.05
1313;2020.84;581.561;2.05
1314;2035.49;569.842;2.05
1315;2035.49;550.066;2.05
1316;2025.72;579.608;2.05
1317;1990.93;581.561;2.05
1318;1949.12;542.009;2.05
1319;1956.45;579.608;2.05
1320;2003.44;593.524;2.05
1321;2023.28;577.654;2.05
1322;2035.49;559.832;2.06
1323;2028.16;573.748;2.06
1324;1998.56;577.654;2.06
1325;1976.28;601.337;2.06
1326;2010.77;569.842;2.06
1327;2052.88;563.738;2.06
1328;2072.42;605.243;2.06
1329;2075.16;567.888;2.06
1330;2057.77;559.832;2.06
1331;2020.84;569.842;2.06
1332;1998.56;583.514;2.06
1333;2020.84;573.748;2.06
1334;2035.49;571.795;2.06
1335;2037.93;548.112;2.06
1336;2028.16;583.514;2.06
1337;1990.93;581.561;2.06
1338;1951.56;542.009;2.06
1339;1956.45;587.42;2.07
1340;2005.89;589.618;2.07
1341;2025.72;579.608;2.07
1342;2035.49;561.785;2.07
1343;2028.16;583.514;2.07
1344;2001;573.748;2.07
1345;1978.72;601.337;2.07
1346;2015.65;567.888;2.07
1347;2055.33;567.888;2.07
1348;2075.16;607.196;2.07
1349;2080.05;559.832;2.07
1350;2060.21;565.935;2.07
1351;2023.28;565.935;2.07
1352;1998.56;585.467;2.07
1353;2023.28;563.738;2.07
1354;2037.93;569.842;2.07
1355;2040.37;550.066;2.08
1356;2030.61;589.618;2.08
1357;1993.68;579.608;2.08
1358;1951.56;540.056;2.08
1359;1961.33;591.571;2.08
1360;2005.89;583.514;2.08
1361;2025.72;581.561;2.08
1362;2033.05;565.935;2.08
1363;2030.61;587.42;2.08
1364;2001;573.748;2.08
1365;1978.72;599.384;2.08
1366;2015.65;561.785;2.08
1367;2057.77;569.842;2.08
1368;2075.16;607.196;2.08
1369;2082.49;555.925;2.08
1370;2060.21;567.888;2.08
1371;2023.28;567.888;2.08
1372;2001;583.514;2.09
1373;2023.28;559.832;2.09
1374;2037.93;571.795;2.09
1375;2042.81;550.066;2.09
1376;2033.05;593.524;2.09
1377;1998.56;579.608;2.09
1378;1956.45;544.206;2.09
1379;1968.96;599.384;2.09
1380;2008.33;579.608;2.09
1381;2030.61;575.701;2.09
1382;2040.37;561.785;2.09
1383;2035.49;569.842;2.09
1384;2005.89;577.654;2.09
1385;1986.05;597.43;2.09
1386;2023.28;573.748;2.09
1387;2065.09;561.785;2.1
1388;2084.93;601.337;2.1
1389;2089.81;569.842;2.1
1390;2065.09;553.972;2.1
1391;2030.61;571.795;2.1
1392;2008.33;587.42;2.1
1393;2030.61;579.608;2.1
1394;2045.26;569.842;2.1
1395;2050.44;546.159;2.1
1396;2037.93;579.608;2.1
1397;2001;583.514;2.1
1398;1963.77;540.056;2.1
1399;1971.4;581.561;2.1
1400;2020.84;591.571;2.1
1401;2037.93;579.608;2.1
1402;2048;561.785;2.1
1403;2040.37;577.654;2.11
1404;2013.21;575.701;2.11
1405;1990.93;601.337;2.11
1406;2030.61;567.888;2.11
1407;2072.42;565.935;2.11
1408;2087.37;607.196;2.11
1409;2094.7;563.738;2.11
1410;2072.42;559.832;2.11
1411;2033.05;565.935;2.11
1412;2013.21;585.467;2.11
1413;2035.49;569.842;2.11
1414;2052.88;569.842;2.11
1415;2055.33;546.159;2.11
1416;2045.26;585.467;2.11
1417;2008.33;579.608;2.11
1418;1966.52;540.056;2.11
1419;1976.28;589.618;2.12
1420;2023.28;585.467;2.12
1421;2040.37;579.608;2.12
1422;2048;561.785;2.12
1423;2040.37;585.467;2.12
1424;2013.21;577.654;2.12
1425;1990.93;601.337;2.12
1426;2030.61;565.935;2.12
1427;2072.42;567.888;2.12
1428;2089.81;609.149;2.12
1429;2094.7;557.878;2.12
1430;2072.42;565.935;2.12
1431;2037.93;565.935;2.12
1432;2015.65;585.467;2.12
1433;2040.37;563.738;2.12
1434;2052.88;571.795;2.12
1435;2060.21;548.112;2.13
1436;2045.26;589.618;2.13
1437;2010.77;577.654;2.13
1438;1968.96;542.009;2.13
1439;1978.72;595.477;2.13
1440;2023.28;581.561;2.13
1441;2042.81;581.561;2.13
1442;2055.33;563.738;2.13
1443;2048;585.467;2.13
1444;2018.09;573.748;2.13
1445;1996.12;595.477;2.13
1446;2033.05;559.832;2.13
1447;2072.42;571.795;2.13
1448;2089.81;605.243;2.13
1449;2094.7;561.785;2.13
1450;2072.42;559.832;2.13
1451;2035.49;565.935;2.14
1452;2013.21;583.514;2.14
1453;2037.93;567.888;2.14
1454;2055.33;567.888;2.14
1455;2057.77;546.159;2.14
1456;2048;585.467;2.14
1457;2010.77;579.608;2.14
1458;1971.4;540.056;2.14
1459;1981.17;589.618;2.14
1460;2023.28;587.42;2.14
1461;2042.81;579.608;2.14
1462;2052.88;563.738;2.14
1463;2042.81;583.514;2.14
1464;2015.65;575.701;2.14
1465;1993.68;599.384;2.14
1466;2030.61;561.785;2.14
1467;2075.16;569.842;2.15
1468;2092.25;605.243;2.15
1469;2097.14;555.925;2.15
1470;2072.42;565.935;2.15
1471;2037.93;563.738;2.15
1472;2018.09;581.561;2.15
1473;2037.93;561.785;2.15
1474;2057.77;569.842;2.15
1475;2060.21;546.159;2.15
1476;2048;591.571;2.15
1477;2013.21;577.654;2.15
1478;1971.4;540.056;2.15
1479;1981.17;593.524;2.15
1480;2025.72;581.561;2.15
1481;2048;579.608;2.15
1482;2060.21;563.738;2.16
1483;2052.88;585.467;2.16
1484;2023.28;579.608;2.16
1485;2003.44;597.43;2.16
1486;2045.26;573.748;2.16
1487;2082.49;563.738;2.16
1488;2102.32;599.384;2.16
1489;2104.77;573.748;2.16
1490;2082.49;553.972;2.16
1491;2045.26;571.795;2.16
1492;2025.72;585.467;2.16
1493;2048;581.561;2.16
1494;2065.09;569.842;2.16
1495;2067.53;548.112;2.16
1496;2057.77;579.608;2.16
1497;2020.84;585.467;2.16
1498;1978.72;544.206;2.17
1499;1990.93;579.608;2.17
1500;2035.49;593.524;2.17
1501;2057.77;573.748;2.17
1502;2062.65;559.832;2.17
1503;2057.77;571.795;2.17
1504;2028.16;577.654;2.17
1505;2005.89;597.43;2.17
1506;2045.26;569.842;2.17
1507;2087.37;563.738;2.17
1508;2104.77;603.29;2.17
1509;2109.65;567.888;2.17
1510;2084.93;559.832;2.17
1511;2048;565.935;2.17
1512;2028.16;585.467;2.17
1513;2055.33;573.748;2.18
1514;2069.98;567.888;2.18
1515;2072.42;546.159;2.18
1516;2062.65;581.561;2.18
1517;2025.72;581.561;2.18
1518;1983.61;540.056;2.18
1519;1996.12;583.514;2.18
1520;2040.37;587.42;2.18
1521;2060.21;579.608;2.18
1522;2065.09;561.785;2.18
1523;2057.77;579.608;2.18
1524;2030.61;577.654;2.18
1525;2008.33;603.29;2.18
1526;2048;567.888;2.18
1527;2089.81;565.935;2.18
1528;2109.65;607.196;2.18
1529;2114.53;559.832;2.18999
1530;2092.25;563.738;2.18999
1531;2052.88;565.935;2.18999
1532;2033.05;583.514;2.18999
1533;2060.21;565.935;2.18999
1534;2075.16;567.888;2.18999
1535;2075.16;544.206;2.18999
1536;2065.09;587.42;2.18999
1537;2030.61;577.654;2.18999
1538;1986.05;540.056;2.18999
1539;1998.56;589.618;2.18999
1540;2045.26;579.608;2.18999
1541;2062.65;581.561;2.18999
1542;2072.42;561.785;2.18999
1543;2062.65;585.467;2.18999
1544;2033.05;575.701;2.2
1545;2010.77;601.337;2.2
1546;2052.88;559.832;2.2
1547;2092.25;569.842;2.2
1548;2109.65;607.196;2.2
1549;2114.53;553.972;2.2
1550;2094.7;567.888;2.2
1551;2055.33;563.738;2.2
1552;2035.49;581.561;2.2
1553;2060.21;579.608;2.2
1554;2069.98;569.842;2.2
1555;2075.16;550.066;2.2
1556;2065.09;575.701;2.2
1557;2025.72;587.42;2.2
1558;1986.05;548.112;2.2
1559;1996.12;573.748;2.2
1560;2042.81;597.43;2.21
1561;2062.65;575.701;2.21
1562;2072.42;561.785;2.21
1563;2065.09;565.935;2.21
1564;2037.93;577.654;2.21
1565;2013.21;597.43;2.21
1566;2050.44;571.795;2.21
1567;2097.14;563.738;2.21
1568;2112.09;597.43;2.21
1569;2116.97;569.842;2.21
1570;2092.25;553.972;2.21
1571;2055.33;569.842;2.21
1572;2033.05;585.467;2.21
1573;2060.21;579.608;2.21
1574;2077.6;567.888;2.21
1575;2077.6;546.159;2.21
1576;2067.53;577.654;2.22
1577;2030.61;583.514;2.22
1578;1990.93;542.009;2.22
1579;2001;581.561;2.22
1580;2050.44;591.571;2.22
1581;2067.53;575.701;2.22
1582;2075.16;561.785;2.22
1583;2067.53;573.748;2.22
1584;2040.37;573.748;2.22
1585;2018.09;601.337;2.22
1586;2057.77;567.888;2.22
1587;2097.14;563.738;2.22
1588;2116.97;603.29;2.22
1589;2119.42;561.785;2.22
1590;2099.58;557.878;2.22
1591;2060.21;565.935;2.22
1592;2040.37;583.514;2.23
1593;2065.09;569.842;2.23
1594;2080.05;569.842;2.23
1595;2082.49;544.206;2.23
1596;2067.53;585.467;2.23
1597;2033.05;581.561;2.23
1598;1990.93;540.056;2.23
1599;2005.89;587.42;2.23
1600;2048;587.42;2.23
1601;2069.98;581.561;2.23
1602;2077.6;563.738;2.23
1603;2069.98;581.561;2.23
1604;2042.81;573.748;2.23
1605;2020.84;601.337;2.23
1606;2062.65;563.738;2.23
1607;2102.32;565.935;2.23
1608;2121.86;607.196;2.24
1609;2124.3;555.925;2.24
1610;2102.32;565.935;2.24
1611;2065.09;563.738;2.24
1612;2045.26;583.514;2.24
1613;2069.98;561.785;2.24
1614;2084.93;569.842;2.24
1615;2089.81;544.206;2.24
1616;2075.16;587.42;2.24
1617;2040.37;577.654;2.24
1618;1996.12;538.102;2.24
1619;2013.21;591.571;2.24
1620;2057.77;581.561;2.24
1621;2075.16;579.608;2.24
1622;2084.93;559.832;2.24
1623;2075.16;575.701;2.24
1624;2048;573.748;2.25
1625;2023.28;599.384;2.25
1626;2065.09;567.888;2.25
1627;2104.77;565.935;2.25
1628;2126.74;605.243;2.25
1629;2126.74;563.738;2.25
1630;2104.77;561.785;2.25
1631;2065.09;565.935;2.25
1632;2048;585.467;2.25
1633;2069.98;567.888;2.25
1634;2087.37;567.888;2.25
1635;2092.25;542.009;2.25
1636;2080.05;581.561;2.25
1637;2037.93;579.608;2.25
1638;1998.56;542.009;2.25
1639;2010.77;585.467;2.25
1640;2057.77;585.467;2.26
1641;2077.6;579.608;2.26
1642;2084.93;559.832;2.26
1643;2077.6;585.467;2.26
1644;2045.26;575.701;2.26
1645;2025.72;599.384;2.26
1646;2065.09;563.738;2.26
1647;2107.21;567.888;2.26
1648;2126.74;607.196;2.26
1649;2129.49;555.925;2.26
1650;2109.65;563.738;2.26
1651;2067.53;563.738;2.26
1652;2048;583.514;2.26
1653;2075.16;561.785;2.26
1654;2092.25;571.795;2.27
1655;2092.25;548.112;2.27
1656;2080.05;571.795;2.27
1657;2042.81;587.42;2.27
1658;2001;552.019;2.27
1659;2018.09;567.888;2.27
1660;2062.65;601.337;2.27
1661;2082.49;571.795;2.27
