<WeldAnalyseData xmlns:i="http:www.w3.org/2001/XMLSchema-instance">
<WeldParameter>
<TimeStamp>DT#2024-01-25-14:31:26</TimeStamp>
<Generator>SG-22-10000</Generator>
<GenFreq>20</GenFreq>
<MaxForce>8000</MaxForce>
<MaxPower>10000</MaxPower>
<RunupPressure>1.5</RunupPressure>
<RunupDist>10</RunupDist>
<RunPress>0.8</RunPress>
<ShakeDelay>0.03</ShakeDelay>
<ShakeTime>0.3</ShakeTime>
<RunBackPress1>6</RunBackPress1>
<RunBackPress2>2</RunBackPress2>
<RunBackDist>1</RunBackDist>
<TrigValue>500</TrigValue>
<TrigModeUnit>W</TrigModeUnit>
<WeldModeUnit>Ws</WeldModeUnit>
<PressNr>0</PressNr>
<MaxLoss>1500</MaxLoss>
</WeldParameter>
<WeldSets>
<WeldSet>
<PressRiseTime>0</PressRiseTime>
<RunPressure>1</RunPressure>
<Amplitude>86</Amplitude>
<WeldMode>3270</WeldMode>
</WeldSet>
</WeldSets>
<WeldValue>
<WeldNr>3027</WeldNr>
<RecipeName>RickStyle</RecipeName>
<WeldTime>1674</WeldTime>
<DistDiff>2.39</DistDiff>
<DistAbs>78.09</DistAbs>
<Energy>3271.89</Energy>
<MaxPower>2156.06</MaxPower>
<CycleTime>6040</CycleTime>
<TrigForce>504.654</TrigForce>
<TrigDist>75.7</TrigDist>
<RunSpeed>67.7708</RunSpeed>
<MaxForce>626.972</MaxForce>
<LossPower>322.657</LossPower>
</WeldValue>
</WeldAnalyseData>
#CSV-START#
ms;Power[W];Force[N];Distance[mm]
1;0;0;0
2;0;504.654;0
3;0;504.654;0
4;0;504.654;0
5;0;504.654;0
6;0;506.607;0
7;0;504.654;0
8;0;492.691;0
9;0;435.56;0.0100021
10;0;415.784;0.0300064
11;0;376.232;0.0600052
12;35.3252;372.326;0.100006
13;106.738;344.737;0.139999
14;193.106;332.774;0.170006
15;267.266;312.998;0.210007
16;324.03;311.045;0.260002
17;380.795;299.326;0.300003
18;442.747;311.045;0.340004
19;514.161;285.409;0.389999
20;580.996;305.185;0.43
21;642.644;326.914;0.470001
22;701.849;287.362;0.5
23;758.614;319.102;0.530006
24;810.495;323.008;0.550003
25;879.772;342.784;0.580002
26;943.861;334.727;0.600006
27;993.301;344.737;0.620003
28;1045.18;348.643;0.630005
29;1074.79;384.045;0.639999
30;1094.32;376.232;0.660004
31;1124.23;366.466;0.670006
32;1185.87;421.644;0.670006
33;1227.68;396.008;0.68
34;1267.36;396.008;0.690002
35;1299.4;390.149;0.700005
36;1319.24;403.821;0.700005
37;1336.33;409.925;0.710007
38;1383.33;415.784;0.720001
39;1442.53;396.008;0.730003
40;1484.65;421.644;0.730003
41;1524.02;427.503;0.740005
42;1536.53;394.055;0.75
43;1531.65;421.644;0.75
44;1528.9;423.597;0.760002
45;1566.13;431.654;0.760002
46;1600.62;421.644;0.770004
47;1627.78;413.831;0.780006
48;1642.73;423.597;0.780006
49;1640.29;445.326;0.790001
50;1625.34;419.691;0.800003
51;1640.29;421.644;0.800003
52;1697.06;463.149;0.810005
53;1736.43;437.513;0.82
54;1763.59;433.607;0.82
55;1783.43;433.607;0.830002
56;1775.8;445.326;0.840004
57;1770.91;463.149;0.840004
58;1813.03;453.383;0.850006
59;1872.23;439.467;0.850006
60;1906.72;472.915;0.860001
61;1926.56;461.196;0.870003
62;1924.12;433.607;0.870003
63;1899.4;457.289;0.880005
64;1884.44;467.055;0.880005
65;1911.6;470.962;0.889999
66;1943.95;461.196;0.900002
67;1958.6;445.326;0.900002
68;1963.48;469.008;0.910004
69;1941.51;486.831;0.910004
70;1906.72;459.243;0.920006
71;1911.6;457.289;0.920006
72;1965.93;506.607;0.93
73;1998.28;472.915;0.93
74;2020.25;470.962;0.940002
75;2020.25;467.055;0.940002
76;2000.72;482.925;0.940002
77;1983.32;492.691;0.950005
78;2017.81;488.784;0.950005
79;2067.25;465.102;0.960007
80;2094.41;498.795;0.960007
81;2106.92;494.644;0.970001
82;2094.41;457.289;0.970001
83;2057.48;484.878;0.980003
84;2032.76;494.644;0.980003
85;2055.04;498.795;0.990005
86;2077.32;486.831;0.990005
87;2087.08;472.915;1
88;2082.2;490.738;1
89;2047.41;506.607;1.01
90;2008.04;472.915;1.01
91;2008.04;492.691;1.02
92;2062.36;524.43;1.02
93;2079.76;498.795;1.02
94;2096.85;490.738;1.03001
95;2101.73;492.691;1.03001
96;2084.64;502.701;1.04
97;2055.04;522.477;1.04
98;2057.48;508.56;1.04
99;2111.8;492.691;1.05
100;2138.97;506.607;1.05
101;2153.61;530.29;1.06001
102;2146.29;467.055;1.06001
103;2111.8;506.607;1.06001
104;2069.69;504.654;1.07
105;2077.32;516.373;1.07
106;2106.92;498.795;1.07
107;2114.25;502.701;1.08
108;2116.69;492.691;1.08
109;2089.53;532.243;1.08
110;2047.41;508.56;1.09
111;2017.81;488.784;1.09
112;2059.92;552.019;1.09
113;2089.53;510.514;1.10001
114;2106.92;510.514;1.10001
115;2111.8;504.654;1.10001
116;2089.53;520.524;1.11
117;2057.48;522.477;1.11
118;2062.36;530.29;1.11
119;2111.8;494.644;1.11
120;2138.97;524.43;1.12
121;2153.61;536.149;1.12
122;2146.29;482.925;1.12
123;2106.92;518.326;1.13
124;2067.25;520.524;1.13
125;2072.13;530.29;1.13
126;2099.29;512.467;1.13
127;2109.36;510.514;1.14
128;2106.92;512.467;1.14
129;2077.32;542.009;1.14
130;2032.76;512.467;1.14
131;2008.04;510.514;1.15
132;2050.16;557.878;1.15
133;2082.2;522.477;1.15
134;2096.85;518.326;1.15
135;2096.85;514.42;1.16
136;2072.13;528.336;1.16
137;2040.09;538.102;1.16
138;2050.16;534.196;1.16
139;2096.85;510.514;1.17001
140;2124.01;542.009;1.17001
141;2136.52;538.102;1.17001
142;2126.45;498.795;1.17001
143;2087.08;524.43;1.18
144;2047.41;532.243;1.18
145;2052.6;534.196;1.18
146;2077.32;522.477;1.18
147;2084.64;512.467;1.18
148;2079.76;526.383;1.19
149;2055.04;542.009;1.19
150;2008.04;508.56;1.19
151;1983.32;524.43;1.19
152;2025.44;557.878;1.19
153;2055.04;530.29;1.2
154;2069.69;524.43;1.2
155;2072.13;522.477;1.2
156;2047.41;536.149;1.2
157;2015.37;550.066;1.2
158;2020.25;536.149;1.21001
159;2067.25;522.477;1.21001
160;2094.41;553.972;1.21001
161;2101.73;536.149;1.21001
162;2094.41;496.597;1.21001
163;2057.48;532.243;1.22
164;2020.25;532.243;1.22
165;2025.44;542.009;1.22
166;2050.16;526.383;1.22
167;2057.48;530.29;1.22
168;2057.48;518.326;1.23
169;2025.44;563.738;1.23
170;1983.32;536.149;1.23
171;1958.6;516.373;1.23
172;2000.72;579.608;1.23
173;2027.88;538.102;1.24001
174;2040.09;538.102;1.24001
175;2040.09;528.336;1.24001
176;2020.25;546.159;1.24001
177;1988.2;546.159;1.24001
178;1995.83;557.878;1.25
179;2044.97;518.326;1.25
180;2069.69;548.112;1.25
181;2082.2;561.785;1.25
182;2072.13;506.607;1.25
183;2037.64;540.056;1.25
184;1998.28;544.206;1.26
185;2005.6;548.112;1.26
186;2030.32;534.196;1.26
187;2032.76;530.29;1.26
188;2032.76;532.243;1.26
189;2005.6;561.785;1.26
190;1961.04;532.243;1.27
191;1938.76;524.43;1.27
192;1980.88;579.608;1.27
193;2008.04;542.009;1.27
194;2023;536.149;1.27
195;2023;536.149;1.27
196;2000.72;548.112;1.28001
197;1968.67;557.878;1.28001
198;1980.88;555.925;1.28001
199;2030.32;526.383;1.28001
200;2052.6;559.832;1.28001
201;2062.36;557.878;1.28001
202;2052.6;518.326;1.28001
203;2017.81;546.159;1.29
204;1978.44;552.019;1.29
205;1985.76;555.925;1.29
206;2010.48;540.056;1.29
207;2015.37;530.29;1.29
208;2015.37;544.206;1.29
209;1985.76;559.832;1.3
210;1941.51;530.29;1.3
211;1924.12;540.056;1.3
212;1965.93;577.654;1.3
213;1993.09;550.066;1.3
214;2008.04;540.056;1.3
215;2008.04;540.056;1.3
216;1985.76;553.972;1.31001
217;1953.72;567.888;1.31001
218;1968.67;555.925;1.31001
219;2012.92;536.149;1.31001
220;2037.64;573.748;1.31001
221;2047.41;553.972;1.31001
222;2035.2;530.29;1.31001
223;2000.72;546.159;1.32
224;1965.93;555.925;1.32
225;1973.56;561.785;1.32
226;1998.28;546.159;1.32
227;2003.16;538.102;1.32
228;2000.72;544.206;1.32
229;1976;569.842;1.32
230;1931.44;540.056;1.33
231;1909.16;540.056;1.33
232;1953.72;587.42;1.33
233;1980.88;553.972;1.33
234;1990.65;548.112;1.33
235;1990.65;544.206;1.33
236;1971.11;557.878;1.33
237;1941.51;569.842;1.34
238;1953.72;561.785;1.34
239;2000.72;540.056;1.34
240;2025.44;571.795;1.34
241;2035.2;563.738;1.34
242;2025.44;528.336;1.34
243;1988.2;553.972;1.34
244;1951.28;561.785;1.35001
245;1961.04;565.935;1.35001
246;1985.76;552.019;1.35001
247;1993.09;538.102;1.35001
248;1988.2;553.972;1.35001
249;1963.48;571.795;1.35001
250;1921.67;542.009;1.35001
251;1904.28;553.972;1.35001
252;1941.51;581.561;1.36
253;1963.48;557.878;1.36
254;1976;561.785;1.36
255;1978.44;548.112;1.36
256;1956.16;567.888;1.36
257;1929;563.738;1.36
258;1943.95;579.608;1.36
259;1990.65;534.196;1.36
260;2015.37;563.738;1.37
261;2025.44;585.467;1.37
262;2015.37;524.43;1.37
263;1976;559.832;1.37
264;1943.95;559.832;1.37
265;1953.72;573.748;1.37
266;1978.44;553.972;1.37
267;1980.88;555.925;1.37
268;1978.44;548.112;1.38
269;1951.28;587.42;1.38
270;1909.16;561.785;1.38
271;1894.51;542.009;1.38
272;1936.32;605.243;1.38
273;1963.48;563.738;1.38
274;1971.11;563.738;1.38
275;1973.56;555.925;1.38
276;1951.28;571.795;1.38
277;1924.12;575.701;1.39
278;1938.76;581.561;1.39
279;1985.76;544.206;1.39
280;2008.04;573.748;1.39
281;2017.81;585.467;1.39
282;2008.04;534.196;1.39
283;1968.67;565.935;1.39
284;1938.76;569.842;1.39
285;1951.28;577.654;1.4
286;1971.11;563.738;1.4
287;1978.44;557.878;1.4
288;1973.56;561.785;1.4
289;1946.39;589.618;1.4
290;1904.28;557.878;1.4
291;1892.07;557.878;1.4
292;1931.44;603.29;1.4
293;1956.16;569.842;1.4
294;1971.11;561.785;1.41
295;1968.67;561.785;1.41
296;1948.84;575.701;1.41
297;1919.23;585.467;1.41
298;1936.32;583.514;1.41
299;1980.88;555.925;1.41
300;2005.6;587.42;1.41
301;2012.92;583.514;1.41
302;2000.72;546.159;1.41
303;1965.93;571.795;1.42001
304;1933.88;579.608;1.42001
305;1946.39;583.514;1.42001
306;1965.93;569.842;1.42001
307;1971.11;555.925;1.42001
308;1968.67;571.795;1.42001
309;1938.76;587.42;1.42001
310;1899.4;557.878;1.42001
311;1887.19;569.842;1.42001
312;1926.56;601.337;1.43
313;1951.28;575.701;1.43
314;1963.48;567.888;1.43
315;1961.04;569.842;1.43
316;1941.51;585.467;1.43
317;1911.6;579.608;1.43
318;1929;597.43;1.43
319;1978.44;552.019;1.43
320;1998.28;577.654;1.43
321;2008.04;603.29;1.44
322;1995.83;540.056;1.44
323;1961.04;573.748;1.44
324;1929;575.701;1.44
325;1946.39;587.42;1.44
326;1965.93;567.888;1.44
327;1968.67;571.795;1.44
328;1965.93;561.785;1.44
329;1936.32;603.29;1.44
330;1896.95;575.701;1.44
331;1884.44;555.925;1.45
332;1926.56;617.206;1.45
333;1951.28;579.608;1.45
334;1963.48;579.608;1.45
335;1961.04;569.842;1.45
336;1938.76;585.467;1.45
337;1911.6;585.467;1.45
338;1931.44;595.477;1.45
339;1976;559.832;1.45
340;1998.28;587.42;1.45
341;2008.04;599.384;1.46001
342;1993.09;546.159;1.46001
343;1958.6;579.608;1.46001
344;1926.56;579.608;1.46001
345;1941.51;589.618;1.46001
346;1958.6;575.701;1.46001
347;1965.93;569.842;1.46001
348;1961.04;569.842;1.46001
349;1931.44;601.337;1.46001
350;1889.63;571.795;1.46001
351;1879.56;563.738;1.47
352;1924.12;619.16;1.47
353;1948.84;581.561;1.47
354;1961.04;575.701;1.47
355;1958.6;573.748;1.47
356;1938.76;583.514;1.47
357;1909.16;593.524;1.47
358;1929;593.524;1.47
359;1973.56;563.738;1.47
360;1993.09;597.43;1.47
361;2003.16;593.524;1.47
362;1990.65;553.972;1.48
363;1956.16;579.608;1.48
364;1926.56;587.42;1.48
365;1941.51;593.524;1.48
366;1961.04;579.608;1.48
367;1965.93;565.935;1.48
368;1958.6;577.654;1.48
369;1931.44;597.43;1.48
370;1892.07;565.935;1.48
371;1884.44;575.701;1.48
372;1924.12;609.149;1.48
373;1948.84;583.514;1.49001
374;1958.6;573.748;1.49001
375;1958.6;573.748;1.49001
376;1936.32;585.467;1.49001
377;1909.16;601.337;1.49001
378;1929;595.477;1.49001
379;1973.56;559.832;1.49001
380;1993.09;591.571;1.49001
381;2000.72;597.43;1.49001
382;1988.2;550.066;1.49001
383;1953.72;581.561;1.49001
384;1921.67;587.42;1.5
385;1938.76;591.571;1.5
386;1958.6;579.608;1.5
387;1958.6;569.842;1.5
388;1956.16;575.701;1.5
389;1926.56;601.337;1.5
390;1884.44;567.888;1.5
391;1879.56;571.795;1.5
392;1921.67;615.253;1.5
393;1943.95;583.514;1.5
394;1953.72;575.701;1.5
395;1953.72;575.701;1.51
396;1931.44;587.42;1.51
397;1904.28;599.384;1.51
398;1926.56;593.524;1.51
399;1971.11;567.888;1.51
400;1990.65;601.337;1.51
401;2003.16;589.618;1.51
402;1988.2;557.878;1.51
403;1948.84;581.561;1.51
404;1921.67;589.618;1.51
405;1936.32;593.524;1.51
406;1956.16;579.608;1.51
407;1963.48;563.738;1.52
408;1956.16;583.514;1.52
409;1926.56;611.347;1.52
410;1884.44;583.514;1.52
411;1879.56;555.925;1.52
412;1924.12;625.019;1.52
413;1943.95;585.467;1.52
414;1958.6;585.467;1.52
415;1956.16;571.795;1.52
416;1933.88;591.571;1.52
417;1909.16;585.467;1.52
418;1931.44;603.29;1.52
419;1971.11;559.832;1.53001
420;1993.09;585.467;1.53001
421;2003.16;609.149;1.53001
422;1988.2;546.159;1.53001
423;1951.28;581.561;1.53001
424;1921.67;581.561;1.53001
425;1938.76;593.524;1.53001
426;1961.04;575.701;1.53001
427;1963.48;575.701;1.53001
428;1958.6;567.888;1.53001
429;1926.56;603.29;1.53001
430;1889.63;579.608;1.53001
431;1884.44;561.785;1.54
432;1924.12;623.066;1.54
433;1948.84;583.514;1.54
434;1956.16;581.561;1.54
435;1956.16;575.701;1.54
436;1933.88;587.42;1.54
437;1909.16;591.571;1.54
438;1933.88;597.43;1.54
439;1976;561.785;1.54
440;1995.83;591.571;1.54
441;2003.16;599.384;1.54
442;1985.76;550.066;1.54
443;1946.39;581.561;1.55
444;1919.23;583.514;1.55
445;1938.76;593.524;1.55
446;1958.6;577.654;1.55
447;1961.04;567.888;1.55
448;1956.16;573.748;1.55
449;1926.56;601.337;1.55
450;1887.19;573.748;1.55
451;1884.44;567.888;1.55
452;1924.12;619.16;1.55
453;1946.39;583.514;1.55
454;1958.6;577.654;1.55
455;1953.72;573.748;1.56001
456;1931.44;589.618;1.56001
457;1909.16;599.384;1.56001
458;1936.32;593.524;1.56001
459;1976;567.888;1.56001
460;2000.72;601.337;1.56001
461;2005.6;593.524;1.56001
462;2003.16;557.878;1.56001
463;1971.11;581.561;1.56001
464;1931.44;589.618;1.56001
465;1936.32;593.524;1.56001
466;1958.6;581.561;1.56001
467;1965.93;567.888;1.57
468;1965.93;581.561;1.57
469;1946.39;597.43;1.57
470;1906.72;565.935;1.57
471;1879.56;555.925;1.57
472;1911.6;623.066;1.57
473;1943.95;585.467;1.57
474;1958.6;587.42;1.57
475;1961.04;573.748;1.57
476;1946.39;591.571;1.57
477;1914.35;585.467;1.57
478;1919.23;607.196;1.57
479;1963.48;557.878;1.58
480;1995.83;585.467;1.58
481;2008.04;611.347;1.58
482;2000.72;546.159;1.58
483;1971.11;583.514;1.58
484;1933.88;581.561;1.58
485;1933.88;591.571;1.58
486;1961.04;575.701;1.58
487;1968.67;579.608;1.58
488;1965.93;567.888;1.58
489;1946.39;609.149;1.58
490;1904.28;581.561;1.58
491;1882;563.738;1.58
492;1914.35;626.972;1.59
493;1948.84;585.467;1.59
494;1963.48;581.561;1.59
495;1965.93;577.654;1.59
496;1948.84;591.571;1.59
497;1919.23;591.571;1.59
498;1921.67;599.384;1.59
499;1968.67;563.738;1.59
500;1993.09;591.571;1.59
501;2010.48;605.243;1.59
502;2003.16;550.066;1.59
503;1968.67;585.467;1.59
504;1933.88;585.467;1.59
505;1938.76;597.43;1.60001
506;1961.04;579.608;1.60001
507;1968.67;573.748;1.60001
508;1968.67;575.701;1.60001
509;1946.39;605.243;1.60001
510;1906.72;575.701;1.60001
511;1882;571.795;1.60001
512;1919.23;619.16;1.60001
513;1951.28;585.467;1.60001
514;1961.04;579.608;1.60001
515;1968.67;577.654;1.60001
516;1951.28;591.571;1.60001
517;1919.23;597.43;1.60001
518;1926.56;595.477;1.61
519;1971.11;569.842;1.61
520;1998.28;601.337;1.61
521;2010.48;597.43;1.61
522;2005.6;557.878;1.61
523;1971.11;585.467;1.61
524;1933.88;591.571;1.61
525;1938.76;597.43;1.61
526;1965.93;579.608;1.61
527;1973.56;565.935;1.61
528;1971.11;581.561;1.61
529;1948.84;599.384;1.61
530;1906.72;567.888;1.61
531;1884.44;581.561;1.62
532;1921.67;615.253;1.62
533;1951.28;585.467;1.62
534;1965.93;583.514;1.62
535;1965.93;575.701;1.62
536;1951.28;591.571;1.62
537;1916.79;593.524;1.62
538;1926.56;599.384;1.62
539;1973.56;565.935;1.62
540;1998.28;597.43;1.62
541;2012.92;601.337;1.62
542;2005.6;557.878;1.62
543;1973.56;585.467;1.62
544;1936.32;587.42;1.63
545;1941.51;595.477;1.63
546;1968.67;581.561;1.63
547;1973.56;571.795;1.63
548;1973.56;579.608;1.63
549;1948.84;601.337;1.63
550;1909.16;571.795;1.63
551;1887.19;573.748;1.63
552;1926.56;615.253;1.63
553;1956.16;585.467;1.63
554;1971.11;579.608;1.63
555;1971.11;577.654;1.63
556;1951.28;589.618;1.63
557;1924.12;601.337;1.64
558;1929;595.477;1.64
559;1978.44;571.795;1.64
560;2000.72;605.243;1.64
561;2010.48;593.524;1.64
562;2003.16;561.785;1.64
563;1971.11;585.467;1.64
564;1936.32;579.608;1.64
565;1938.76;595.477;1.64
566;1963.48;575.701;1.64
567;1973.56;581.561;1.64
568;1971.11;565.935;1.64
569;1946.39;613.3;1.64
570;1904.28;585.467;1.64
571;1882;557.878;1.65
572;1919.23;625.019;1.65
573;1948.84;585.467;1.65
574;1961.04;587.42;1.65
575;1968.67;575.701;1.65
576;1948.84;591.571;1.65
577;1919.23;585.467;1.65
578;1926.56;607.196;1.65
579;1976;561.785;1.65
580;1998.28;587.42;1.65
581;2012.92;609.149;1.65
582;2005.6;548.112;1.65
583;1973.56;581.561;1.65
584;1933.88;583.514;1.65
585;1943.95;593.524;1.66
586;1963.48;575.701;1.66
587;1973.56;577.654;1.66
588;1973.56;571.795;1.66
589;1946.39;607.196;1.66
590;1906.72;579.608;1.66
591;1887.19;563.738;1.66
592;1926.56;625.019;1.66
593;1951.28;581.561;1.66
594;1965.93;581.561;1.66
595;1968.67;579.608;1.66
596;1951.28;589.618;1.66
597;1921.67;593.524;1.66
598;1929;597.43;1.66
599;1978.44;565.935;1.67001
600;2000.72;591.571;1.67001
601;2010.48;599.384;1.67001
602;2005.6;553.972;1.67001
603;1968.67;583.514;1.67001
604;1936.32;585.467;1.67001
605;1943.95;593.524;1.67001
606;1968.67;575.701;1.67001
607;1973.56;571.795;1.67001
608;1971.11;575.701;1.67001
609;1948.84;601.337;1.67001
610;1906.72;569.842;1.67001
611;1884.44;571.795;1.67001
612;1926.56;617.206;1.67001
613;1953.72;581.561;1.68
614;1965.93;577.654;1.68
615;1968.67;573.748;1.68
616;1948.84;587.42;1.68
617;1919.23;597.43;1.68
618;1931.44;593.524;1.68
619;1978.44;567.888;1.68
620;2000.72;599.384;1.68
621;2012.92;593.524;1.68
622;2005.6;555.925;1.68
623;1971.11;581.561;1.68
624;1938.76;587.42;1.68
625;1943.95;593.524;1.68
626;1965.93;573.748;1.68
627;1973.56;581.561;1.68
628;1971.11;563.738;1.69
629;1946.39;609.149;1.69
630;1901.84;583.514;1.69
631;1884.44;555.925;1.69
632;1926.56;623.066;1.69
633;1953.72;583.514;1.69
634;1965.93;583.514;1.69
635;1968.67;571.795;1.69
636;1948.84;589.618;1.69
637;1919.23;583.514;1.69
638;1929;601.337;1.69
639;1978.44;555.925;1.69
640;2003.16;583.514;1.69
641;2010.48;609.149;1.69
642;2003.16;544.206;1.69
643;1968.67;581.561;1.7
644;1931.44;579.608;1.7
645;1946.39;593.524;1.7
646;1965.93;571.795;1.7
647;1971.11;575.701;1.7
648;1965.93;567.888;1.7
649;1943.95;603.29;1.7
650;1904.28;577.654;1.7
651;1887.19;559.832;1.7
652;1924.12;621.113;1.7
653;1948.84;581.561;1.7
654;1963.48;581.561;1.7
655;1961.04;573.748;1.7
656;1943.95;587.42;1.7
657;1916.79;587.42;1.7
658;1926.56;597.43;1.71001
659;1973.56;559.832;1.71001
660;1998.28;587.42;1.71001
661;2008.04;599.384;1.71001
662;1998.28;546.159;1.71001
663;1963.48;581.561;1.71001
664;1931.44;585.467;1.71001
665;1943.95;589.618;1.71001
666;1961.04;575.701;1.71001
667;1971.11;569.842;1.71001
668;1965.93;571.795;1.71001
669;1941.51;601.337;1.71001
670;1899.4;571.795;1.71001
671;1884.44;567.888;1.71001
672;1924.12;615.253;1.71001
673;1951.28;579.608;1.72
674;1961.04;575.701;1.72
675;1961.04;573.748;1.72
676;1941.51;583.514;1.72
677;1914.35;595.477;1.72
678;1926.56;591.571;1.72
679;1976;565.935;1.72
680;2000.72;595.477;1.72
681;2005.6;593.524;1.72
682;2000.72;553.972;1.72
683;1961.04;579.608;1.72
684;1929;585.467;1.72
685;1938.76;589.618;1.72
686;1963.48;575.701;1.72
687;1965.93;563.738;1.72
688;1965.93;565.935;1.73
689;1941.51;603.29;1.73
690;1899.4;571.795;1.73
691;1882;559.832;1.73
692;1924.12;619.16;1.73
693;1948.84;579.608;1.73
694;1963.48;575.701;1.73
695;1963.48;569.842;1.73
696;1943.95;587.42;1.73
697;1916.79;589.618;1.73
698;1931.44;593.524;1.73
699;1978.44;561.785;1.73
700;1998.28;591.571;1.73
701;2012.92;591.571;1.73
702;2000.72;548.112;1.73
703;1963.48;577.654;1.74001
704;1931.44;583.514;1.74001
705;1941.51;589.618;1.74001
706;1963.48;577.654;1.74001
707;1968.67;565.935;1.74001
708;1968.67;573.748;1.74001
709;1938.76;595.477;1.74001
710;1899.4;565.935;1.74001
711;1884.44;571.795;1.74001
712;1924.12;613.3;1.74001
713;1951.28;581.561;1.74001
714;1965.93;573.748;1.74001
715;1963.48;571.795;1.74001
716;1943.95;583.514;1.74001
717;1916.79;597.43;1.74001
718;1929;589.618;1.75
719;1980.88;553.972;1.75
720;1995.83;579.608;1.75
721;2010.48;607.196;1.75
722;1998.28;546.159;1.75
723;1961.04;575.701;1.75
724;1931.44;573.748;1.75
725;1941.51;589.618;1.75
726;1963.48;569.842;1.75
727;1971.11;575.701;1.75
728;1965.93;559.832;1.75
729;1938.76;607.196;1.75
730;1896.95;581.561;1.75
731;1884.44;553.972;1.75
732;1926.56;621.113;1.75
733;1951.28;579.608;1.76
734;1961.04;579.608;1.76
735;1963.48;569.842;1.76
736;1941.51;589.618;1.76
737;1916.79;581.561;1.76
738;1931.44;597.43;1.76
739;1978.44;555.925;1.76
740;1998.28;581.561;1.76
741;2010.48;601.337;1.76
742;1993.09;542.009;1.76
743;1961.04;577.654;1.76
744;1929;577.654;1.76
745;1943.95;587.42;1.76
746;1965.93;571.795;1.76
747;1971.11;571.795;1.76
748;1963.48;567.888;1.76
749;1936.32;601.337;1.77
750;1894.51;573.748;1.77
751;1884.44;559.832;1.77
752;1929;621.113;1.77
753;1953.72;577.654;1.77
754;1963.48;577.654;1.77
755;1963.48;569.842;1.77
756;1941.51;587.42;1.77
757;1914.35;589.618;1.77
758;1933.88;595.477;1.77
759;1980.88;561.785;1.77
760;2000.72;587.42;1.77
761;2008.04;597.43;1.77
762;1995.83;548.112;1.77
763;1963.48;579.608;1.77
764;1931.44;583.514;1.78001
765;1948.84;585.467;1.78001
766;1963.48;573.748;1.78001
767;1968.67;565.935;1.78001
768;1965.93;571.795;1.78001
769;1936.32;597.43;1.78001
770;1894.51;565.935;1.78001
771;1884.44;567.888;1.78001
772;1929;611.347;1.78001
773;1951.28;579.608;1.78001
774;1963.48;571.795;1.78001
775;1963.48;571.795;1.78001
776;1941.51;583.514;1.78001
777;1914.35;595.477;1.78001
778;1931.44;589.618;1.78001
779;1980.88;563.738;1.79
780;2000.72;595.477;1.79
781;2012.92;607.196;1.79
782;1995.83;544.206;1.79
783;1961.04;577.654;1.79
784;1931.44;573.748;1.79
785;1948.84;587.42;1.79
786;1968.67;571.795;1.79
787;1971.11;575.701;1.79
788;1968.67;557.878;1.79
789;1938.76;607.196;1.79
790;1899.4;579.608;1.79
791;1892.07;552.019;1.79
792;1933.88;619.16;1.79
793;1956.16;579.608;1.79
794;1968.67;579.608;1.79
795;1968.67;569.842;1.8
796;1943.95;587.42;1.8
797;1919.23;581.561;1.8
798;1941.51;599.384;1.8
799;1985.76;553.972;1.8
800;2003.16;581.561;1.8
801;2012.92;601.337;1.8
802;2000.72;540.056;1.8
803;1965.93;577.654;1.8
804;1936.32;577.654;1.8
805;1953.72;587.42;1.8
806;1971.11;571.795;1.8
807;1973.56;571.795;1.8
808;1971.11;565.935;1.8
809;1938.76;605.243;1.8
810;1899.4;573.748;1.81001
811;1892.07;557.878;1.81001
812;1933.88;619.16;1.81001
813;1958.6;579.608;1.81001
814;1968.67;575.701;1.81001
815;1965.93;569.842;1.81001
816;1946.39;585.467;1.81001
817;1919.23;585.467;1.81001
818;1941.51;591.571;1.81001
819;1985.76;555.925;1.81001
820;2008.04;585.467;1.81001
821;2015.37;599.384;1.81001
822;2003.16;546.159;1.81001
823;1963.48;577.654;1.81001
824;1933.88;579.608;1.81001
825;1951.28;589.618;1.81001
826;1968.67;573.748;1.82
827;1976;565.935;1.82
828;1973.56;573.748;1.82
829;1948.84;597.43;1.82
830;1909.16;565.935;1.82
831;1887.19;563.738;1.82
832;1929;613.3;1.82
833;1956.16;579.608;1.82
834;1971.11;571.795;1.82
835;1968.67;571.795;1.82
836;1948.84;581.561;1.82
837;1921.67;591.571;1.82
838;1933.88;585.467;1.82
839;1980.88;561.785;1.82
840;2005.6;595.477;1.82
841;2012.92;587.42;1.82
842;2005.6;544.206;1.83
843;1971.11;575.701;1.83
844;1936.32;577.654;1.83
845;1946.39;587.42;1.83
846;1965.93;571.795;1.83
847;1973.56;569.842;1.83
848;1973.56;565.935;1.83
849;1946.39;601.337;1.83
850;1906.72;569.842;1.83
851;1887.19;559.832;1.83
852;1929;615.253;1.83
853;1956.16;577.654;1.83
854;1968.67;577.654;1.83
855;1971.11;571.795;1.83
856;1948.84;581.561;1.83
857;1921.67;585.467;1.83
858;1931.44;589.618;1.84
859;1978.44;559.832;1.84
860;2000.72;587.42;1.84
861;2012.92;589.618;1.84
862;2003.16;550.066;1.84
863;1968.67;577.654;1.84
864;1931.44;583.514;1.84
865;1943.95;585.467;1.84
866;1963.48;573.748;1.84
867;1973.56;563.738;1.84
868;1968.67;571.795;1.84
869;1943.95;593.524;1.84
870;1904.28;559.832;1.84
871;1887.19;567.888;1.84
872;1929;607.196;1.84
873;1953.72;579.608;1.84
874;1965.93;581.561;1.85001
875;1965.93;567.888;1.85001
876;1948.84;587.42;1.85001
877;1919.23;577.654;1.85001
878;1929;601.337;1.85001
879;1980.88;552.019;1.85001
880;2005.6;575.701;1.85001
881;2012.92;607.196;1.85001
882;2003.16;540.056;1.85001
883;1971.11;573.748;1.85001
884;1936.32;571.795;1.85001
885;1946.39;587.42;1.85001
886;1965.93;567.888;1.85001
887;1971.11;573.748;1.85001
888;1968.67;557.878;1.85001
889;1941.51;605.243;1.85001
890;1901.84;577.654;1.86
891;1887.19;550.066;1.86
892;1929;619.16;1.86
893;1953.72;577.654;1.86
894;1965.93;577.654;1.86
895;1968.67;567.888;1.86
896;1946.39;585.467;1.86
897;1919.23;579.608;1.86
898;1933.88;599.384;1.86
899;1978.44;552.019;1.86
900;2000.72;581.561;1.86
901;2010.48;599.384;1.86
902;2000.72;538.102;1.86
903;1965.93;575.701;1.86
904;1936.32;577.654;1.86
905;1943.95;587.42;1.86
906;1968.67;569.842;1.87
907;1971.11;567.888;1.87
908;1968.67;561.785;1.87
909;1943.95;599.384;1.87
910;1901.84;569.842;1.87
911;1889.63;557.878;1.87
912;1931.44;617.206;1.87
913;1953.72;577.654;1.87
914;1965.93;571.795;1.87
915;1965.93;569.842;1.87
916;1946.39;581.561;1.87
917;1919.23;587.42;1.87
918;1936.32;591.571;1.87
919;1983.32;555.925;1.87
920;2003.16;587.42;1.87
921;2012.92;591.571;1.87
922;2003.16;542.009;1.88
923;1968.67;575.701;1.88
924;1933.88;581.561;1.88
925;1951.28;585.467;1.88
926;1968.67;571.795;1.88
927;1973.56;561.785;1.88
928;1968.67;569.842;1.88
929;1943.95;591.571;1.88
930;1904.28;563.738;1.88
931;1889.63;563.738;1.88
932;1929;607.196;1.88
933;1953.72;577.654;1.88
934;1963.48;571.795;1.88
935;1968.67;565.935;1.88
936;1946.39;587.42;1.88
937;1919.23;577.654;1.88
938;1933.88;599.384;1.89
939;1980.88;550.066;1.89
940;2003.16;575.701;1.89
941;2012.92;605.243;1.89
942;2003.16;540.056;1.89
943;1965.93;573.748;1.89
944;1933.88;571.795;1.89
945;1948.84;589.618;1.89
946;1971.11;565.935;1.89
947;1976;571.795;1.89
948;1973.56;555.925;1.89
949;1946.39;603.29;1.89
950;1901.84;575.701;1.89
951;1894.51;550.066;1.89
952;1933.88;617.206;1.89
953;1958.6;577.654;1.89
954;1971.11;575.701;1.9
955;1971.11;563.738;1.9
956;1951.28;585.467;1.9
957;1924.12;579.608;1.9
958;1941.51;597.43;1.9
959;1988.2;552.019;1.9
960;2008.04;577.654;1.9
961;2020.25;599.384;1.9
962;2008.04;538.102;1.9
963;1971.11;571.795;1.9
964;1941.51;573.748;1.9
965;1956.16;585.467;1.9
966;1976;569.842;1.9
967;1978.44;569.842;1.9
968;1976;563.738;1.9
969;1946.39;601.337;1.9
970;1906.72;569.842;1.91
971;1896.95;555.925;1.91
972;1938.76;615.253;1.91
973;1961.04;577.654;1.91
974;1971.11;571.795;1.91
975;1971.11;567.888;1.91
976;1951.28;585.467;1.91
977;1921.67;583.514;1.91
978;1943.95;591.571;1.91
979;1985.76;557.878;1.91
980;2005.6;585.467;1.91
981;2017.81;595.477;1.91
982;2005.6;544.206;1.91
983;1968.67;575.701;1.91
984;1938.76;579.608;1.91
985;1956.16;585.467;1.91
986;1973.56;569.842;1.91
987;1976;565.935;1.92001
988;1971.11;567.888;1.92001
989;1943.95;595.477;1.92001
990;1904.28;563.738;1.92001
991;1896.95;561.785;1.92001
992;1938.76;607.196;1.92001
993;1963.48;573.748;1.92001
994;1976;569.842;1.92001
995;1976;567.888;1.92001
996;1953.72;581.561;1.92001
997;1924.12;581.561;1.92001
998;1946.39;593.524;1.92001
999;1990.65;552.019;1.92001
1000;2010.48;581.561;1.92001
1001;2023;599.384;1.92001
1002;2008.04;538.102;1.92001
1003;1973.56;575.701;1.93
1004;1943.95;575.701;1.93
1005;1961.04;585.467;1.93
1006;1978.44;567.888;1.93
1007;1983.32;567.888;1.93
1008;1978.44;565.935;1.93
1009;1948.84;597.43;1.93
1010;1921.67;567.888;1.93
1011;1894.51;557.878;1.93
1012;1926.56;615.253;1.93
1013;1961.04;577.654;1.93
1014;1976;571.795;1.93
1015;1983.32;567.888;1.93
1016;1968.67;579.608;1.93
1017;1933.88;585.467;1.93
1018;1936.32;587.42;1.93
1019;1980.88;555.925;1.93
1020;2008.04;587.42;1.93
1021;2020.25;587.42;1.94
1022;2020.25;546.159;1.94
1023;1988.2;575.701;1.94
1024;1953.72;579.608;1.94
1025;1948.84;585.467;1.94
1026;1973.56;571.795;1.94
1027;1983.32;559.832;1.94
1028;1980.88;553.972;1.94
1029;1963.48;605.243;1.94
1030;1924.12;577.654;1.94
1031;1894.51;544.206;1.94
1032;1926.56;613.3;1.94
1033;1961.04;577.654;1.94
1034;1976;581.561;1.94
1035;1980.88;561.785;1.94
1036;1965.93;585.467;1.94
1037;1938.76;577.654;1.94
1038;1933.88;597.43;1.95
1039;1983.32;548.112;1.95
1040;2008.04;575.701;1.95
1041;2020.25;603.29;1.95
1042;2017.81;536.149;1.95
1043;1988.2;571.795;1.95
1044;1951.28;571.795;1.95
1045;1948.84;585.467;1.95
1046;1976;567.888;1.95
1047;1983.32;571.795;1.95
1048;1983.32;557.878;1.95
1049;1965.93;601.337;1.95
1050;1921.67;577.654;1.95
1051;1894.51;548.112;1.95
1052;1929;617.206;1.95
1053;1958.6;577.654;1.95
1054;1973.56;577.654;1.95
1055;1978.44;565.935;1.96001
1056;1965.93;583.514;1.96001
1057;1933.88;579.608;1.96001
1058;1933.88;593.524;1.96001
1059;1983.32;552.019;1.96001
1060;2010.48;581.561;1.96001
1061;2023;597.43;1.96001
1062;2020.25;540.056;1.96001
1063;1985.76;575.701;1.96001
1064;1951.28;573.748;1.96001
1065;1951.28;587.42;1.96001
1066;1976;567.888;1.96001
1067;1983.32;567.888;1.96001
1068;1983.32;563.738;1.96001
1069;1963.48;597.43;1.96001
1070;1924.12;569.842;1.96001
1071;1894.51;557.878;1.96001
1072;1926.56;613.3;1.97
1073;1961.04;575.701;1.97
1074;1973.56;569.842;1.97
1075;1978.44;567.888;1.97
1076;1963.48;579.608;1.97
1077;1933.88;585.467;1.97
1078;1933.88;587.42;1.97
1079;1980.88;555.925;1.97
1080;2010.48;587.42;1.97
1081;2023;589.618;1.97
1082;2020.25;546.159;1.97
1083;1988.2;575.701;1.97
1084;1951.28;577.654;1.97
1085;1953.72;585.467;1.97
1086;1978.44;571.795;1.97
1087;1983.32;563.738;1.97
1088;1983.32;571.795;1.97
1089;1963.48;593.524;1.98
1090;1924.12;577.654;1.98
1091;1896.95;544.206;1.98
1092;1933.88;609.149;1.98
1093;1968.67;579.608;1.98
1094;1978.44;581.561;1.98
1095;1985.76;563.738;1.98
1096;1968.67;587.42;1.98
1097;1938.76;573.748;1.98
1098;1938.76;599.384;1.98
1099;1985.76;550.066;1.98
1100;2012.92;571.795;1.98
1101;2025.44;607.196;1.98
1102;2017.81;540.056;1.98
1103;1988.2;571.795;1.98
1104;1953.72;569.842;1.98
1105;1956.16;587.42;1.98
1106;1980.88;567.888;1.99001
1107;1988.2;573.748;1.99001
1108;1988.2;555.925;1.99001
1109;1965.93;603.29;1.99001
1110;1929;577.654;1.99001
1111;1901.84;550.066;1.99001
1112;1938.76;617.206;1.99001
1113;1968.67;573.748;1.99001
1114;1980.88;575.701;1.99001
1115;1985.76;563.738;1.99001
1116;1968.67;585.467;1.99001
1117;1938.76;579.608;1.99001
1118;1941.51;593.524;1.99001
1119;1995.83;550.066;1.99001
1120;2017.81;577.654;1.99001
1121;2030.32;599.384;1.99001
1122;2025.44;538.102;1.99001
1123;1993.09;573.748;2
1124;1958.6;573.748;2
1125;1958.6;587.42;2
1126;1985.76;569.842;2
1127;1993.09;565.935;2
1128;1993.09;563.738;2
1129;1968.67;597.43;2
1130;1929;569.842;2
1131;1906.72;557.878;2
1132;1941.51;615.253;2
1133;1973.56;575.701;2
1134;1985.76;571.795;2
1135;1990.65;565.935;2
1136;1976;583.514;2
1137;1941.51;585.467;2
1138;1946.39;587.42;2.01
1139;1998.28;555.925;2.01
1140;2023;587.42;2.01
1141;2035.2;591.571;2.01
1142;2030.32;542.009;2.01
1143;1998.28;573.748;2.01
1144;1961.04;579.608;2.01
1145;1963.48;585.467;2.01
1146;1988.2;569.842;2.01
1147;1995.83;561.785;2.01
1148;1995.83;567.888;2.01
1149;1976;593.524;2.01
1150;1933.88;561.785;2.01
1151;1911.6;552.019;2.01
1152;1946.39;617.206;2.01
1153;1978.44;575.701;2.01
1154;1993.09;575.701;2.01
1155;1993.09;565.935;2.02
1156;1976;583.514;2.02
1157;1948.84;581.561;2.02
1158;1953.72;595.477;2.02
1159;2003.16;552.019;2.02
1160;2027.88;581.561;2.02
1161;2040.09;597.43;2.02
1162;2035.2;538.102;2.02
1163;2003.16;575.701;2.02
1164;1968.67;577.654;2.02
1165;1968.67;587.42;2.02
1166;1995.83;569.842;2.02
1167;2000.72;563.738;2.02
1168;2000.72;563.738;2.02
1169;1978.44;595.477;2.02
1170;1936.32;565.935;2.02
1171;1911.6;559.832;2.03001
1172;1953.72;611.347;2.03001
1173;1985.76;575.701;2.03001
1174;1995.83;571.795;2.03001
1175;2000.72;565.935;2.03001
1176;1980.88;579.608;2.03001
1177;1953.72;587.42;2.03001
1178;1958.6;587.42;2.03001
1179;2005.6;557.878;2.03001
1180;2032.76;589.618;2.03001
1181;2042.53;589.618;2.03001
1182;2035.2;546.159;2.03001
1183;2003.16;571.795;2.03001
1184;1968.67;567.888;2.03001
1185;1973.56;585.467;2.03001
1186;1995.83;563.738;2.03001
1187;2003.16;573.748;2.04
1188;2000.72;555.925;2.04
1189;1978.44;601.337;2.04
1190;1938.76;579.608;2.04
1191;1914.35;546.159;2.04
1192;1953.72;609.149;2.04
1193;1983.32;577.654;2.04
1194;1995.83;581.561;2.04
1195;2000.72;563.738;2.04
1196;1983.32;583.514;2.04
1197;1951.28;577.654;2.04
1198;1958.6;597.43;2.04
1199;2008.04;548.112;2.04
1200;2035.2;577.654;2.04
1201;2044.97;603.29;2.04
1202;2037.64;536.149;2.04
1203;2005.6;571.795;2.05
1204;1968.67;571.795;2.05
1205;1976;585.467;2.05
1206;2000.72;565.935;2.05
1207;2005.6;569.842;2.05
1208;2005.6;557.878;2.05
1209;1980.88;603.29;2.05
1210;1941.51;573.748;2.05
1211;1916.79;548.112;2.05
1212;1958.6;619.16;2.05
1213;1988.2;575.701;2.05
1214;2003.16;575.701;2.05
1215;2005.6;563.738;2.05
1216;1983.32;581.561;2.05
1217;1953.72;579.608;2.05
1218;1961.04;591.571;2.06001
1219;2012.92;552.019;2.06001
1220;2035.2;581.561;2.06001
1221;2047.41;595.477;2.06001
1222;2037.64;538.102;2.06001
1223;2005.6;575.701;2.06001
1224;1971.11;575.701;2.06001
1225;1978.44;585.467;2.06001
1226;2005.6;569.842;2.06001
1227;2008.04;563.738;2.06001
1228;2008.04;561.785;2.06001
1229;1983.32;597.43;2.06001
1230;1941.51;567.888;2.06001
1231;1919.23;555.925;2.06001
1232;1961.04;613.3;2.06001
1233;1990.65;575.701;2.06001
1234;2003.16;571.795;2.07
1235;2003.16;569.842;2.07
1236;1985.76;581.561;2.07
1237;1953.72;585.467;2.07
1238;1965.93;587.42;2.07
1239;2015.37;553.972;2.07
1240;2037.64;585.467;2.07
1241;2050.16;587.42;2.07
1242;2040.09;546.159;2.07
1243;2008.04;571.795;2.07
1244;1973.56;567.888;2.07
1245;1980.88;587.42;2.07
1246;2003.16;565.935;2.07
1247;2010.48;571.795;2.07
1248;2008.04;550.066;2.07
1249;1983.32;603.29;2.07
1250;1938.76;577.654;2.08
1251;1921.67;544.206;2.08
1252;1963.48;607.196;2.08
1253;1993.09;577.654;2.08
1254;2003.16;579.608;2.08
1255;2008.04;563.738;2.08
1256;1990.65;585.467;2.08
1257;1958.6;575.701;2.08
1258;1971.11;599.384;2.08
1259;2017.81;548.112;2.08
1260;2040.09;573.748;2.08
1261;2050.16;603.29;2.08
1262;2042.53;538.102;2.08
1263;2008.04;571.795;2.08
1264;1976;569.842;2.08
1265;1983.32;583.514;2.09
1266;2008.04;565.935;2.09
1267;2015.37;571.795;2.09
1268;2012.92;557.878;2.09
1269;1985.76;601.337;2.09
1270;1946.39;573.748;2.09
1271;1924.12;548.112;2.09
1272;1968.67;617.206;2.09
1273;1993.09;575.701;2.09
1274;2008.04;575.701;2.09
1275;2008.04;563.738;2.09
1276;1990.65;581.561;2.09
1277;1961.04;577.654;2.09
1278;1976;595.477;2.09
1279;2020.25;550.066;2.09
1280;2044.97;579.608;2.09
1281;2059.92;599.384;2.10001
1282;2047.41;540.056;2.10001
1283;2012.92;575.701;2.10001
1284;1978.44;575.701;2.10001
1285;1988.2;585.467;2.10001
1286;2012.92;567.888;2.10001
1287;2020.25;563.738;2.10001
1288;2017.81;559.832;2.10001
1289;1990.65;597.43;2.10001
1290;1948.84;571.795;2.10001
1291;1931.44;557.878;2.10001
1292;1973.56;613.3;2.10001
1293;2003.16;575.701;2.10001
1294;2012.92;571.795;2.10001
1295;2015.37;567.888;2.10001
1296;1995.83;583.514;2.11
1297;1963.48;583.514;2.11
1298;1978.44;587.42;2.11
1299;2030.32;555.925;2.11
1300;2052.6;585.467;2.11
1301;2062.36;589.618;2.11
1302;2052.6;544.206;2.11
1303;2017.81;573.748;2.11
1304;1983.32;579.608;2.11
1305;1998.28;585.467;2.11
1306;2017.81;567.888;2.11
1307;2023;565.935;2.11
1308;2020.25;557.878;2.11
1309;1993.09;599.384;2.11
1310;1948.84;573.748;2.11
1311;1933.88;552.019;2.11
1312;1976;617.206;2.12
1313;2008.04;575.701;2.12
1314;2020.25;571.795;2.12
1315;2020.25;565.935;2.12
1316;2000.72;579.608;2.12
1317;1971.11;581.561;2.12
1318;1985.76;591.571;2.12
1319;2035.2;552.019;2.12
1320;2057.48;581.561;2.12
1321;2067.25;593.524;2.12
1322;2055.04;542.009;2.12
1323;2017.81;571.795;2.12
1324;1988.2;577.654;2.12
1325;2000.72;585.467;2.12
1326;2023;569.842;2.12
1327;2030.32;561.785;2.13
1328;2023;565.935;2.13
1329;1998.28;593.524;2.13
1330;1956.16;563.738;2.13
1331;1938.76;559.832;2.13
1332;1985.76;611.347;2.13
1333;2012.92;575.701;2.13
1334;2025.44;569.842;2.13
1335;2025.44;565.935;2.13
1336;2000.72;579.608;2.13
1337;1973.56;573.748;2.13
1338;1988.2;601.337;2.13
1339;2040.09;550.066;2.13
1340;2062.36;569.842;2.13
1341;2069.69;607.196;2.13
1342;2057.48;544.206;2.14
1343;2020.25;571.795;2.14
1344;1990.65;567.888;2.14
1345;2003.16;585.467;2.14
1346;2027.88;565.935;2.14
1347;2032.76;569.842;2.14
1348;2027.88;552.019;2.14
1349;2003.16;603.29;2.14
1350;1958.6;577.654;2.14
1351;1946.39;546.159;2.14
1352;1990.65;611.347;2.14
1353;2017.81;575.701;2.14
1354;2027.88;575.701;2.14
1355;2027.88;563.738;2.14
1356;2010.48;583.514;2.14
1357;1978.44;573.748;2.14
1358;1995.83;599.384;2.15
1359;2042.53;548.112;2.15
1360;2064.81;573.748;2.15
1361;2077.32;601.337;2.15
1362;2062.36;538.102;2.15
1363;2027.88;571.795;2.15
1364;1993.09;569.842;2.15
1365;2008.04;583.514;2.15
1366;2030.32;567.888;2.15
1367;2040.09;567.888;2.15
1368;2035.2;557.878;2.15
1369;2005.6;601.337;2.15
1370;1963.48;571.795;2.15
1371;1953.72;552.019;2.15
1372;1998.28;617.206;2.15
1373;2023;575.701;2.16
1374;2035.2;573.748;2.16
1375;2032.76;565.935;2.16
1376;2012.92;581.561;2.16
1377;1980.88;579.608;2.16
1378;2000.72;591.571;2.16
1379;2035.2;552.019;2.16
1380;2064.81;581.561;2.16
1381;2077.32;595.477;2.16
1382;2074.57;538.102;2.16
1383;2047.41;573.748;2.16
1384;2005.6;575.701;2.16
1385;2000.72;585.467;2.16
1386;2027.88;571.795;2.16
1387;2040.09;563.738;2.16
1388;2040.09;563.738;2.17001
1389;2023;597.43;2.17001
1390;1980.88;567.888;2.17001
1391;1948.84;559.832;2.17001
1392;1980.88;611.347;2.17001
1393;2020.25;573.748;2.17001
1394;2032.76;569.842;2.17001
1395;2040.09;565.935;2.17001
1396;2025.44;581.561;2.17001
1397;1993.09;587.42;2.17001
1398;1988.2;587.42;2.17001
1399;2040.09;550.066;2.17001
1400;2067.25;571.795;2.17001
1401;2084.64;607.196;2.17001
1402;2082.2;544.206;2.17001
1403;2052.6;569.842;2.17001
1404;2012.92;567.888;2.18
1405;2008.04;587.42;2.18
1406;2037.64;561.785;2.18
1407;2044.97;573.748;2.18
1408;2047.41;550.066;2.18
1409;2027.88;605.243;2.18
1410;1988.2;577.654;2.18
1411;1953.72;544.206;2.18
1412;1985.76;609.149;2.18
1413;2023;575.701;2.18
1414;2040.09;579.608;2.18
1415;2044.97;565.935;2.18
1416;2030.32;585.467;2.18
1417;1998.28;573.748;2.18
1418;1995.83;597.43;2.18
1419;2044.97;546.159;2.19
1420;2074.57;571.795;2.19
1421;2087.08;601.337;2.19
1422;2084.64;536.149;2.19
1423;2052.6;573.748;2.19
1424;2012.92;571.795;2.19
1425;2008.04;585.467;2.19
1426;2037.64;565.935;2.19
1427;2044.97;569.842;2.19
1428;2047.41;555.925;2.19
1429;2027.88;601.337;2.19
1430;1988.2;573.748;2.19
1431;1958.6;550.066;2.19
1432;1988.2;617.206;2.19
1433;2025.44;575.701;2.19
1434;2042.53;575.701;2.19
1435;2050.16;563.738;2.2
1436;2032.76;583.514;2.2
1437;1998.28;581.561;2.2
1438;1995.83;591.571;2.2
1439;2044.97;550.066;2.2
1440;2077.32;577.654;2.2
1441;2089.53;595.477;2.2
1442;2087.08;538.102;2.2
1443;2057.48;573.748;2.2
1444;2020.25;575.701;2.2
1445;2015.37;583.514;2.2
1446;2044.97;569.842;2.2
1447;2052.6;563.738;2.2
1448;2050.16;563.738;2.2
1449;2030.32;595.477;2.2
1450;1988.2;565.935;2.21001
1451;1958.6;557.878;2.21001
1452;1995.83;615.253;2.21001
1453;2035.2;575.701;2.21001
1454;2047.41;569.842;2.21001
1455;2055.04;567.888;2.21001
1456;2042.53;577.654;2.21001
1457;2010.48;585.467;2.21001
1458;2005.6;585.467;2.21001
1459;2057.48;553.972;2.21001
1460;2084.64;577.654;2.21001
1461;2096.85;601.337;2.21001
1462;2091.97;536.149;2.21001
1463;2062.36;571.795;2.21001
1464;2023;571.795;2.22
1465;2020.25;585.467;2.22
1466;2050.16;565.935;2.22
1467;2057.48;567.888;2.22
1468;2059.92;559.832;2.22
1469;2037.64;599.384;2.22
1470;1995.83;569.842;2.22
1471;1965.93;550.066;2.22
1472;2003.16;617.206;2.22
1473;2037.64;573.748;2.22
1474;2055.04;571.795;2.22
1475;2057.48;565.935;2.22
1476;2040.09;579.608;2.22
1477;2010.48;583.514;2.22
1478;2005.6;587.42;2.23
1479;2059.92;552.019;2.23
1480;2089.53;581.561;2.23
1481;2104.48;593.524;2.23
1482;2096.85;542.009;2.23
1483;2067.25;575.701;2.23
1484;2027.88;577.654;2.23
1485;2025.44;583.514;2.23
1486;2057.48;565.935;2.23
1487;2067.25;561.785;2.23
1488;2064.81;565.935;2.23
1489;2042.53;591.571;2.23
1490;2000.72;561.785;2.23
1491;1973.56;540.056;2.23
1492;2010.48;603.29;2.24001
1493;2044.97;579.608;2.24001
1494;2059.92;579.608;2.24001
1495;2064.81;561.785;2.24001
1496;2044.97;587.42;2.24001
1497;2015.37;573.748;2.24001
1498;2015.37;599.384;2.24001
1499;2067.25;548.112;2.24001
1500;2096.85;571.795;2.24001
1501;2111.8;607.196;2.24001
1502;2106.92;542.009;2.24001
1503;2072.13;571.795;2.24001
1504;2032.76;565.935;2.24001
1505;2037.64;583.514;2.24001
1506;2064.81;561.785;2.25
1507;2072.13;571.795;2.25
1508;2069.69;552.019;2.25
1509;2047.41;603.29;2.25
1510;2005.6;575.701;2.25
1511;1978.44;544.206;2.25
1512;2020.25;611.347;2.25
1513;2055.04;575.701;2.25
1514;2067.25;575.701;2.25
1515;2072.13;561.785;2.25
1516;2055.04;583.514;2.25
1517;2025.44;573.748;2.25
1518;2025.44;595.477;2.25
1519;2074.57;548.112;2.26
1520;2101.73;575.701;2.26
1521;2114.25;599.384;2.26
1522;2109.36;534.196;2.26
1523;2072.13;571.795;2.26
1524;2037.64;571.795;2.26
1525;2037.64;585.467;2.26
1526;2067.25;563.738;2.26
1527;2074.57;569.842;2.26
1528;2074.57;557.878;2.26
1529;2052.6;599.384;2.26
1530;2010.48;565.935;2.26
1531;1983.32;548.112;2.26
1532;2023;617.206;2.26
1533;2055.04;575.701;2.27
1534;2069.69;573.748;2.27
1535;2074.57;563.738;2.27
1536;2057.48;579.608;2.27
1537;2025.44;579.608;2.27
1538;2027.88;593.524;2.27
1539;2077.32;552.019;2.27
1540;2106.92;579.608;2.27
1541;2119.13;593.524;2.27
1542;2111.8;538.102;2.27
1543;2077.32;573.748;2.27
1544;2040.09;575.701;2.27
1545;2044.97;583.514;2.28001
1546;2074.57;565.935;2.28001
1547;2082.2;561.785;2.28001
1548;2079.76;563.738;2.28001
1549;2057.48;597.43;2.28001
1550;2017.81;563.738;2.28001
1551;1988.2;557.878;2.28001
1552;2032.76;609.149;2.28001
1553;2067.25;577.654;2.28001
1554;2079.76;577.654;2.28001
1555;2087.08;559.832;2.28001
1556;2067.25;585.467;2.28001
1557;2032.76;571.795;2.28001
1558;2037.64;599.384;2.29
1559;2089.53;550.066;2.29
1560;2116.69;569.842;2.29
1561;2131.64;607.196;2.29
1562;2121.57;544.206;2.29
1563;2087.08;569.842;2.29
1564;2052.6;567.888;2.29
1565;2057.48;585.467;2.29
1566;2082.2;561.785;2.29
1567;2089.53;571.795;2.29
1568;2087.08;552.019;2.29
1569;2064.81;601.337;2.29
1570;2020.25;575.701;2.3
1571;1995.83;542.009;2.3
1572;2040.09;613.3;2.3
1573;2074.57;573.748;2.3
1574;2087.08;573.748;2.3
1575;2091.97;561.785;2.3
1576;2072.13;583.514;2.3
1577;2037.64;575.701;2.3
1578;2044.97;595.477;2.3
1579;2099.29;550.066;2.3
1580;2124.01;573.748;2.3
1581;2138.97;599.384;2.3
1582;2131.64;534.196;2.3
1583;2096.85;571.795;2.31001
1584;2062.36;569.842;2.31001
1585;2062.36;583.514;2.31001
1586;2089.53;565.935;2.31001
1587;2096.85;567.888;2.31001
1588;2096.85;555.925;2.31001
1589;2074.57;599.384;2.31001
1590;2027.88;567.888;2.31001
1591;2003.16;548.112;2.31001
1592;2047.41;619.16;2.31001
1593;2077.32;571.795;2.31001
1594;2094.41;569.842;2.31001
1595;2099.29;563.738;2.32
1596;2077.32;581.561;2.32
1597;2044.97;579.608;2.32
1598;2052.6;591.571;2.32
1599;2101.73;550.066;2.32
1600;2128.89;579.608;2.32
1601;2141.41;593.524;2.32
1602;2131.64;536.149;2.32
1603;2094.41;573.748;2.32
1604;2057.48;575.701;2.32
1605;2064.81;583.514;2.32
1606;2091.97;567.888;2.32
1607;2099.29;563.738;2.32
1608;2099.29;561.785;2.33
1609;2069.69;595.477;2.33
1610;2030.32;563.738;2.33
1611;2008.04;555.925;2.33
1612;2050.16;611.347;2.33
1613;2082.2;571.795;2.33
1614;2096.85;567.888;2.33
1615;2099.29;561.785;2.33
1616;2074.57;583.514;2.33
1617;2044.97;575.701;2.33
1618;2057.48;591.571;2.33
1619;2106.92;546.159;2.33
1620;2134.08;575.701;2.34
1621;2146.29;597.43;2.34
1622;2136.52;534.196;2.34
1623;2101.73;569.842;2.34
1624;2067.25;571.795;2.34
1625;2069.69;583.514;2.34
1626;2099.29;567.888;2.34
1627;2106.92;565.935;2.34
1628;2106.92;557.878;2.34
1629;2077.32;597.43;2.34
1630;2035.2;567.888;2.34
1631;2015.37;550.066;2.34
1632;2057.48;617.206;2.35001
1633;2084.64;573.748;2.35001
1634;2104.48;571.795;2.35001
1635;2101.73;561.785;2.35001
1636;2079.76;579.608;2.35001
1637;2050.16;579.608;2.35001
1638;2059.92;587.42;2.35001
1639;2109.36;552.019;2.35001
1640;2138.97;581.561;2.35001
1641;2151.17;589.618;2.35001
1642;2138.97;538.102;2.35001
1643;2101.73;569.842;2.36
1644;2064.81;573.748;2.36
1645;2074.57;579.608;2.36
1646;2101.73;557.878;2.36
1647;2111.8;571.795;2.36
1648;2106.92;548.112;2.36
1649;2082.2;601.337;2.36
1650;2037.64;573.748;2.36
1651;2017.81;540.056;2.36
1652;2064.81;601.337;2.36
1653;2094.41;575.701;2.36
1654;2106.92;577.654;2.36
1655;2106.92;561.785;2.37
1656;2087.08;583.514;2.37
1657;2052.6;573.748;2.37
1658;2064.81;595.477;2.37
1659;2119.13;544.206;2.37
1660;2143.85;571.795;2.37
1661;2156.06;601.337;2.37
1662;2146.29;540.056;2.37
1663;2106.92;569.842;2.37
1664;2072.13;565.935;2.37
1665;2084.64;581.561;2.37
1666;2109.36;559.832;2.38
1667;2114.25;567.888;2.38
1668;2111.8;552.019;2.38
1669;2084.64;603.29;2.38
1670;2042.53;571.795;2.38
1671;2025.44;542.009;2.38
1672;2067.25;615.253;2.38
1673;2099.29;573.748;2.38
1674;2111.8;571.795;2.38
