<WeldAnalyseData xmlns:i="http:www.w3.org/2001/XMLSchema-instance">
<WeldParameter>
<TimeStamp>DT#2024-01-25-14:32:50</TimeStamp>
<Generator>SG-22-10000</Generator>
<GenFreq>20</GenFreq>
<MaxForce>8000</MaxForce>
<MaxPower>10000</MaxPower>
<RunupPressure>1.5</RunupPressure>
<RunupDist>10</RunupDist>
<RunPress>0.8</RunPress>
<ShakeDelay>0.03</ShakeDelay>
<ShakeTime>0.3</ShakeTime>
<RunBackPress1>6</RunBackPress1>
<RunBackPress2>2</RunBackPress2>
<RunBackDist>1</RunBackDist>
<TrigValue>500</TrigValue>
<TrigModeUnit>W</TrigModeUnit>
<WeldModeUnit>Ws</WeldModeUnit>
<PressNr>0</PressNr>
<MaxLoss>1500</MaxLoss>
</WeldParameter>
<WeldSets>
<WeldSet>
<PressRiseTime>0</PressRiseTime>
<RunPressure>1</RunPressure>
<Amplitude>86</Amplitude>
<WeldMode>3270</WeldMode>
</WeldSet>
</WeldSets>
<WeldValue>
<WeldNr>3029</WeldNr>
<RecipeName>RickStyle</RecipeName>
<WeldTime>1668</WeldTime>
<DistDiff>2.49</DistDiff>
<DistAbs>78.13</DistAbs>
<Energy>3270.16</Energy>
<MaxPower>2191.59</MaxPower>
<CycleTime>6030</CycleTime>
<TrigForce>504.654</TrigForce>
<TrigDist>75.64</TrigDist>
<RunSpeed>67.4755</RunSpeed>
<MaxForce>626.972</MaxForce>
<LossPower>324.355</LossPower>
</WeldValue>
</WeldAnalyseData>
#CSV-START#
ms;Power[W];Force[N];Distance[mm]
1;0;0;0
2;0;506.607;0
3;0;506.607;0
4;0;508.56;0.0100021
5;0;504.654;0.0100021
6;0;508.56;0.0100021
7;0;508.56;0.0100021
8;0;477.065;0.0100021
9;0;433.607;0.0200043
10;0;413.831;0.0400009
11;0;380.139;0.0699997
12;18.6735;360.363;0.0999985
13;75.438;340.831;0.139999
14;154.481;326.914;0.18
15;226.199;312.998;0.220001
16;287.847;305.185;0.260002
17;344.611;281.503;0.309998
18;401.376;303.232;0.360001
19;455.699;291.269;0.400002
20;512.463;273.69;0.449997
21;589.064;324.961;0.489998
22;665.666;301.279;0.529999
23;742.267;311.045;0.559998
24;816.122;309.091;0.590004
25;885.399;328.867;0.620003
26;939.722;336.68;0.639999
27;1008.69;358.409;0.660004
28;1090.18;340.831;0.68
29;1154.57;374.279;0.690002
30;1211.34;403.821;0.699997
31;1250.71;364.513;0.709999
32;1272.98;399.915;0.709999
33;1285.5;405.774;0.709999
34;1322.42;421.644;0.720001
35;1364.23;405.774;0.720001
36;1396.58;407.971;0.730003
37;1426.19;407.971;0.730003
38;1435.95;439.467;0.739998
39;1433.51;417.737;0.739998
40;1445.72;409.925;0.75
41;1505.23;463.149;0.75
42;1547.04;431.654;0.760002
43;1579.08;427.503;0.760002
44;1598.92;425.55;0.770004
45;1606.25;437.513;0.770004
46;1603.8;443.373;0.779999
47;1633.41;445.326;0.790001
48;1700.24;419.691;0.790001
49;1739.61;449.232;0.800003
50;1771.66;453.383;0.809998
51;1779.29;411.878;0.809998
52;1766.77;443.373;0.82
53;1752.13;447.279;0.82
54;1776.84;455.336;0.830002
55;1813.77;443.373;0.840004
56;1838.49;433.607;0.840004
57;1853.14;445.326;0.849998
58;1840.93;467.055;0.860001
59;1816.21;441.42;0.860001
60;1808.89;449.232;0.870003
61;1868.1;486.831;0.879997
62;1907.46;463.149;0.879997
63;1929.74;459.243;0.889999
64;1944.7;457.289;0.889999
65;1929.74;475.112;0.900002
66;1912.65;488.784;0.900002
67;1939.81;477.065;0.910004
68;1999.02;461.196;0.910004
69;2033.51;498.795;0.919998
70;2053.34;479.019;0.919998
71;2050.9;457.289;0.919998
72;2021.3;479.019;0.93
73;1994.14;490.738;0.93
74;2013.67;490.738;0.940002
75;2045.71;480.972;0.940002
76;2060.67;465.102;0.949997
77;2067.99;479.019;0.949997
78;2043.27;508.56;0.949997
79;2001.46;475.112;0.959999
80;1991.39;479.019;0.959999
81;2043.27;526.383;0.970001
82;2072.87;496.597;0.970001
83;2092.71;488.784;0.970001
84;2097.59;490.738;0.980003
85;2078.06;502.701;0.980003
86;2053.34;516.373;0.989998
87;2075.62;508.56;0.989998
88;2129.94;484.878;0.989998
89;2159.55;520.524;1
90;2176.64;510.514;1
91;2166.87;477.065;1
92;2127.2;502.701;1.01
93;2092.71;512.467;1.01
94;2110.11;516.373;1.01
95;2137.27;504.654;1.02
96;2147.03;490.738;1.02
97;2147.03;506.607;1.02
98;2114.99;524.43;1.03
99;2067.99;488.784;1.03
100;2055.78;506.607;1.03
101;2105.22;538.102;1.04
102;2134.83;514.42;1.04
103;2147.03;504.654;1.04
104;2144.59;504.654;1.05
105;2119.87;516.373;1.05
106;2087.83;538.102;1.05
107;2107.67;516.373;1.06
108;2159.55;488.784;1.06
109;2181.52;514.42;1.06
110;2191.59;540.056;1.07
111;2176.64;475.112;1.07
112;2134.83;508.56;1.07
113;2097.59;514.42;1.08
114;2112.55;524.43;1.08
115;2137.27;508.56;1.08
116;2147.03;510.514;1.09
117;2139.71;500.748;1.09
118;2105.22;542.009;1.09
119;2058.23;514.42;1.09
120;2043.27;496.597;1.1
121;2087.83;559.832;1.1
122;2112.55;522.477;1.1
123;2124.76;522.477;1.11
124;2119.87;512.467;1.11
125;2090.27;528.336;1.11
126;2060.67;532.243;1.11
127;2078.06;538.102;1.12
128;2129.94;498.795;1.12
129;2151.92;532.243;1.12
130;2164.43;542.009;1.13
131;2144.59;490.738;1.13
132;2105.22;522.477;1.13
133;2067.99;530.29;1.13
134;2080.5;532.243;1.14
135;2102.78;516.373;1.14
136;2107.67;512.467;1.14
137;2102.78;518.326;1.15
138;2067.99;546.159;1.15
139;2021.3;516.373;1.15
140;2008.79;514.42;1.15
141;2055.78;563.738;1.16
142;2080.5;528.336;1.16
143;2092.71;524.43;1.16
144;2090.27;522.477;1.16
145;2060.67;534.196;1.17
146;2031.06;542.009;1.17
147;2048.46;538.102;1.17
148;2097.59;512.467;1.17
149;2119.87;546.159;1.18
150;2129.94;538.102;1.18
151;2114.99;502.701;1.18
152;2075.62;528.336;1.18
153;2040.83;536.149;1.19
154;2055.78;540.056;1.19
155;2078.06;526.383;1.19
156;2082.95;514.42;1.19
157;2075.62;526.383;1.19
158;2043.27;548.112;1.2
159;1996.58;514.42;1.2
160;1984.07;528.336;1.2
161;2031.06;561.785;1.2
162;2055.78;536.149;1.21
163;2067.99;524.43;1.21
164;2065.55;528.336;1.21
165;2040.83;540.056;1.21
166;2008.79;555.925;1.21
167;2026.18;540.056;1.22
168;2075.62;524.43;1.22
169;2095.15;538.102;1.22
170;2105.22;563.738;1.22
171;2085.39;498.795;1.22
172;2048.46;536.149;1.23
173;2016.11;536.149;1.23
174;2031.06;550.066;1.23
175;2050.9;532.243;1.23
176;2058.23;534.196;1.23
177;2050.9;522.477;1.23
178;2021.3;569.842;1.24
179;1974.3;538.102;1.24
180;1964.23;520.524;1.24
181;2006.34;581.561;1.24
182;2031.06;544.206;1.24
183;2045.71;540.056;1.25
184;2038.39;530.29;1.25
185;2016.11;548.112;1.25
186;1984.07;546.159;1.25
187;2006.34;557.878;1.25
188;2053.34;520.524;1.25
189;2075.62;548.112;1.26
190;2082.95;561.785;1.26
191;2065.55;506.607;1.26
192;2028.62;542.009;1.26
193;1996.58;544.206;1.26
194;2013.67;553.972;1.26
195;2033.51;534.196;1.27
196;2038.39;532.243;1.27
197;2033.51;530.29;1.27
198;1999.02;565.935;1.27
199;1954.46;536.149;1.27
200;1944.7;528.336;1.27
201;1988.95;583.514;1.28
202;2016.11;546.159;1.28
203;2026.18;540.056;1.28
204;2023.74;540.056;1.28
205;1999.02;550.066;1.28
206;1966.98;557.878;1.28
207;1991.39;557.878;1.28
208;2038.39;526.383;1.29
209;2060.67;561.785;1.29
210;2067.99;561.785;1.29
211;2050.9;520.524;1.29
212;2016.11;548.112;1.29
213;1981.62;553.972;1.29
214;1999.02;555.925;1.3
215;2018.55;544.206;1.3
216;2023.74;530.29;1.3
217;2018.55;544.206;1.3
218;1986.51;565.935;1.3
219;1944.7;530.29;1.3
220;1934.63;542.009;1.31
221;1979.18;577.654;1.31
222;2003.9;550.066;1.31
223;2013.67;544.206;1.31
224;2008.79;542.009;1.31
225;1984.07;555.925;1.31
226;1956.9;567.888;1.31
227;1981.62;553.972;1.32
228;2026.18;536.149;1.32
229;2050.9;571.795;1.32
230;2055.78;569.842;1.32
231;2038.39;520.524;1.32
232;2003.9;550.066;1.32
233;1971.86;553.972;1.32
234;1988.95;561.785;1.33
235;2008.79;546.159;1.33
236;2011.23;538.102;1.33
237;2003.9;546.159;1.33
238;1969.42;571.795;1.33
239;1927.3;542.009;1.33
240;1919.98;542.009;1.33
241;1964.23;589.618;1.34
242;1991.39;552.019;1.34
243;2001.46;550.066;1.34
244;1994.14;548.112;1.34
245;1971.86;557.878;1.34
246;1942.26;569.842;1.34
247;1966.98;563.738;1.34
248;2011.23;538.102;1.34
249;2031.06;571.795;1.35
250;2040.83;567.888;1.35
251;2023.74;530.29;1.35
252;1986.51;555.925;1.35
253;1956.9;561.785;1.35
254;1974.3;565.935;1.35
255;1994.14;552.019;1.35
256;1996.58;538.102;1.36
257;1988.95;555.925;1.36
258;1956.9;571.795;1.36
259;1915.09;538.102;1.36
260;1909.91;555.925;1.36
261;1952.02;597.43;1.36
262;1976.74;561.785;1.36
263;1991.39;563.738;1.36
264;1984.07;548.112;1.37
265;1956.9;569.842;1.37
266;1932.18;563.738;1.37
267;1959.35;583.514;1.37
268;2003.9;536.149;1.37
269;2026.18;563.738;1.37
270;2031.06;587.42;1.37
271;2026.18;526.383;1.38
272;1991.39;561.785;1.38
273;1954.46;559.832;1.38
274;1954.46;573.748;1.38
275;1976.74;553.972;1.38
276;1988.95;557.878;1.38
277;1986.51;548.112;1.38
278;1964.23;591.571;1.38
279;1924.86;563.738;1.39
280;1897.7;544.206;1.39
281;1927.3;607.196;1.39
282;1961.79;567.888;1.39
283;1979.18;565.935;1.39
284;1984.07;557.878;1.39
285;1961.79;575.701;1.39
286;1929.74;573.748;1.39
287;1934.63;585.467;1.4
288;1984.07;544.206;1.4
289;2011.23;573.748;1.4
290;2023.74;587.42;1.4
291;2021.3;534.196;1.4
292;1984.07;567.888;1.4
293;1949.58;573.748;1.4
294;1949.58;579.608;1.4
295;1974.3;563.738;1.41
296;1981.62;559.832;1.41
297;1979.18;559.832;1.41
298;1959.35;591.571;1.41
299;1915.09;557.878;1.41
300;1890.37;557.878;1.41
301;1924.86;607.196;1.41
302;1956.9;569.842;1.41
303;1969.42;565.935;1.42
304;1974.3;561.785;1.42
305;1954.46;573.748;1.42
306;1924.86;583.514;1.42
307;1922.42;583.514;1.42
308;1974.3;553.972;1.42
309;2003.9;585.467;1.42
310;2016.11;583.514;1.42
311;2006.34;546.159;1.43
312;1976.74;573.748;1.43
313;1939.81;577.654;1.43
314;1939.81;581.561;1.43
315;1964.23;569.842;1.43
316;1971.86;557.878;1.43
317;1971.86;573.748;1.43
318;1949.58;587.42;1.43
319;1907.46;557.878;1.44
320;1882.74;569.842;1.44
321;1917.54;603.29;1.44
322;1949.58;575.701;1.44
323;1964.23;579.608;1.44
324;1964.23;563.738;1.44
325;1949.58;583.514;1.44
326;1917.54;577.654;1.44
327;1917.54;597.43;1.44
328;1969.42;550.066;1.45
329;1999.02;579.608;1.45
330;2011.23;605.243;1.45
331;2003.9;542.009;1.45
332;1971.86;575.701;1.45
333;1934.63;573.748;1.45
334;1934.63;587.42;1.45
335;1961.79;567.888;1.45
336;1966.98;571.795;1.45
337;1969.42;561.785;1.46
338;1947.14;603.29;1.46
339;1905.02;579.608;1.46
340;1880.3;553.972;1.46
341;1915.09;619.16;1.46
342;1944.7;579.608;1.46
343;1961.79;579.608;1.46
344;1964.23;571.795;1.46
345;1947.14;587.42;1.46
346;1917.54;585.467;1.47
347;1919.98;597.43;1.47
348;1971.86;553.972;1.47
349;1996.58;581.561;1.47
350;2008.79;599.384;1.47
351;2006.34;546.159;1.47
352;1974.3;577.654;1.47
353;1934.63;579.608;1.47
354;1939.81;587.42;1.47
355;1964.23;571.795;1.48
356;1971.86;567.888;1.48
357;1971.86;567.888;1.48
358;1949.58;601.337;1.48
359;1907.46;569.842;1.48
360;1882.74;563.738;1.48
361;1922.42;617.206;1.48
362;1954.46;581.561;1.48
363;1966.98;575.701;1.48
364;1969.42;571.795;1.48
365;1954.46;585.467;1.49
366;1922.42;591.571;1.49
367;1927.3;593.524;1.49
368;1976.74;561.785;1.49
369;1996.58;589.618;1.49
370;2011.23;593.524;1.49
371;2006.34;552.019;1.49
372;1971.86;579.608;1.49
373;1934.63;585.467;1.49
374;1937.07;585.467;1.5
375;1964.23;577.654;1.5
376;1969.42;567.888;1.5
377;1969.42;577.654;1.5
378;1944.7;595.477;1.5
379;1902.58;563.738;1.5
380;1880.3;569.842;1.5
381;1917.54;611.347;1.5
382;1947.14;579.608;1.5
383;1961.79;573.748;1.5
384;1964.23;571.795;1.51
385;1947.14;587.42;1.51
386;1917.54;587.42;1.51
387;1919.98;595.477;1.51
388;1971.86;557.878;1.51
389;1994.14;587.42;1.51
390;2008.79;595.477;1.51
391;2003.9;550.066;1.51
392;1969.42;579.608;1.51
393;1932.18;581.561;1.51
394;1937.07;589.618;1.52
395;1961.79;575.701;1.52
396;1969.42;567.888;1.52
397;1966.98;571.795;1.52
398;1944.7;599.384;1.52
399;1905.02;569.842;1.52
400;1880.3;567.888;1.52
401;1919.98;611.347;1.52
402;1947.14;579.608;1.52
403;1964.23;575.701;1.52
404;1961.79;569.842;1.52
405;1947.14;583.514;1.53
406;1917.54;595.477;1.53
407;1919.98;589.618;1.53
408;1971.86;561.785;1.53
409;1996.58;597.43;1.53
410;2008.79;591.571;1.53
411;2001.46;553.972;1.53
412;1966.98;579.608;1.53
413;1932.18;585.467;1.53
414;1934.63;591.571;1.53
415;1959.35;569.842;1.53
416;1966.98;577.654;1.54
417;1964.23;559.832;1.54
418;1942.26;609.149;1.54
419;1900.14;583.514;1.54
420;1877.86;552.019;1.54
421;1915.09;615.253;1.54
422;1947.14;581.561;1.54
423;1959.35;583.514;1.54
424;1961.79;567.888;1.54
425;1942.26;589.618;1.54
426;1912.65;583.514;1.55
427;1919.98;601.337;1.55
428;1971.86;553.972;1.55
429;1996.58;579.608;1.55
430;2008.79;607.196;1.55
431;1999.02;542.009;1.55
432;1964.23;577.654;1.55
433;1927.3;579.608;1.55
434;1937.07;589.618;1.55
435;1961.79;573.748;1.55
436;1969.42;575.701;1.55
437;1966.98;565.935;1.56
438;1937.07;609.149;1.56
439;1900.14;579.608;1.56
440;1875.42;559.832;1.56
441;1915.09;619.16;1.56
442;1947.14;579.608;1.56
443;1956.9;581.561;1.56
444;1959.35;573.748;1.56
445;1942.26;589.618;1.56
446;1912.65;587.42;1.56
447;1919.98;599.384;1.56
448;1969.42;557.878;1.56
449;1991.39;587.42;1.57
450;2003.9;599.384;1.57
451;1996.58;548.112;1.57
452;1961.79;577.654;1.57
453;1927.3;581.561;1.57
454;1934.63;589.618;1.57
455;1956.9;575.701;1.57
456;1961.79;569.842;1.57
457;1961.79;571.795;1.57
458;1937.07;601.337;1.57
459;1895.26;573.748;1.57
460;1875.42;565.935;1.58
461;1915.09;617.206;1.58
462;1944.7;581.561;1.58
463;1956.9;575.701;1.58
464;1959.35;577.654;1.58
465;1937.07;587.42;1.58
466;1909.91;593.524;1.58
467;1917.54;593.524;1.58
468;1966.98;565.935;1.58
469;1991.39;595.477;1.58
470;2003.9;593.524;1.58
471;1994.14;553.972;1.58
472;1961.79;581.561;1.59
473;1927.3;589.618;1.59
474;1932.18;591.571;1.59
475;1959.35;571.795;1.59
476;1964.23;579.608;1.59
477;1961.79;559.832;1.59
478;1937.07;613.3;1.59
479;1895.26;585.467;1.59
480;1877.86;552.019;1.59
481;1915.09;615.253;1.59
482;1947.14;581.561;1.59
483;1959.35;587.42;1.6
484;1959.35;569.842;1.6
485;1939.81;591.571;1.6
486;1912.65;585.467;1.6
487;1919.98;605.243;1.6
488;1969.42;557.878;1.6
489;1996.58;583.514;1.6
490;2006.34;611.347;1.6
491;1996.58;546.159;1.6
492;1966.98;581.561;1.6
493;1929.74;581.561;1.6
494;1937.07;593.524;1.6
495;1959.35;573.748;1.61
496;1966.98;579.608;1.61
497;1966.98;567.888;1.61
498;1939.81;609.149;1.61
499;1895.26;583.514;1.61
500;1877.86;557.878;1.61
501;1917.54;626.972;1.61
502;1947.14;585.467;1.61
503;1959.35;581.561;1.61
504;1964.23;573.748;1.61
505;1939.81;593.524;1.61
506;1915.09;589.618;1.61
507;1922.42;601.337;1.62
508;1969.42;561.785;1.62
509;1996.58;589.618;1.62
510;2003.9;603.29;1.62
511;1996.58;550.066;1.62
512;1961.79;581.561;1.62
513;1927.3;585.467;1.62
514;1934.63;593.524;1.62
515;1959.35;577.654;1.62
516;1964.23;569.842;1.62
517;1964.23;573.748;1.62
518;1934.63;605.243;1.62
519;1897.7;579.608;1.63
520;1877.86;567.888;1.63
521;1919.98;621.113;1.63
522;1947.14;585.467;1.63
523;1956.9;579.608;1.63
524;1961.79;577.654;1.63
525;1939.81;591.571;1.63
526;1909.91;595.477;1.63
527;1924.86;595.477;1.63
528;1974.3;563.738;1.63
529;1996.58;597.43;1.63
530;2008.79;597.43;1.63
531;2001.46;557.878;1.64
532;1969.42;585.467;1.64
533;1932.18;589.618;1.64
534;1942.26;593.524;1.64
535;1964.23;581.561;1.64
536;1969.42;581.561;1.64
537;1966.98;571.795;1.64
538;1942.26;609.149;1.64
539;1900.14;579.608;1.64
540;1882.74;563.738;1.64
541;1922.42;623.066;1.64
542;1952.02;583.514;1.64
543;1964.23;583.514;1.65
544;1966.98;575.701;1.65
545;1944.7;591.571;1.65
546;1912.65;589.618;1.65
547;1929.74;601.337;1.65
548;1976.74;563.738;1.65
549;1996.58;593.524;1.65
550;2008.79;603.29;1.65
551;1999.02;552.019;1.65
552;1961.79;583.514;1.65
553;1932.18;585.467;1.65
554;1939.81;593.524;1.65
555;1961.79;579.608;1.65
556;1969.42;571.795;1.66
557;1964.23;573.748;1.66
558;1939.81;605.243;1.66
559;1897.7;575.701;1.66
560;1882.74;573.748;1.66
561;1924.86;621.113;1.66
562;1952.02;585.467;1.66
563;1964.23;579.608;1.66
564;1964.23;579.608;1.66
565;1944.7;591.571;1.66
566;1915.09;599.384;1.66
567;1932.18;609.149;1.66
568;1976.74;563.738;1.67
569;2001.46;583.514;1.67
570;2011.23;617.206;1.67
571;2001.46;555.925;1.67
572;1966.98;581.561;1.67
573;1932.18;579.608;1.67
574;1944.7;597.43;1.67
575;1969.42;573.748;1.67
576;1971.86;581.561;1.67
577;1969.42;563.738;1.67
578;1942.26;611.347;1.67
579;1900.14;587.42;1.67
580;1882.74;555.925;1.68
581;1924.86;617.206;1.68
582;1952.02;587.42;1.68
583;1961.79;589.618;1.68
584;1964.23;575.701;1.68
585;1944.7;595.477;1.68
586;1912.65;585.467;1.68
587;1932.18;607.196;1.68
588;1976.74;557.878;1.68
589;2001.46;585.467;1.68
590;2013.67;613.3;1.68
591;1996.58;550.066;1.68
592;1964.23;581.561;1.68
593;1932.18;577.654;1.69
594;1944.7;595.477;1.69
595;1964.23;577.654;1.69
596;1969.42;577.654;1.69
597;1966.98;567.888;1.69
598;1939.81;609.149;1.69
599;1897.7;583.514;1.69
600;1880.3;561.785;1.69
601;1924.86;623.066;1.69
602;1949.58;585.467;1.69
603;1961.79;583.514;1.69
604;1961.79;575.701;1.69
605;1942.26;591.571;1.69
606;1912.65;589.618;1.7
607;1929.74;601.337;1.7
608;1974.3;561.785;1.7
609;1999.02;589.618;1.7
610;2008.79;605.243;1.7
611;1999.02;550.066;1.7
612;1961.79;585.467;1.7
613;1927.3;583.514;1.7
614;1939.81;593.524;1.7
615;1964.23;577.654;1.7
616;1971.86;573.748;1.7
617;1966.98;573.748;1.7
618;1939.81;605.243;1.7
619;1900.14;573.748;1.71
620;1882.74;567.888;1.71
621;1927.3;621.113;1.71
622;1954.46;583.514;1.71
623;1964.23;579.608;1.71
624;1964.23;575.701;1.71
625;1942.26;589.618;1.71
626;1909.91;597.43;1.71
627;1929.74;595.477;1.71
628;1979.18;561.785;1.71
629;2001.46;579.608;1.71
630;2013.67;615.253;1.71
631;2003.9;553.972;1.71
632;1969.42;581.561;1.72
633;1937.07;575.701;1.72
634;1949.58;593.524;1.72
635;1969.42;573.748;1.72
636;1974.3;581.561;1.72
637;1969.42;563.738;1.72
638;1939.81;609.149;1.72
639;1900.14;587.42;1.72
640;1887.93;553.972;1.72
641;1929.74;619.16;1.72
642;1956.9;585.467;1.72
643;1969.42;587.42;1.72
644;1969.42;573.748;1.72
645;1947.14;593.524;1.72
646;1917.54;583.514;1.73
647;1937.07;605.243;1.73
648;1981.62;557.878;1.73
649;2006.34;583.514;1.73
650;2018.55;611.347;1.73
651;2011.23;548.112;1.73
652;1979.18;583.514;1.73
653;1942.26;579.608;1.73
654;1944.7;591.571;1.73
655;1969.42;575.701;1.73
656;1976.74;579.608;1.73
657;1974.3;565.935;1.73
658;1949.58;609.149;1.73
659;1907.46;583.514;1.74
660;1887.93;559.832;1.74
661;1924.86;623.066;1.74
662;1956.9;583.514;1.74
663;1971.86;583.514;1.74
664;1974.3;573.748;1.74
665;1956.9;589.618;1.74
666;1927.3;587.42;1.74
667;1929.74;601.337;1.74
668;1981.62;559.832;1.74
669;2003.9;587.42;1.74
670;2018.55;607.196;1.74
671;2011.23;548.112;1.74
672;1976.74;581.561;1.74
673;1942.26;583.514;1.75
674;1947.14;591.571;1.75
675;1966.98;577.654;1.75
676;1976.74;573.748;1.75
677;1976.74;571.795;1.75
678;1949.58;607.196;1.75
679;1907.46;575.701;1.75
680;1890.37;565.935;1.75
681;1924.86;621.113;1.75
682;1952.02;583.514;1.75
683;1966.98;581.561;1.75
684;1969.42;577.654;1.75
685;1952.02;591.571;1.75
686;1919.98;593.524;1.75
687;1929.74;595.477;1.75
688;1979.18;561.785;1.76
689;2006.34;583.514;1.76
690;2016.11;609.149;1.76
691;2011.23;548.112;1.76
692;1976.74;583.514;1.76
693;1942.26;577.654;1.76
694;1944.7;591.571;1.76
695;1971.86;573.748;1.76
696;1976.74;577.654;1.76
697;1979.18;567.888;1.76
698;1954.46;607.196;1.76
699;1909.91;579.608;1.76
700;1890.37;561.785;1.76
701;1927.3;625.019;1.76
702;1954.46;583.514;1.77
703;1969.42;583.514;1.77
704;1971.86;573.748;1.77
705;1952.02;589.618;1.77
706;1924.86;591.571;1.77
707;1929.74;601.337;1.77
708;1979.18;561.785;1.77
709;2006.34;591.571;1.77
710;2021.3;601.337;1.77
711;2013.67;550.066;1.77
712;1981.62;583.514;1.77
713;1944.7;585.467;1.77
714;1947.14;591.571;1.77
715;1971.86;579.608;1.77
716;1976.74;573.748;1.78
717;1974.3;573.748;1.78
718;1949.58;603.29;1.78
719;1907.46;575.701;1.78
720;1885.49;550.066;1.78
721;1927.3;609.149;1.78
722;1954.46;587.42;1.78
723;1969.42;585.467;1.78
724;1974.3;571.795;1.78
725;1949.58;593.524;1.78
726;1922.42;583.514;1.78
727;1932.18;605.243;1.78
728;1981.62;561.785;1.78
729;2006.34;581.561;1.78
730;2018.55;613.3;1.79
731;2008.79;553.972;1.79
732;1976.74;579.608;1.79
733;1942.26;577.654;1.79
734;1947.14;593.524;1.79
735;1969.42;571.795;1.79
736;1976.74;579.608;1.79
737;1976.74;559.832;1.79
738;1949.58;611.347;1.79
739;1907.46;585.467;1.79
740;1887.93;553.972;1.79
741;1924.86;615.253;1.79
742;1954.46;585.467;1.79
743;1969.42;585.467;1.79
744;1971.86;571.795;1.8
745;1952.02;593.524;1.8
746;1922.42;585.467;1.8
747;1932.18;605.243;1.8
748;1979.18;557.878;1.8
749;2006.34;581.561;1.8
750;2016.11;611.347;1.8
751;2008.79;548.112;1.8
752;1974.3;581.561;1.8
753;1939.81;579.608;1.8
754;1947.14;593.524;1.8
755;1971.86;575.701;1.8
756;1976.74;577.654;1.8
757;1976.74;565.935;1.8
758;1949.58;609.149;1.81
759;1909.91;579.608;1.81
760;1887.93;557.878;1.81
761;1927.3;625.019;1.81
762;1959.35;585.467;1.81
763;1969.42;581.561;1.81
764;1974.3;575.701;1.81
765;1952.02;591.571;1.81
766;1922.42;587.42;1.81
767;1934.63;601.337;1.81
768;1981.62;559.832;1.81
769;2006.34;587.42;1.81
770;2018.55;601.337;1.81
771;2008.79;548.112;1.81
772;1976.74;581.561;1.82
773;1939.81;583.514;1.82
774;1949.58;591.571;1.82
775;1974.3;575.701;1.82
776;1979.18;571.795;1.82
777;1979.18;571.795;1.82
778;1952.02;603.29;1.82
779;1909.91;575.701;1.82
780;1892.82;565.935;1.82
781;1932.18;609.149;1.82
782;1961.79;589.618;1.82
783;1974.3;589.618;1.82
784;1976.74;571.795;1.82
785;1954.46;593.524;1.82
786;1924.86;581.561;1.82
787;1939.81;609.149;1.83
788;1986.51;563.738;1.83
789;2011.23;579.608;1.83
790;2021.3;613.3;1.83
791;2011.23;555.925;1.83
792;1974.3;577.654;1.83
793;1942.26;575.701;1.83
794;1949.58;595.477;1.83
795;1971.86;569.842;1.83
796;1979.18;581.561;1.83
797;1979.18;557.878;1.83
798;1949.58;611.347;1.83
799;1909.91;587.42;1.83
800;1892.82;553.972;1.83
801;1934.63;613.3;1.84
802;1959.35;585.467;1.84
803;1971.86;587.42;1.84
804;1969.42;571.795;1.84
805;1952.02;593.524;1.84
806;1922.42;583.514;1.84
807;1937.07;605.243;1.84
808;1986.51;555.925;1.84
809;2008.79;583.514;1.84
810;2021.3;611.347;1.84
811;2011.23;550.066;1.84
812;1976.74;579.608;1.84
813;1942.26;577.654;1.84
814;1952.02;591.571;1.84
815;1974.3;573.748;1.85
816;1979.18;577.654;1.85
817;1974.3;567.888;1.85
818;1952.02;609.149;1.85
819;1909.91;579.608;1.85
820;1892.82;555.925;1.85
821;1932.18;621.113;1.85
822;1961.79;585.467;1.85
823;1974.3;583.514;1.85
824;1974.3;573.748;1.85
825;1954.46;591.571;1.85
826;1924.86;587.42;1.85
827;1937.07;599.384;1.85
828;1986.51;559.832;1.85
829;2006.34;587.42;1.85
830;2021.3;605.243;1.86
831;2011.23;546.159;1.86
832;1976.74;583.514;1.86
833;1939.81;579.608;1.86
834;1954.46;593.524;1.86
835;1974.3;575.701;1.86
836;1979.18;571.795;1.86
837;1976.74;571.795;1.86
838;1964.23;607.196;1.86
839;1924.86;575.701;1.86
840;1892.82;565.935;1.86
841;1915.09;621.113;1.86
842;1954.46;583.514;1.86
843;1969.42;587.42;1.86
844;1974.3;573.748;1.87
845;1966.98;591.571;1.87
846;1934.63;581.561;1.87
847;1924.86;605.243;1.87
848;1969.42;555.925;1.87
849;2006.34;583.514;1.87
850;2018.55;609.149;1.87
851;2018.55;546.159;1.87
852;1991.39;579.608;1.87
853;1952.02;579.608;1.87
854;1944.7;593.524;1.87
855;1971.86;573.748;1.87
856;1979.18;575.701;1.87
857;1981.62;565.935;1.87
858;1961.79;607.196;1.88
859;1922.42;577.654;1.88
860;1890.37;559.832;1.88
861;1915.09;625.019;1.88
862;1952.02;579.608;1.88
863;1969.42;579.608;1.88
864;1976.74;573.748;1.88
865;1964.23;587.42;1.88
866;1934.63;589.618;1.88
867;1924.86;599.384;1.88
868;1971.86;557.878;1.88
869;2003.9;587.42;1.88
870;2018.55;601.337;1.88
871;2016.11;548.112;1.88
872;1988.95;579.608;1.89
873;1952.02;583.514;1.89
874;1942.26;591.571;1.89
875;1971.86;569.842;1.89
876;1984.07;579.608;1.89
877;1981.62;557.878;1.89
878;1966.98;603.29;1.89
879;1927.3;583.514;1.89
880;1895.26;550.066;1.89
881;1919.98;609.149;1.89
882;1956.9;589.618;1.89
883;1974.3;587.42;1.89
884;1979.18;569.842;1.89
885;1966.98;593.524;1.89
886;1937.07;581.561;1.89
887;1927.3;607.196;1.9
888;1976.74;559.832;1.9
889;2006.34;579.608;1.9
890;2021.3;613.3;1.9
891;2021.3;550.066;1.9
892;1988.95;575.701;1.9
893;1949.58;575.701;1.9
894;1942.26;593.524;1.9
895;1971.86;571.795;1.9
896;1981.62;577.654;1.9
897;1984.07;559.832;1.9
898;1964.23;609.149;1.9
899;1927.3;583.514;1.9
900;1892.82;552.019;1.9
901;1917.54;615.253;1.91
902;1954.46;585.467;1.91
903;1971.86;585.467;1.91
904;1976.74;573.748;1.91
905;1961.79;593.524;1.91
906;1937.07;581.561;1.91
907;1927.3;603.29;1.91
908;1974.3;555.925;1.91
909;2006.34;581.561;1.91
910;2021.3;607.196;1.91
911;2021.3;546.159;1.91
912;1994.14;581.561;1.91
913;1956.9;577.654;1.91
914;1949.58;591.571;1.91
915;1976.74;573.748;1.92
916;1986.51;573.748;1.92
917;1986.51;563.738;1.92
918;1966.98;607.196;1.92
919;1927.3;579.608;1.92
920;1895.26;557.878;1.92
921;1924.86;623.066;1.92
922;1964.23;581.561;1.92
923;1976.74;579.608;1.92
924;1984.07;571.795;1.92
925;1969.42;587.42;1.92
926;1939.81;585.467;1.92
927;1937.07;597.43;1.92
928;1979.18;559.832;1.92
929;2008.79;587.42;1.92
930;2023.74;603.29;1.93
931;2023.74;548.112;1.93
932;1994.14;579.608;1.93
933;1954.46;583.514;1.93
934;1947.14;591.571;1.93
935;1974.3;567.888;1.93
936;1986.51;579.608;1.93
937;1986.51;555.925;1.93
938;1969.42;603.29;1.93
939;1927.3;583.514;1.93
940;1895.26;548.112;1.93
941;1924.86;603.29;1.93
942;1961.79;587.42;1.93
943;1976.74;585.467;1.93
944;1981.62;571.795;1.94
945;1969.42;595.477;1.94
946;1934.63;581.561;1.94
947;1929.74;607.196;1.94
948;1979.18;559.832;1.94
949;2006.34;577.654;1.94
950;2023.74;611.347;1.94
951;2021.3;555.925;1.94
952;1991.39;577.654;1.94
953;1954.46;573.748;1.94
954;1947.14;593.524;1.94
955;1976.74;569.842;1.94
956;1984.07;581.561;1.94
957;1988.95;559.832;1.94
958;1966.98;611.347;1.94
959;1929.74;585.467;1.95
960;1897.7;550.066;1.95
961;1929.74;613.3;1.95
962;1964.23;583.514;1.95
963;1979.18;585.467;1.95
964;1984.07;567.888;1.95
965;1971.86;591.571;1.95
966;1942.26;583.514;1.95
967;1937.07;605.243;1.95
968;1981.62;555.925;1.95
969;2013.67;581.561;1.95
970;2028.62;611.347;1.95
971;2026.18;546.159;1.95
972;1994.14;577.654;1.95
973;1956.9;577.654;1.96
974;1952.02;591.571;1.96
975;1979.18;571.795;1.96
976;1991.39;575.701;1.96
977;1988.95;565.935;1.96
978;1969.42;607.196;1.96
979;1929.74;581.561;1.96
980;1900.14;553.972;1.96
981;1929.74;623.066;1.96
982;1964.23;583.514;1.96
983;1984.07;579.608;1.96
984;1984.07;571.795;1.96
985;1971.86;589.618;1.96
986;1939.81;583.514;1.96
987;1937.07;597.43;1.97
988;1986.51;555.925;1.97
989;2016.11;585.467;1.97
990;2031.06;603.29;1.97
991;2028.62;546.159;1.97
992;1996.58;581.561;1.97
993;1961.79;581.561;1.97
994;1956.9;591.571;1.97
995;1981.62;573.748;1.97
996;1991.39;579.608;1.97
997;1991.39;559.832;1.97
998;1974.3;609.149;1.97
999;1932.18;581.561;1.97
1000;1902.58;552.019;1.97
1001;1932.18;615.253;1.97
1002;1969.42;581.561;1.98
1003;1981.62;583.514;1.98
1004;1984.07;571.795;1.98
1005;1969.42;591.571;1.98
1006;1937.07;583.514;1.98
1007;1934.63;601.337;1.98
1008;1984.07;555.925;1.98
1009;2013.67;581.561;1.98
1010;2026.18;605.243;1.98
1011;2021.3;542.009;1.98
1012;1988.95;577.654;1.98
1013;1954.46;577.654;1.98
1014;1952.02;591.571;1.98
1015;1979.18;573.748;1.98
1016;1988.95;575.701;1.98
1017;1988.95;565.935;1.99
1018;1969.42;607.196;1.99
1019;1929.74;577.654;1.99
1020;1900.14;559.832;1.99
1021;1932.18;621.113;1.99
1022;1964.23;581.561;1.99
1023;1979.18;579.608;1.99
1024;1984.07;571.795;1.99
1025;1966.98;589.618;1.99
1026;1937.07;587.42;1.99
1027;1934.63;607.196;1.99
1028;1986.51;569.842;1.99
1029;2016.11;575.701;1.99
1030;2031.06;615.253;1.99
1031;2026.18;561.785;1.99
1032;1996.58;575.701;2
1033;1956.9;573.748;2
1034;1956.9;593.524;2
1035;1984.07;569.842;2
1036;1991.39;577.654;2
1037;1994.14;555.925;2
1038;1971.86;603.29;2
1039;1929.74;585.467;2
1040;1902.58;546.159;2
1041;1937.07;607.196;2
1042;1969.42;589.618;2
1043;1981.62;587.42;2
1044;1986.51;569.842;2
1045;1971.86;593.524;2
1046;1942.26;579.608;2
1047;1939.81;605.243;2
1048;1988.95;555.925;2.01
1049;2021.3;579.608;2.01
1050;2035.95;611.347;2.01
1051;2031.06;550.066;2.01
1052;1996.58;577.654;2.01
1053;1961.79;575.701;2.01
1054;1961.79;589.618;2.01
1055;1986.51;569.842;2.01
1056;1996.58;579.608;2.01
1057;1996.58;559.832;2.01
1058;1971.86;609.149;2.01
1059;1929.74;581.561;2.01
1060;1905.02;550.066;2.01
1061;1937.07;615.253;2.01
1062;1969.42;583.514;2.01
1063;1984.07;583.514;2.02
1064;1988.95;569.842;2.02
1065;1974.3;591.571;2.02
1066;1942.26;583.514;2.02
1067;1939.81;601.337;2.02
1068;1991.39;555.925;2.02
1069;2018.55;577.654;2.02
1070;2031.06;609.149;2.02
1071;2028.62;546.159;2.02
1072;1996.58;579.608;2.02
1073;1959.35;577.654;2.02
1074;1959.35;589.618;2.02
1075;1988.95;569.842;2.02
1076;1996.58;573.748;2.02
1077;1994.14;563.738;2.02
1078;1974.3;605.243;2.03
1079;1932.18;577.654;2.03
1080;1905.02;555.925;2.03
1081;1939.81;619.16;2.03
1082;1971.86;581.561;2.03
1083;1986.51;581.561;2.03
1084;1991.39;573.748;2.03
1085;1974.3;589.618;2.03
1086;1947.14;587.42;2.03
1087;1947.14;599.384;2.03
1088;1994.14;569.842;2.03
1089;2023.74;577.654;2.03
1090;2035.95;613.3;2.03
1091;2031.06;561.785;2.03
1092;1999.02;573.748;2.03
1093;1959.35;573.748;2.04
1094;1961.79;593.524;2.04
1095;1988.95;569.842;2.04
1096;1996.58;577.654;2.04
1097;1996.58;553.972;2.04
1098;1974.3;601.337;2.04
1099;1932.18;585.467;2.04
1100;1907.46;546.159;2.04
1101;1942.26;603.29;2.04
1102;1971.86;585.467;2.04
1103;1984.07;585.467;2.04
1104;1991.39;565.935;2.04
1105;1974.3;595.477;2.04
1106;1939.81;579.608;2.04
1107;1939.81;603.29;2.04
1108;1991.39;559.832;2.05
1109;2018.55;575.701;2.05
1110;2031.06;611.347;2.05
1111;2028.62;555.925;2.05
1112;1996.58;577.654;2.05
1113;1959.35;573.748;2.05
1114;1961.79;591.571;2.05
1115;1986.51;569.842;2.05
1116;1996.58;577.654;2.05
1117;1991.39;557.878;2.05
1118;1969.42;605.243;2.05
1119;1927.3;583.514;2.05
1120;1905.02;548.112;2.05
1121;1939.81;609.149;2.05
1122;1976.74;583.514;2.05
1123;1986.51;585.467;2.06
1124;1991.39;569.842;2.06
1125;1974.3;589.618;2.06
1126;1944.7;581.561;2.06
1127;1947.14;603.29;2.06
1128;1999.02;553.972;2.06
1129;2026.18;575.701;2.06
1130;2038.39;609.149;2.06
1131;2031.06;548.112;2.06
1132;1999.02;577.654;2.06
1133;1961.79;575.701;2.06
1134;1966.98;591.571;2.06
1135;1991.39;571.795;2.06
1136;2001.46;575.701;2.06
1137;1999.02;561.785;2.07
1138;1976.74;607.196;2.07
1139;1934.63;579.608;2.07
1140;1907.46;553.972;2.07
1141;1947.14;619.16;2.07
1142;1974.3;581.561;2.07
1143;1988.95;581.561;2.07
1144;1991.39;571.795;2.07
1145;1976.74;587.42;2.07
1146;1944.7;585.467;2.07
1147;1949.58;599.384;2.07
1148;1999.02;555.925;2.07
1149;2026.18;577.654;2.07
1150;2040.83;611.347;2.07
1151;2033.51;550.066;2.07
1152;2003.9;577.654;2.08
1153;1964.23;573.748;2.08
1154;1969.42;591.571;2.08
1155;1994.14;567.888;2.08
1156;2003.9;575.701;2.08
1157;2001.46;559.832;2.08
1158;1981.62;609.149;2.08
1159;1937.07;583.514;2.08
1160;1912.65;550.066;2.08
1161;1949.58;613.3;2.08
1162;1979.18;583.514;2.08
1163;1994.14;581.561;2.08
1164;1996.58;569.842;2.08
1165;1976.74;591.571;2.08
1166;1947.14;579.608;2.09
1167;1949.58;601.337;2.09
1168;2003.9;552.019;2.09
1169;2033.51;581.561;2.09
1170;2043.27;607.196;2.09
1171;2035.95;542.009;2.09
1172;2006.34;577.654;2.09
1173;1966.98;577.654;2.09
1174;1971.86;591.571;2.09
1175;1996.58;571.795;2.09
1176;2006.34;573.748;2.09
1177;2003.9;563.738;2.09
1178;1981.62;605.243;2.09
1179;1939.81;579.608;2.09
1180;1917.54;548.112;2.1
1181;1954.46;593.524;2.1
1182;1986.51;589.618;2.1
1183;2001.46;587.42;2.1
1184;2001.46;569.842;2.1
1185;1984.07;593.524;2.1
1186;1952.02;581.561;2.1
1187;1959.35;605.243;2.1
1188;2006.34;569.842;2.1
1189;2035.95;575.701;2.1
1190;2048.46;613.3;2.1
1191;2040.83;559.832;2.1
1192;2006.34;573.748;2.1
1193;1971.86;571.795;2.11
1194;1976.74;589.618;2.11
1195;2001.46;569.842;2.11
1196;2006.34;577.654;2.11
1197;2008.79;552.019;2.11
1198;1984.07;601.337;2.11
1199;1939.81;583.514;2.11
1200;1917.54;546.159;2.11
1201;1956.9;605.243;2.11
1202;1988.95;585.467;2.11
1203;1999.02;585.467;2.11
1204;2003.9;569.842;2.11
1205;1984.07;593.524;2.11
1206;1954.46;581.561;2.11
1207;1961.79;603.29;2.12
1208;2011.23;557.878;2.12
1209;2040.83;575.701;2.12
1210;2048.46;613.3;2.12
1211;2050.9;552.019;2.12
1212;2023.74;573.748;2.12
1213;1984.07;573.748;2.12
1214;1966.98;589.618;2.12
1215;1994.14;567.888;2.12
1216;2008.79;577.654;2.12
1217;2011.23;557.878;2.12
1218;1996.58;609.149;2.12
1219;1959.35;583.514;2.12
1220;1922.42;550.066;2.12
1221;1939.81;611.347;2.13
1222;1981.62;583.514;2.13
1223;1996.58;583.514;2.13
1224;2003.9;569.842;2.13
1225;1994.14;591.571;2.13
1226;1964.23;579.608;2.13
1227;1947.14;601.337;2.13
1228;1991.39;553.972;2.13
1229;2026.18;579.608;2.13
1230;2048.46;607.196;2.13
1231;2048.46;546.159;2.13
1232;2023.74;577.654;2.13
1233;1984.07;577.654;2.13
1234;1969.42;591.571;2.14
1235;1996.58;571.795;2.14
1236;2013.67;573.748;2.14
1237;2013.67;561.785;2.14
1238;1999.02;605.243;2.14
1239;1961.79;579.608;2.14
1240;1922.42;557.878;2.14
1241;1944.7;593.524;2.14
1242;1986.51;591.571;2.14
1243;2003.9;587.42;2.14
1244;2011.23;565.935;2.14
1245;1999.02;589.618;2.14
1246;1971.86;579.608;2.14
1247;1956.9;605.243;2.14
1248;2003.9;567.888;2.14
1249;2038.39;575.701;2.15
1250;2053.34;611.347;2.15
1251;2058.23;559.832;2.15
1252;2033.51;571.795;2.15
1253;1994.14;571.795;2.15
1254;1979.18;589.618;2.15
1255;2003.9;567.888;2.15
1256;2018.55;577.654;2.15
1257;2021.3;553.972;2.15
1258;2006.34;595.477;2.15
1259;1969.42;583.514;2.15
1260;1927.3;544.206;2.15
1261;1949.58;599.384;2.15
1262;1994.14;585.467;2.16
1263;2006.34;585.467;2.16
1264;2013.67;565.935;2.16
1265;2003.9;593.524;2.16
1266;1974.3;579.608;2.16
1267;1961.79;607.196;2.16
1268;2006.34;559.832;2.16
1269;2043.27;575.701;2.16
1270;2055.78;611.347;2.16
1271;2060.67;552.019;2.16
1272;2033.51;575.701;2.16
1273;1994.14;571.795;2.16
1274;1979.18;591.571;2.16
1275;2008.79;567.888;2.16
1276;2021.3;575.701;2.17
1277;2021.3;557.878;2.17
1278;2006.34;605.243;2.17
1279;1966.98;581.561;2.17
1280;1929.74;550.066;2.17
1281;1954.46;611.347;2.17
1282;1991.39;581.561;2.17
1283;2008.79;581.561;2.17
1284;2016.11;569.842;2.17
1285;2008.79;591.571;2.17
1286;1976.74;581.561;2.17
1287;1961.79;601.337;2.17
1288;2008.79;552.019;2.17
1289;2043.27;577.654;2.17
1290;2060.67;609.149;2.18
1291;2060.67;546.159;2.18
1292;2035.95;577.654;2.18
1293;1996.58;575.701;2.18
1294;1984.07;589.618;2.18
1295;2013.67;567.888;2.18
1296;2023.74;575.701;2.18
1297;2028.62;559.832;2.18
1298;2008.79;607.196;2.18
1299;1974.3;579.608;2.18
1300;1934.63;552.019;2.18
1301;1956.9;619.16;2.18
1302;2003.9;579.608;2.18
1303;2018.55;583.514;2.19
1304;2028.62;567.888;2.19
1305;2016.11;591.571;2.19
1306;1986.51;579.608;2.19
1307;1974.3;603.29;2.19
1308;2018.55;557.878;2.19
1309;2053.34;575.701;2.19
1310;2070.43;609.149;2.19
1311;2067.99;548.112;2.19
1312;2043.27;575.701;2.19
1313;2003.9;573.748;2.19
1314;1991.39;589.618;2.19
1315;2018.55;569.842;2.19
1316;2033.51;575.701;2.19
1317;2033.51;557.878;2.2
1318;2018.55;607.196;2.2
1319;1979.18;579.608;2.2
1320;1942.26;548.112;2.2
1321;1966.98;613.3;2.2
1322;2006.34;581.561;2.2
1323;2023.74;581.561;2.2
1324;2028.62;567.888;2.2
1325;2016.11;587.42;2.2
1326;1988.95;581.561;2.2
1327;1976.74;601.337;2.2
1328;2021.3;553.972;2.2
1329;2055.78;577.654;2.2
1330;2070.43;607.196;2.2
1331;2070.43;544.206;2.21
1332;2045.71;577.654;2.21
1333;2006.34;575.701;2.21
1334;1994.14;587.42;2.21
1335;2023.74;571.795;2.21
1336;2035.95;573.748;2.21
1337;2038.39;548.112;2.21
1338;2018.55;591.571;2.21
1339;1979.18;585.467;2.21
1340;1942.26;546.159;2.21
1341;1969.42;593.524;2.21
1342;2011.23;589.618;2.21
1343;2028.62;585.467;2.21
1344;2035.95;567.888;2.22
1345;2023.74;589.618;2.22
1346;1994.14;577.654;2.22
1347;1981.62;607.196;2.22
1348;2031.06;569.842;2.22
1349;2063.11;573.748;2.22
1350;2078.06;609.149;2.22
1351;2080.5;559.832;2.22
1352;2050.9;569.842;2.22
1353;2016.11;569.842;2.22
1354;2003.9;589.618;2.22
1355;2033.51;567.888;2.22
1356;2040.83;575.701;2.22
1357;2043.27;552.019;2.22
1358;2026.18;597.43;2.23
1359;1986.51;581.561;2.23
1360;1952.02;542.009;2.23
1361;1976.74;601.337;2.23
1362;2018.55;585.467;2.23
1363;2035.95;585.467;2.23
1364;2045.71;567.888;2.23
1365;2028.62;589.618;2.23
1366;1996.58;575.701;2.23
1367;1986.51;605.243;2.23
1368;2033.51;555.925;2.23
1369;2070.43;575.701;2.23
1370;2085.39;611.347;2.23
1371;2082.95;550.066;2.23
1372;2055.78;573.748;2.24
1373;2016.11;571.795;2.24
1374;2006.34;591.571;2.24
1375;2038.39;565.935;2.24
1376;2048.46;575.701;2.24
1377;2050.9;555.925;2.24
1378;2035.95;605.243;2.24
1379;1994.14;581.561;2.24
1380;1959.35;548.112;2.24
1381;1984.07;609.149;2.24
1382;2026.18;579.608;2.24
1383;2043.27;581.561;2.24
1384;2048.46;567.888;2.24
1385;2033.51;587.42;2.24
1386;2006.34;579.608;2.25
1387;1994.14;601.337;2.25
1388;2043.27;553.972;2.25
1389;2080.5;575.701;2.25
1390;2095.15;605.243;2.25
1391;2092.71;542.009;2.25
1392;2063.11;573.748;2.25
1393;2026.18;571.795;2.25
1394;2018.55;589.618;2.25
1395;2045.71;573.748;2.25
1396;2055.78;573.748;2.25
1397;2058.23;552.019;2.25
1398;2038.39;591.571;2.25
1399;1999.02;585.467;2.25
1400;1961.79;544.206;2.26
1401;1991.39;591.571;2.26
1402;2031.06;589.618;2.26
1403;2048.46;585.467;2.26
1404;2050.9;565.935;2.26
1405;2038.39;589.618;2.26
1406;2008.79;577.654;2.26
1407;2001.46;603.29;2.26
1408;2048.46;569.842;2.26
1409;2080.5;573.748;2.26
1410;2095.15;611.347;2.26
1411;2092.71;561.785;2.26
1412;2065.55;569.842;2.26
1413;2023.74;569.842;2.27
1414;2018.55;587.42;2.27
1415;2045.71;567.888;2.27
1416;2058.23;575.701;2.27
1417;2060.67;552.019;2.27
1418;2040.83;595.477;2.27
1419;1999.02;581.561;2.27
1420;1966.98;544.206;2.27
1421;1996.58;599.384;2.27
1422;2035.95;581.561;2.27
1423;2050.9;583.514;2.27
1424;2055.78;565.935;2.27
1425;2045.71;589.618;2.27
1426;2013.67;577.654;2.28
1427;2006.34;605.243;2.28
1428;2053.34;561.785;2.28
1429;2085.39;573.748;2.28
1430;2102.78;613.3;2.28
1431;2100.04;552.019;2.28
1432;2070.43;571.795;2.28
1433;2033.51;569.842;2.28
1434;2026.18;587.42;2.28
1435;2058.23;563.738;2.28
1436;2065.55;575.701;2.28
1437;2067.99;553.972;2.28
1438;2050.9;605.243;2.29
1439;2008.79;579.608;2.29
1440;1971.86;544.206;2.29
1441;2001.46;609.149;2.29
1442;2043.27;579.608;2.29
1443;2055.78;581.561;2.29
1444;2065.55;565.935;2.29
1445;2048.46;587.42;2.29
1446;2016.11;579.608;2.29
1447;2008.79;601.337;2.29
1448;2058.23;550.066;2.29
1449;2092.71;575.701;2.29
1450;2107.67;607.196;2.3
1451;2105.22;542.009;2.3
1452;2075.62;573.748;2.3
1453;2035.95;571.795;2.3
1454;2031.06;585.467;2.3
1455;2058.23;567.888;2.3
1456;2067.99;573.748;2.3
1457;2067.99;550.066;2.3
1458;2048.46;601.337;2.3
1459;2008.79;581.561;2.3
1460;1974.3;544.206;2.3
1461;2003.9;601.337;2.3
1462;2045.71;581.561;2.3
1463;2060.67;579.608;2.31
1464;2065.55;565.935;2.31
1465;2055.78;589.618;2.31
1466;2021.3;577.654;2.31
1467;2018.55;601.337;2.31
1468;2065.55;555.925;2.31
1469;2092.71;573.748;2.31
1470;2110.11;609.149;2.31
1471;2107.67;550.066;2.31
1472;2078.06;571.795;2.31
1473;2038.39;569.842;2.31
1474;2031.06;585.467;2.31
1475;2060.67;563.738;2.32
1476;2070.43;573.748;2.32
1477;2070.43;555.925;2.32
1478;2053.34;605.243;2.32
1479;2011.23;577.654;2.32
1480;1976.74;548.112;2.32
1481;2006.34;611.347;2.32
1482;2045.71;577.654;2.32
1483;2060.67;579.608;2.32
1484;2067.99;565.935;2.32
1485;2053.34;587.42;2.32
1486;2021.3;575.701;2.32
1487;2013.67;601.337;2.33
1488;2065.55;575.701;2.33
1489;2097.59;571.795;2.33
1490;2112.55;607.196;2.33
1491;2105.22;565.935;2.33
1492;2075.62;565.935;2.33
1493;2038.39;569.842;2.33
1494;2033.51;585.467;2.33
1495;2065.55;567.888;2.33
1496;2075.62;573.748;2.33
1497;2078.06;550.066;2.33
1498;2055.78;587.42;2.33
1499;2013.67;583.514;2.34
1500;1979.18;544.206;2.34
1501;2011.23;593.524;2.34
1502;2048.46;587.42;2.34
1503;2065.55;581.561;2.34
1504;2070.43;565.935;2.34
1505;2053.34;589.618;2.34
1506;2023.74;575.701;2.34
1507;2021.3;603.29;2.34
1508;2067.99;563.738;2.34
1509;2100.04;571.795;2.34
1510;2114.99;609.149;2.34
1511;2110.11;555.925;2.35
1512;2078.06;569.842;2.35
1513;2040.83;569.842;2.35
1514;2035.95;585.467;2.35
1515;2065.55;565.935;2.35
1516;2075.62;571.795;2.35
1517;2078.06;552.019;2.35
1518;2055.78;593.524;2.35
1519;2016.11;579.608;2.35
1520;1984.07;544.206;2.35
1521;2013.67;597.43;2.35
1522;2053.34;581.561;2.36
1523;2065.55;583.514;2.36
1524;2072.87;563.738;2.36
1525;2055.78;587.42;2.36
1526;2021.3;577.654;2.36
1527;2018.55;603.29;2.36
1528;2070.43;553.972;2.36
1529;2102.78;575.701;2.36
1530;2117.43;607.196;2.36
1531;2112.55;548.112;2.36
1532;2078.06;571.795;2.36
1533;2043.27;569.842;2.37
1534;2038.39;587.42;2.37
1535;2067.99;563.738;2.37
1536;2080.5;571.795;2.37
1537;2078.06;553.972;2.37
1538;2058.23;603.29;2.37
1539;2018.55;579.608;2.37
1540;1986.51;548.112;2.37
1541;2021.3;607.196;2.37
1542;2058.23;577.654;2.37
1543;2075.62;579.608;2.37
1544;2078.06;565.935;2.37
1545;2060.67;583.514;2.38
1546;2031.06;577.654;2.38
1547;2026.18;599.384;2.38
1548;2078.06;548.112;2.38
1549;2112.55;567.888;2.38
1550;2124.76;605.243;2.38
1551;2119.87;563.738;2.38
1552;2087.83;565.935;2.38
1553;2053.34;569.842;2.38
1554;2048.46;583.514;2.38
1555;2078.06;569.842;2.38
1556;2085.39;569.842;2.39
1557;2087.83;550.066;2.39
1558;2065.55;585.467;2.39
1559;2026.18;583.514;2.39
1560;1994.14;542.009;2.39
1561;2028.62;589.618;2.39
1562;2065.55;585.467;2.39
1563;2080.5;581.561;2.39
1564;2085.39;563.738;2.39
1565;2070.43;587.42;2.39
1566;2035.95;575.701;2.39
1567;2035.95;603.29;2.4
1568;2087.83;565.935;2.4
1569;2117.43;569.842;2.4
1570;2134.83;609.149;2.4
1571;2129.94;557.878;2.4
1572;2097.59;565.935;2.4
1573;2058.23;567.888;2.4
1574;2058.23;585.467;2.4
1575;2082.95;563.738;2.4
1576;2090.27;573.748;2.4
1577;2090.27;548.112;2.4
1578;2070.43;591.571;2.41
1579;2026.18;579.608;2.41
1580;1996.58;542.009;2.41
1581;2033.51;597.43;2.41
1582;2070.43;581.561;2.41
1583;2085.39;579.608;2.41
1584;2087.83;563.738;2.41
1585;2078.06;587.42;2.41
1586;2045.71;575.701;2.41
1587;2035.95;601.337;2.41
1588;2082.95;557.878;2.41
1589;2119.87;569.842;2.42
1590;2134.83;607.196;2.42
1591;2137.27;550.066;2.42
1592;2107.67;571.795;2.42
1593;2067.99;567.888;2.42
1594;2055.78;585.467;2.42
1595;2085.39;559.832;2.42
1596;2097.59;573.748;2.42
1597;2100.04;552.019;2.42
1598;2082.95;601.337;2.42
1599;2043.27;577.654;2.42
1600;2003.9;544.206;2.43
1601;2031.06;605.243;2.43
1602;2070.43;579.608;2.43
1603;2090.27;579.608;2.43
1604;2097.59;563.738;2.43
1605;2082.95;583.514;2.43
1606;2053.34;573.748;2.43
1607;2038.39;599.384;2.43
1608;2087.83;546.159;2.43
1609;2124.76;571.795;2.43
1610;2142.15;607.196;2.44
1611;2139.71;555.925;2.44
1612;2110.11;567.888;2.44
1613;2072.87;569.842;2.44
1614;2063.11;585.467;2.44
1615;2095.15;561.785;2.44
1616;2102.78;571.795;2.44
1617;2102.78;548.112;2.44
1618;2087.83;597.43;2.44
1619;2045.71;577.654;2.44
1620;2008.79;540.056;2.44
1621;2035.95;601.337;2.45
1622;2082.95;579.608;2.45
1623;2097.59;579.608;2.45
1624;2105.22;563.738;2.45
1625;2090.27;589.618;2.45
1626;2055.78;575.701;2.45
1627;2045.71;599.384;2.45
1628;2092.71;552.019;2.45
1629;2127.2;571.795;2.45
1630;2139.71;609.149;2.45
1631;2142.15;544.206;2.46
1632;2110.11;573.748;2.46
1633;2067.99;567.888;2.46
1634;2060.67;585.467;2.46
1635;2090.27;561.785;2.46
1636;2102.78;571.795;2.46
1637;2105.22;552.019;2.46
1638;2087.83;603.29;2.46
1639;2048.46;573.748;2.46
1640;2008.79;544.206;2.46
1641;2040.83;581.561;2.46
1642;2078.06;593.524;2.47
1643;2097.59;577.654;2.47
1644;2102.78;561.785;2.47
1645;2090.27;577.654;2.47
1646;2058.23;573.748;2.47
1647;2048.46;601.337;2.47
1648;2095.15;569.842;2.47
1649;2132.39;565.935;2.47
1650;2149.48;607.196;2.47
1651;2147.03;559.832;2.47
1652;2119.87;559.832;2.48
1653;2078.06;565.935;2.48
1654;2070.43;585.467;2.48
1655;2100.04;565.935;2.48
1656;2114.99;571.795;2.48
1657;2114.99;546.159;2.48
1658;2097.59;585.467;2.48
1659;2053.34;577.654;2.48
1660;2018.55;540.056;2.48
1661;2048.46;587.42;2.48
1662;2087.83;583.514;2.49
1663;2102.78;577.654;2.49
1664;2110.11;559.832;2.49
1665;2092.71;585.467;2.49
1666;2063.11;573.748;2.49
1667;2053.34;599.384;2.49
1668;2102.78;561.785;2.49
