<WeldAnalyseData xmlns:i="http:www.w3.org/2001/XMLSchema-instance">
<WeldParameter>
<TimeStamp>DT#2024-01-25-14:43:43</TimeStamp>
<Generator>SG-22-10000</Generator>
<GenFreq>20</GenFreq>
<MaxForce>8000</MaxForce>
<MaxPower>10000</MaxPower>
<RunupPressure>1.5</RunupPressure>
<RunupDist>10</RunupDist>
<RunPress>0.8</RunPress>
<ShakeDelay>0.03</ShakeDelay>
<ShakeTime>0.3</ShakeTime>
<RunBackPress1>6</RunBackPress1>
<RunBackPress2>2</RunBackPress2>
<RunBackDist>1</RunBackDist>
<TrigValue>500</TrigValue>
<TrigModeUnit>W</TrigModeUnit>
<WeldModeUnit>Ws</WeldModeUnit>
<PressNr>0</PressNr>
<MaxLoss>1500</MaxLoss>
</WeldParameter>
<WeldSets>
<WeldSet>
<PressRiseTime>0</PressRiseTime>
<RunPressure>1</RunPressure>
<Amplitude>86</Amplitude>
<WeldMode>3270</WeldMode>
</WeldSet>
</WeldSets>
<WeldValue>
<WeldNr>3032</WeldNr>
<RecipeName>RickStyle</RecipeName>
<WeldTime>1671</WeldTime>
<DistDiff>2.31</DistDiff>
<DistAbs>78</DistAbs>
<Energy>3271.81</Energy>
<MaxPower>2188.83</MaxPower>
<CycleTime>6060</CycleTime>
<TrigForce>500.748</TrigForce>
<TrigDist>75.69</TrigDist>
<RunSpeed>67.5201</RunSpeed>
<MaxForce>628.925</MaxForce>
<LossPower>324.679</LossPower>
</WeldValue>
</WeldAnalyseData>
#CSV-START#
ms;Power[W];Force[N];Distance[mm]
1;0;0;0
2;0;498.795;0
3;0;498.795;0
4;0;500.748;0
5;0;500.748;0
6;0;502.701;0
7;0;498.795;0
8;0;477.065;0.00999451
9;0;425.55;0.0199966
10;0;405.774;0.0400009
11;0;366.466;0.0699997
12;25.6737;368.419;0.110001
13;92.5092;340.831;0.139999
14;176.435;328.867;0.18
15;255.478;307.138;0.220001
16;319.567;305.185;0.259995
17;376.331;299.326;0.309998
18;443.167;311.045;0.349998
19;517.022;289.315;0.399994
20;588.74;311.045;0.439995
21;655.271;332.774;0.470001
22;722.106;297.372;0.5
23;783.753;326.914;0.529999
24;833.193;332.774;0.549995
25;894.841;350.597;0.57
26;961.676;350.597;0.589996
27;1018.44;358.409;0.599998
28;1072.76;360.363;0.619995
29;1109.69;397.961;0.629997
30;1129.53;388.195;0.639999
31;1154.25;380.139;0.639999
32;1211.01;431.654;0.649994
33;1255.26;403.821;0.649994
34;1292.5;405.774;0.659996
35;1329.42;399.915;0.659996
36;1354.14;409.925;0.669998
37;1363.91;409.925;0.68
38;1396.26;433.607;0.689995
39;1450.58;394.055;0.689995
40;1492.39;411.878;0.699997
41;1529.63;445.326;0.709999
42;1554.04;392.102;0.709999
43;1551.6;415.784;0.720001
44;1544.27;411.878;0.729996
45;1566.55;429.456;0.729996
46;1605.92;407.971;0.739998
47;1635.53;419.691;0.75
48;1657.8;401.868;0.759995
49;1660.24;447.279;0.759995
50;1645.6;427.503;0.769997
51;1645.6;396.008;0.779999
52;1697.48;461.196;0.790001
53;1746.61;433.607;0.790001
54;1776.52;435.56;0.799995
55;1800.94;423.597;0.809998
56;1806.12;445.326;0.82
57;1798.49;439.467;0.829994
58;1815.89;465.102;0.829994
59;1875.1;419.691;0.839996
60;1917.21;447.279;0.839996
61;1944.37;480.972;0.849998
62;1951.7;415.784;0.860001
63;1929.42;453.383;0.860001
64;1904.7;453.383;0.869995
65;1917.21;469.008;0.869995
66;1959.02;451.186;0.879997
67;1978.86;461.196;0.879997
68;1991.07;445.326;0.889999
69;1978.86;492.691;0.889999
70;1946.81;467.055;0.899994
71;1926.98;447.279;0.899994
72;1978.86;514.42;0.899994
73;2020.97;475.112;0.909996
74;2040.51;475.112;0.909996
75;2053.02;467.055;0.919998
76;2042.95;486.831;0.919998
77;2015.79;484.878;0.93
78;2028.3;498.795;0.93
79;2080.18;455.336;0.93
80;2112.22;490.738;0.939995
81;2132.06;508.56;0.939995
82;2129.62;453.383;0.949997
83;2097.27;484.878;0.949997
84;2062.78;490.738;0.949997
85;2072.55;502.701;0.959999
86;2102.46;482.925;0.959999
87;2117.11;482.925;0.959999
88;2121.99;482.925;0.970001
89;2099.71;518.326;0.970001
90;2055.46;488.784;0.979996
91;2033.18;480.972;0.979996
92;2077.74;538.102;0.979996
93;2114.67;500.748;0.989998
94;2132.06;496.597;0.989998
95;2136.94;494.644;0.989998
96;2114.67;508.56;1
97;2082.62;514.42;1
98;2089.95;518.326;1
99;2141.83;482.925;1.00999
100;2171.43;500.748;1.00999
101;2188.83;538.102;1.00999
102;2181.2;479.019;1.02
103;2141.83;502.701;1.02
104;2102.46;502.701;1.02
105;2107.34;518.326;1.03
106;2134.5;494.644;1.03
107;2144.27;508.56;1.03
108;2141.83;486.831;1.03
109;2114.67;538.102;1.04
110;2067.67;512.467;1.04
111;2042.95;480.972;1.04
112;2082.62;544.206;1.05
113;2114.67;516.373;1.05
114;2129.62;518.326;1.05
115;2132.06;502.701;1.06
116;2107.34;524.43;1.06
117;2072.55;514.42;1.06
118;2075.3;538.102;1.06
119;2119.55;488.784;1.07
120;2149.15;516.373;1.07
121;2156.78;546.159;1.07
122;2149.15;484.878;1.07
123;2109.78;516.373;1.07999
124;2075.3;516.373;1.07999
125;2082.62;528.336;1.07999
126;2117.11;510.514;1.09
127;2134.5;518.326;1.09
128;2134.5;502.701;1.09
129;2104.9;550.066;1.09
130;2060.34;518.326;1.09
131;2030.74;498.795;1.1
132;2070.11;565.935;1.1
133;2099.71;524.43;1.1
134;2112.22;522.477;1.11
135;2109.78;514.42;1.11
136;2085.06;530.29;1.11
137;2053.02;526.383;1.11
138;2050.58;546.159;1.12
139;2097.27;500.748;1.12
140;2119.55;530.29;1.12
141;2126.87;546.159;1.12
142;2117.11;486.831;1.13
143;2075.3;524.43;1.13
144;2038.06;524.43;1.13
145;2040.51;536.149;1.13
146;2065.23;518.326;1.13
147;2075.3;518.326;1.14
148;2070.11;514.42;1.14
149;2045.39;552.019;1.14
150;2001.14;522.477;1.14
151;1978.86;510.514;1.14
152;2020.97;569.842;1.14999
153;2050.58;530.29;1.14999
154;2062.78;526.383;1.14999
155;2062.78;524.43;1.14999
156;2040.51;536.149;1.14999
157;2008.46;542.009;1.16
158;2015.79;546.159;1.16
159;2062.78;514.42;1.16
160;2085.06;532.243;1.16
161;2097.27;557.878;1.16
162;2085.06;494.644;1.17
163;2048.14;532.243;1.17
164;2008.46;530.29;1.17
165;2015.79;546.159;1.17
166;2040.51;526.383;1.17
167;2048.14;530.29;1.17
168;2048.14;520.524;1.18
169;2020.97;561.785;1.18
170;1978.86;536.149;1.18
171;1956.58;516.373;1.18
172;1998.7;579.608;1.18
173;2025.86;536.149;1.18999
174;2038.06;536.149;1.18999
175;2038.06;530.29;1.18999
176;2013.34;546.159;1.18999
177;1983.74;546.159;1.18999
178;1991.07;555.925;1.18999
179;2035.62;518.326;1.2
180;2057.9;546.159;1.2
181;2067.67;561.785;1.2
182;2057.9;504.654;1.2
183;2018.23;538.102;1.2
184;1983.74;542.009;1.2
185;1988.62;550.066;1.2
186;2010.9;532.243;1.21
187;2020.97;534.196;1.21
188;2015.79;530.29;1.21
189;1991.07;561.785;1.21
190;1949.26;532.243;1.21
191;1926.98;510.514;1.21
192;1973.98;565.935;1.22
193;2003.58;546.159;1.22
194;2013.34;548.112;1.22
195;2015.79;530.29;1.22
196;1993.81;555.925;1.22
197;1959.02;544.206;1.22
198;1971.53;567.888;1.22
199;2018.23;522.477;1.23
200;2038.06;542.009;1.23
201;2048.14;575.701;1.23
202;2038.06;518.326;1.23
203;1998.7;542.009;1.23
204;1963.9;538.102;1.23
205;1973.98;557.878;1.23
206;2001.14;536.149;1.24
207;2008.46;546.159;1.24
208;2008.46;522.477;1.24
209;1981.3;577.654;1.24
210;1939.49;550.066;1.24
211;1922.09;520.524;1.24
212;1966.65;581.561;1.24
213;1988.62;550.066;1.25
214;2003.58;552.019;1.25
215;2006.02;538.102;1.25
216;1983.74;557.878;1.25
217;1951.7;548.112;1.25
218;1959.02;573.748;1.25
219;2008.46;524.43;1.25
220;2028.3;550.066;1.25999
221;2038.06;579.608;1.25999
222;2025.86;514.42;1.25999
223;1988.62;548.112;1.25999
224;1956.58;546.159;1.25999
225;1961.46;561.785;1.25999
226;1988.62;542.009;1.25999
227;1996.25;548.112;1.27
228;1991.07;530.29;1.27
229;1961.46;577.654;1.27
230;1924.54;550.066;1.27
231;1904.7;528.336;1.27
232;1949.26;595.477;1.27
233;1971.53;553.972;1.27
234;1988.62;552.019;1.28
235;1988.62;542.009;1.28
236;1969.09;559.832;1.28
237;1939.49;555.925;1.28
238;1946.81;571.795;1.28
239;1993.81;528.336;1.28
240;2015.79;557.878;1.28
241;2025.86;579.608;1.28
242;2010.9;516.373;1.29
243;1976.42;553.972;1.29
244;1941.93;553.972;1.29
245;1951.7;565.935;1.29
246;1973.98;548.112;1.29
247;1978.86;546.159;1.29
248;1976.42;542.009;1.29
249;1954.14;577.654;1.29
250;1912.33;552.019;1.3
251;1897.37;538.102;1.3
252;1936.74;595.477;1.3
253;1969.09;561.785;1.3
254;1978.86;565.935;1.3
255;1981.3;546.159;1.3
256;1966.65;571.795;1.3
257;1936.74;555.925;1.3
258;1936.74;585.467;1.31
259;1981.3;538.102;1.31
260;2006.02;555.925;1.31
261;2018.23;591.571;1.31
262;2008.46;534.196;1.31
263;1976.42;553.972;1.31
264;1939.49;552.019;1.31
265;1941.93;571.795;1.31
266;1966.65;550.066;1.32
267;1978.86;561.785;1.32
268;1976.42;536.149;1.32
269;1956.58;585.467;1.32
270;1914.77;565.935;1.32
271;1890.05;532.243;1.32
272;1922.09;593.524;1.32
273;1956.58;565.935;1.32
274;1969.09;567.888;1.32999
275;1973.98;553.972;1.32999
276;1956.58;575.701;1.32999
277;1926.98;563.738;1.32999
278;1926.98;587.42;1.32999
279;1973.98;540.056;1.32999
280;1998.7;563.738;1.32999
281;2006.02;595.477;1.32999
282;2001.14;528.336;1.34
283;1971.53;563.738;1.34
284;1929.42;561.785;1.34
285;1931.86;577.654;1.34
286;1956.58;555.925;1.34
287;1966.65;563.738;1.34
288;1963.9;550.066;1.34
289;1946.81;593.524;1.34
290;1907.14;569.842;1.35
291;1882.42;540.056;1.35
292;1917.21;609.149;1.35
293;1951.7;569.842;1.35
294;1963.9;571.795;1.35
295;1971.53;559.832;1.35
296;1951.7;577.654;1.35
297;1922.09;569.842;1.35
298;1924.54;589.618;1.36
299;1969.09;548.112;1.36
300;1993.81;571.795;1.36
301;2006.02;591.571;1.36
302;1998.7;530.29;1.36
303;1966.65;569.842;1.36
304;1929.42;569.842;1.36
305;1931.86;579.608;1.36
306;1956.58;563.738;1.37
307;1966.65;565.935;1.37
308;1966.65;557.878;1.37
309;1946.81;593.524;1.37
310;1907.14;565.935;1.37
311;1879.98;552.019;1.37
312;1922.09;609.149;1.37
313;1951.7;573.748;1.37
314;1966.65;571.795;1.38
315;1969.09;561.785;1.38
316;1951.7;583.514;1.38
317;1924.54;575.701;1.38
318;1924.54;597.43;1.38
319;1971.53;550.066;1.38
320;1996.25;575.701;1.38
321;2006.02;601.337;1.38
322;1998.7;540.056;1.38
323;1963.9;573.748;1.39
324;1926.98;571.795;1.39
325;1931.86;585.467;1.39
326;1961.46;569.842;1.39
327;1969.09;575.701;1.39
328;1969.09;559.832;1.39
329;1946.81;601.337;1.39
330;1907.14;575.701;1.39
331;1885.17;553.972;1.39
332;1919.65;619.16;1.39999
333;1949.26;577.654;1.39999
334;1966.65;577.654;1.39999
335;1971.53;569.842;1.39999
336;1951.7;585.467;1.39999
337;1922.09;583.514;1.39999
338;1926.98;595.477;1.39999
339;1971.53;555.925;1.39999
340;1996.25;585.467;1.39999
341;2006.02;597.43;1.41
342;2001.14;542.009;1.41
343;1966.65;577.654;1.41
344;1931.86;577.654;1.41
345;1934.3;587.42;1.41
346;1959.02;567.888;1.41
347;1966.65;577.654;1.41
348;1966.65;553.972;1.41
349;1946.81;599.384;1.41
350;1904.7;581.561;1.41
351;1882.42;546.159;1.42
352;1922.09;605.243;1.42
353;1954.14;585.467;1.42
354;1966.65;585.467;1.42
355;1971.53;567.888;1.42
356;1954.14;593.524;1.42
357;1922.09;579.608;1.42
358;1926.98;605.243;1.42
359;1973.98;559.832;1.42
360;1996.25;577.654;1.42
361;2006.02;615.253;1.43
362;1998.7;550.066;1.43
363;1966.65;577.654;1.43
364;1929.42;575.701;1.43
365;1939.49;591.571;1.43
366;1961.46;569.842;1.43
367;1969.09;579.608;1.43
368;1969.09;561.785;1.43
369;1946.81;609.149;1.43
370;1907.14;585.467;1.43999
371;1887.61;552.019;1.43999
372;1926.98;615.253;1.43999
373;1956.58;583.514;1.43999
374;1971.53;585.467;1.43999
375;1971.53;569.842;1.43999
376;1954.14;593.524;1.43999
377;1924.54;579.608;1.43999
378;1929.42;603.29;1.43999
379;1978.86;553.972;1.43999
380;1998.7;579.608;1.45
381;2008.46;611.347;1.45
382;2001.14;544.206;1.45
383;1966.65;579.608;1.45
384;1934.3;577.654;1.45
385;1939.49;593.524;1.45
386;1961.46;571.795;1.45
387;1969.09;579.608;1.45
388;1969.09;561.785;1.45
389;1944.37;607.196;1.45
390;1904.7;581.561;1.45
391;1885.17;557.878;1.46
392;1926.98;621.113;1.46
393;1954.14;583.514;1.46
394;1969.09;581.561;1.46
395;1969.09;573.748;1.46
396;1954.14;591.571;1.46
397;1922.09;585.467;1.46
398;1929.42;601.337;1.46
399;1973.98;555.925;1.46
400;1996.25;585.467;1.46
401;2010.9;603.29;1.47
402;2001.14;546.159;1.47
403;1966.65;579.608;1.47
404;1929.42;581.561;1.47
405;1936.74;593.524;1.47
406;1961.46;575.701;1.47
407;1971.53;575.701;1.47
408;1969.09;557.878;1.47
409;1946.81;599.384;1.47
410;1907.14;585.467;1.47
411;1887.61;548.112;1.47
412;1929.42;605.243;1.48
413;1961.46;589.618;1.48
414;1976.42;589.618;1.48
415;1976.42;569.842;1.48
416;1959.02;595.477;1.48
417;1929.42;581.561;1.48
418;1936.74;609.149;1.48
419;1983.74;561.785;1.48
420;2003.58;579.608;1.48
421;2013.34;617.206;1.48
422;2003.58;555.925;1.48
423;1969.09;579.608;1.48
424;1934.3;577.654;1.49
425;1944.37;593.524;1.49
426;1966.65;567.888;1.49
427;1971.53;583.514;1.49
428;1973.98;557.878;1.49
429;1946.81;609.149;1.49
430;1907.14;587.42;1.49
431;1892.49;553.972;1.49
432;1934.3;617.206;1.49
433;1961.46;585.467;1.49
434;1976.42;587.42;1.49
435;1978.86;573.748;1.49
436;1966.65;595.477;1.5
437;1941.93;585.467;1.5
438;1924.54;605.243;1.5
439;1966.65;557.878;1.5
440;2001.14;579.608;1.5
441;2018.23;613.3;1.5
442;2018.23;548.112;1.5
443;1991.07;579.608;1.5
444;1954.14;579.608;1.5
445;1941.93;595.477;1.5
446;1966.65;575.701;1.5
447;1978.86;579.608;1.50999
448;1981.3;563.738;1.50999
449;1966.65;609.149;1.50999
450;1931.86;581.561;1.50999
451;1899.82;557.878;1.50999
452;1919.65;625.019;1.50999
453;1963.9;585.467;1.50999
454;1981.3;583.514;1.50999
455;1986.18;575.701;1.50999
456;1978.86;591.571;1.50999
457;1949.26;585.467;1.50999
458;1934.3;603.29;1.50999
459;1976.42;559.832;1.50999
460;2006.02;587.42;1.52
461;2023.42;609.149;1.52
462;2020.97;546.159;1.52
463;1996.25;583.514;1.52
464;1956.58;583.514;1.52
465;1944.37;595.477;1.52
466;1971.53;575.701;1.52
467;1983.74;579.608;1.52
468;1983.74;569.842;1.52
469;1971.53;611.347;1.52
470;1934.3;585.467;1.52
471;1899.82;553.972;1.52
472;1926.98;621.113;1.53
473;1966.65;585.467;1.53
474;1981.3;587.42;1.53
475;1991.07;573.748;1.53
476;1978.86;595.477;1.53
477;1949.26;585.467;1.53
478;1934.3;607.196;1.53
479;1978.86;555.925;1.53
480;2010.9;585.467;1.53
481;2023.42;613.3;1.53
482;2023.42;544.206;1.53
483;1998.7;581.561;1.53
484;1959.02;579.608;1.53
485;1946.81;595.477;1.54
486;1973.98;573.748;1.54
487;1983.74;579.608;1.54
488;1986.18;567.888;1.54
489;1971.53;609.149;1.54
490;1936.74;583.514;1.54
491;1904.7;559.832;1.54
492;1929.42;628.925;1.54
493;1966.65;585.467;1.54
494;1986.18;583.514;1.54
495;1993.81;577.654;1.54
496;1981.3;591.571;1.54
497;1949.26;589.618;1.54
498;1939.49;601.337;1.55
499;1981.3;563.738;1.55
500;2010.9;587.42;1.55
501;2025.86;617.206;1.55
502;2025.86;563.738;1.55
503;1996.25;581.561;1.55
504;1959.02;579.608;1.55
505;1949.26;595.477;1.55
506;1976.42;571.795;1.55
507;1988.62;581.561;1.55
508;1991.07;559.832;1.55
509;1976.42;605.243;1.55
510;1939.49;589.618;1.55
511;1907.14;552.019;1.56
512;1931.86;609.149;1.56
513;1971.53;593.524;1.56
514;1991.07;591.571;1.56
515;1996.25;573.748;1.56
516;1983.74;597.43;1.56
517;1954.14;587.42;1.56
518;1946.81;611.347;1.56
519;1986.18;563.738;1.56
520;2018.23;583.514;1.56
521;2033.18;619.16;1.56
522;2030.74;553.972;1.56
523;2003.58;579.608;1.56
524;1963.9;579.608;1.57
525;1954.14;597.43;1.57
526;1978.86;571.795;1.57
527;1991.07;583.514;1.57
528;1993.81;561.785;1.57
529;1976.42;615.253;1.57
530;1939.49;585.467;1.57
531;1907.14;553.972;1.57
532;1936.74;619.16;1.57
533;1973.98;589.618;1.57
534;1988.62;589.618;1.57
535;1998.7;573.748;1.57
536;1983.74;597.43;1.57
537;1956.58;585.467;1.57999
538;1944.37;605.243;1.57999
539;1986.18;557.878;1.57999
540;2018.23;583.514;1.57999
541;2030.74;613.3;1.57999
542;2028.3;550.066;1.57999
543;1998.7;581.561;1.57999
544;1961.46;579.608;1.57999
545;1954.14;597.43;1.57999
546;1978.86;573.748;1.57999
547;1988.62;581.561;1.57999
548;1991.07;567.888;1.57999
549;1976.42;611.347;1.57999
550;1936.74;585.467;1.57999
551;1904.7;555.925;1.59
552;1934.3;626.972;1.59
553;1971.53;587.42;1.59
554;1986.18;587.42;1.59
555;1993.81;575.701;1.59
556;1978.86;593.524;1.59
557;1951.7;589.618;1.59
558;1939.49;605.243;1.59
559;1986.18;559.832;1.59
560;2015.79;589.618;1.59
561;2028.3;607.196;1.59
562;2025.86;548.112;1.59
563;1996.25;579.608;1.59
564;1956.58;577.654;1.6
565;1951.7;595.477;1.6
566;1978.86;571.795;1.6
567;1988.62;583.514;1.6
568;1988.62;557.878;1.6
569;1971.53;603.29;1.6
570;1934.3;589.618;1.6
571;1904.7;553.972;1.6
572;1929.42;607.196;1.6
573;1971.53;591.571;1.6
574;1983.74;591.571;1.6
575;1993.81;571.795;1.6
576;1976.42;597.43;1.6
577;1946.81;585.467;1.6
578;1939.49;611.347;1.61
579;1983.74;567.888;1.61
580;2013.34;581.561;1.61
581;2025.86;617.206;1.61
582;2020.97;555.925;1.61
583;1993.81;579.608;1.61
584;1954.14;577.654;1.61
585;1946.81;593.524;1.61
586;1976.42;573.748;1.61
587;1983.74;581.561;1.61
588;1986.18;561.785;1.61
589;1969.09;611.347;1.61
590;1931.86;585.467;1.61
591;1899.82;552.019;1.61
592;1934.3;615.253;1.62
593;1969.09;587.42;1.62
594;1983.74;587.42;1.62
595;1991.07;575.701;1.62
596;1976.42;595.477;1.62
597;1946.81;581.561;1.62
598;1939.49;607.196;1.62
599;1983.74;557.878;1.62
600;2010.9;581.561;1.62
601;2023.42;615.253;1.62
602;2020.97;550.066;1.62
603;1993.81;581.561;1.62
604;1954.14;579.608;1.62
605;1949.26;595.477;1.62
606;1973.98;571.795;1.63
607;1983.74;579.608;1.63
608;1986.18;565.935;1.63
609;1969.09;611.347;1.63
610;1931.86;585.467;1.63
611;1902.26;553.972;1.63
612;1934.3;623.066;1.63
613;1969.09;587.42;1.63
614;1986.18;583.514;1.63
615;1991.07;573.748;1.63
616;1981.3;591.571;1.63
617;1949.26;583.514;1.63
618;1941.93;603.29;1.63
619;1986.18;559.832;1.63
620;2010.9;585.467;1.63
621;2025.86;607.196;1.64
622;2020.97;546.159;1.64
623;1991.07;581.561;1.64
624;1951.7;581.561;1.64
625;1951.7;595.477;1.64
626;1978.86;569.842;1.64
627;1986.18;579.608;1.64
628;1988.62;561.785;1.64
629;1969.09;613.3;1.64
630;1929.42;585.467;1.64
631;1902.26;555.925;1.64
632;1936.74;619.16;1.64
633;1969.09;585.467;1.64
634;1981.3;587.42;1.64
635;1988.62;571.795;1.64999
636;1976.42;593.524;1.64999
637;1946.81;583.514;1.64999
638;1936.74;605.243;1.64999
639;1986.18;555.925;1.64999
640;2010.9;581.561;1.64999
641;2023.42;611.347;1.64999
642;2020.97;544.206;1.64999
643;1988.62;579.608;1.64999
644;1951.7;579.608;1.64999
645;1949.26;593.524;1.64999
646;1976.42;573.748;1.64999
647;1986.18;579.608;1.64999
648;1983.74;561.785;1.64999
649;1969.09;611.347;1.64999
650;1929.42;581.561;1.66
651;1902.26;557.878;1.66
652;1934.3;623.066;1.66
653;1966.65;583.514;1.66
654;1983.74;583.514;1.66
655;1986.18;571.795;1.66
656;1971.53;593.524;1.66
657;1944.37;581.561;1.66
658;1939.49;607.196;1.66
659;1981.3;571.795;1.66
660;2008.46;577.654;1.66
661;2020.97;615.253;1.66
662;2018.23;561.785;1.66
663;1988.62;573.748;1.66
664;1951.7;573.748;1.66
665;1946.81;591.571;1.66
666;1973.98;567.888;1.67
667;1983.74;579.608;1.67
668;1986.18;557.878;1.67
669;1969.09;603.29;1.67
670;1929.42;587.42;1.67
671;1902.26;550.066;1.67
672;1936.74;605.243;1.67
673;1971.53;587.42;1.67
674;1983.74;585.467;1.67
675;1991.07;567.888;1.67
676;1973.98;595.477;1.67
677;1944.37;581.561;1.67
678;1936.74;605.243;1.67
679;1983.74;561.785;1.67
680;2010.9;575.701;1.67
681;2023.42;615.253;1.67
682;2020.97;555.925;1.68
683;1986.18;579.608;1.68
684;1949.26;571.795;1.68
685;1946.81;593.524;1.68
686;1973.98;569.842;1.68
687;1981.3;579.608;1.68
688;1986.18;557.878;1.68
689;1966.65;607.196;1.68
690;1924.54;585.467;1.68
691;1902.26;550.066;1.68
692;1936.74;615.253;1.68
693;1966.65;585.467;1.68
694;1981.3;587.42;1.68
695;1988.62;567.888;1.68
696;1971.53;591.571;1.68
697;1941.93;579.608;1.68999
698;1939.49;603.29;1.68999
699;1986.18;552.019;1.68999
700;2013.34;579.608;1.68999
701;2023.42;611.347;1.68999
702;2018.23;546.159;1.68999
703;1986.18;577.654;1.68999
704;1949.26;575.701;1.68999
705;1946.81;593.524;1.68999
706;1976.42;571.795;1.68999
707;1983.74;577.654;1.68999
708;1983.74;561.785;1.68999
709;1963.9;609.149;1.68999
710;1926.98;579.608;1.68999
711;1902.26;553.972;1.68999
712;1936.74;621.113;1.68999
713;1966.65;581.561;1.68999
714;1981.3;581.561;1.7
715;1986.18;571.795;1.7
716;1971.53;589.618;1.7
717;1941.93;581.561;1.7
718;1939.49;605.243;1.7
719;1983.74;571.795;1.7
720;2008.46;577.654;1.7
721;2018.23;615.253;1.7
722;2015.79;565.935;1.7
723;1983.74;571.795;1.7
724;1944.37;573.748;1.7
725;1946.81;593.524;1.7
726;1973.98;567.888;1.7
727;1981.3;577.654;1.7
728;1981.3;553.972;1.7
729;1963.9;597.43;1.7
730;1922.09;583.514;1.7
731;1897.37;546.159;1.71
732;1936.74;601.337;1.71
733;1966.65;585.467;1.71
734;1981.3;585.467;1.71
735;1988.62;567.888;1.71
736;1971.53;591.571;1.71
737;1941.93;579.608;1.71
738;1941.93;605.243;1.71
739;1983.74;563.738;1.71
740;2010.9;575.701;1.71
741;2020.97;611.347;1.71
742;2015.79;553.972;1.71
743;1981.3;573.748;1.71
744;1946.81;571.795;1.71
745;1949.26;591.571;1.71
746;1976.42;567.888;1.71
747;1983.74;577.654;1.72
748;1983.74;553.972;1.72
749;1961.46;605.243;1.72
750;1924.54;583.514;1.72
751;1899.82;550.066;1.72
752;1936.74;609.149;1.72
753;1969.09;583.514;1.72
754;1981.3;583.514;1.72
755;1988.62;567.888;1.72
756;1971.53;589.618;1.72
757;1939.49;581.561;1.72
758;1939.49;601.337;1.72
759;1986.18;553.972;1.72
760;2010.9;577.654;1.72
761;2020.97;611.347;1.72
762;2015.79;546.159;1.72
763;1983.74;575.701;1.72
764;1946.81;571.795;1.73
765;1949.26;591.571;1.73
766;1976.42;567.888;1.73
767;1981.3;577.654;1.73
768;1981.3;559.832;1.73
769;1961.46;607.196;1.73
770;1924.54;579.608;1.73
771;1899.82;552.019;1.73
772;1939.49;619.16;1.73
773;1969.09;581.561;1.73
774;1983.74;579.608;1.73
775;1988.62;567.888;1.73
776;1971.53;589.618;1.73
777;1941.93;579.608;1.73
778;1944.37;599.384;1.73
779;1986.18;555.925;1.73
780;2010.9;577.654;1.74
781;2020.97;611.347;1.74
782;2015.79;548.112;1.74
783;1978.86;573.748;1.74
784;1946.81;571.795;1.74
785;1949.26;593.524;1.74
786;1976.42;565.935;1.74
787;1981.3;575.701;1.74
788;1981.3;555.925;1.74
789;1971.53;607.196;1.74
790;1941.93;579.608;1.74
791;1902.26;548.112;1.74
792;1919.65;611.347;1.74
793;1959.02;581.561;1.74
794;1978.86;583.514;1.74
795;1986.18;565.935;1.74
796;1978.86;589.618;1.75
797;1951.7;579.608;1.75
798;1931.86;603.29;1.75
799;1971.53;552.019;1.75
800;2006.02;577.654;1.75
801;2018.23;607.196;1.75
802;2020.97;544.206;1.75
803;1996.25;577.654;1.75
804;1956.58;575.701;1.75
805;1941.93;589.618;1.75
806;1969.09;569.842;1.75
807;1981.3;577.654;1.75
808;1986.18;561.785;1.75
809;1976.42;603.29;1.75
810;1939.49;579.608;1.75
811;1904.7;546.159;1.75
812;1919.65;593.524;1.75999
813;1961.46;589.618;1.75999
814;1978.86;585.467;1.75999
815;1986.18;567.888;1.75999
816;1978.86;591.571;1.75999
817;1949.26;583.514;1.75999
818;1934.3;603.29;1.75999
819;1971.53;569.842;1.75999
820;2006.02;575.701;1.75999
821;2020.97;613.3;1.75999
822;2020.97;559.832;1.75999
823;1998.7;573.748;1.75999
824;1959.02;569.842;1.75999
825;1944.37;587.42;1.75999
826;1969.09;567.888;1.75999
827;1983.74;573.748;1.75999
828;1986.18;552.019;1.75999
829;1973.98;597.43;1.77
830;1936.74;583.514;1.77
831;1904.7;546.159;1.77
832;1922.09;601.337;1.77
833;1963.9;583.514;1.77
834;1981.3;583.514;1.77
835;1988.62;565.935;1.77
836;1981.3;591.571;1.77
837;1954.14;579.608;1.77
838;1934.3;603.29;1.77
839;1976.42;559.832;1.77
840;2008.46;571.795;1.77
841;2018.23;613.3;1.77
842;2020.97;550.066;1.77
843;1998.7;575.701;1.77
844;1956.58;569.842;1.77
845;1941.93;589.618;1.78
846;1969.09;563.738;1.78
847;1981.3;577.654;1.78
848;1983.74;553.972;1.78
849;1971.53;603.29;1.78
850;1936.74;579.608;1.78
851;1902.26;546.159;1.78
852;1922.09;609.149;1.78
853;1963.9;579.608;1.78
854;1976.42;583.514;1.78
855;1988.62;567.888;1.78
856;1978.86;589.618;1.78
857;1949.26;577.654;1.78
858;1931.86;599.384;1.78
859;1971.53;550.066;1.78
860;2006.02;577.654;1.78
861;2023.42;607.196;1.79
862;2020.97;542.009;1.79
863;1996.25;575.701;1.79
864;1956.58;573.748;1.79
865;1944.37;589.618;1.79
866;1971.53;567.888;1.79
867;1983.74;575.701;1.79
868;1986.18;557.878;1.79
869;1973.98;607.196;1.79
870;1939.49;579.608;1.79
871;1902.26;552.019;1.79
872;1924.54;617.206;1.79
873;1966.65;589.618;1.79
874;1978.86;583.514;1.79
875;1988.62;565.935;1.79
876;1981.3;589.618;1.79
877;1951.7;581.561;1.79
878;1936.74;603.29;1.8
879;1973.98;569.842;1.8
880;2006.02;573.748;1.8
881;2020.97;609.149;1.8
882;2020.97;559.832;1.8
883;1996.25;569.842;1.8
884;1956.58;569.842;1.8
885;1944.37;587.42;1.8
886;1971.53;565.935;1.8
887;1981.3;575.701;1.8
888;1986.18;552.019;1.8
889;1973.98;593.524;1.8
890;1936.74;583.514;1.8
891;1904.7;544.206;1.8
892;1924.54;595.477;1.8
893;1963.9;585.467;1.8
894;1978.86;583.514;1.81
895;1986.18;565.935;1.81
896;1973.98;589.618;1.81
897;1946.81;577.654;1.81
898;1936.74;601.337;1.81
899;1973.98;561.785;1.81
900;2006.02;573.748;1.81
901;2020.97;609.149;1.81
902;2023.42;552.019;1.81
903;1993.81;573.748;1.81
904;1954.14;567.888;1.81
905;1944.37;587.42;1.81
906;1969.09;565.935;1.81
907;1978.86;571.795;1.81
908;1981.3;553.972;1.81
909;1969.09;601.337;1.81
910;1931.86;579.608;1.82
911;1899.82;546.159;1.82
912;1922.09;605.243;1.82
913;1963.9;579.608;1.82
914;1981.3;583.514;1.82
915;1986.18;565.935;1.82
916;1976.42;585.467;1.82
917;1949.26;575.701;1.82
918;1934.3;601.337;1.82
919;1973.98;553.972;1.82
920;2003.58;573.748;1.82
921;2018.23;609.149;1.82
922;2018.23;542.009;1.82
923;1991.07;571.795;1.82
924;1954.14;571.795;1.82
925;1944.37;587.42;1.82
926;1969.09;565.935;1.82999
927;1978.86;575.701;1.82999
928;1983.74;555.925;1.82999
929;1969.09;603.29;1.82999
930;1931.86;577.654;1.82999
931;1899.82;548.112;1.82999
932;1922.09;615.253;1.82999
933;1961.46;579.608;1.82999
934;1976.42;579.608;1.82999
935;1986.18;565.935;1.82999
936;1971.53;589.618;1.82999
937;1944.37;577.654;1.82999
938;1931.86;603.29;1.82999
939;1971.53;555.925;1.82999
940;2008.46;573.748;1.82999
941;2018.23;609.149;1.82999
942;2015.79;550.066;1.82999
943;1991.07;571.795;1.84
944;1951.7;567.888;1.84
945;1941.93;587.42;1.84
946;1969.09;561.785;1.84
947;1978.86;573.748;1.84
948;1981.3;552.019;1.84
949;1966.65;603.29;1.84
950;1931.86;579.608;1.84
951;1899.82;546.159;1.84
952;1924.54;607.196;1.84
953;1961.46;579.608;1.84
954;1976.42;579.608;1.84
955;1983.74;565.935;1.84
956;1973.98;587.42;1.84
957;1946.81;577.654;1.84
958;1931.86;599.384;1.84
959;1976.42;550.066;1.84
960;2003.58;573.748;1.85
961;2015.79;607.196;1.85
962;2018.23;542.009;1.85
963;1988.62;573.748;1.85
964;1949.26;571.795;1.85
965;1944.37;589.618;1.85
966;1969.09;569.842;1.85
967;1978.86;573.748;1.85
968;1983.74;552.019;1.85
969;1966.65;587.42;1.85
970;1929.42;583.514;1.85
971;1897.37;546.159;1.85
972;1924.54;589.618;1.85
973;1961.46;587.42;1.85
974;1978.86;581.561;1.85
975;1986.18;563.738;1.85
976;1969.09;587.42;1.85
977;1944.37;577.654;1.86
978;1931.86;601.337;1.86
979;1971.53;569.842;1.86
980;2003.58;569.842;1.86
981;2015.79;609.149;1.86
982;2015.79;559.832;1.86
983;1988.62;569.842;1.86
984;1951.7;567.888;1.86
985;1941.93;585.467;1.86
986;1971.53;563.738;1.86
987;1978.86;575.701;1.86
988;1978.86;548.112;1.86
989;1966.65;595.477;1.86
990;1929.42;579.608;1.86
991;1899.82;542.009;1.86
992;1924.54;597.43;1.86
993;1959.02;583.514;1.86
994;1976.42;581.561;1.87
995;1981.3;565.935;1.87
996;1971.53;589.618;1.87
997;1941.93;577.654;1.87
998;1931.86;601.337;1.87
999;1973.98;557.878;1.87
1000;2006.02;571.795;1.87
1001;2015.79;609.149;1.87
1002;2015.79;552.019;1.87
1003;1986.18;571.795;1.87
1004;1946.81;567.888;1.87
1005;1944.37;587.42;1.87
1006;1969.09;561.785;1.87
1007;1978.86;573.748;1.87
1008;1978.86;552.019;1.87
1009;1963.9;603.29;1.87
1010;1926.98;579.608;1.87
1011;1897.37;542.009;1.88
1012;1924.54;609.149;1.88
1013;1961.46;579.608;1.88
1014;1978.86;581.561;1.88
1015;1986.18;565.935;1.88
1016;1973.98;589.618;1.88
1017;1941.93;575.701;1.88
1018;1934.3;597.43;1.88
1019;1976.42;552.019;1.88
1020;2008.46;573.748;1.88
1021;2018.23;607.196;1.88
1022;2015.79;542.009;1.88
1023;1988.62;573.748;1.88
1024;1949.26;569.842;1.88
1025;1941.93;587.42;1.88
1026;1971.53;565.935;1.88
1027;1981.3;575.701;1.88
1028;1978.86;550.066;1.89
1029;1963.9;585.467;1.89
1030;1926.98;583.514;1.89
1031;1894.93;546.159;1.89
1032;1926.98;585.467;1.89
1033;1961.46;589.618;1.89
1034;1978.86;579.608;1.89
1035;1986.18;563.738;1.89
1036;1971.53;587.42;1.89
1037;1941.93;579.608;1.89
1038;1934.3;599.384;1.89
1039;1976.42;565.935;1.89
1040;2003.58;567.888;1.89
1041;2015.79;605.243;1.89
1042;2015.79;561.785;1.89
1043;1983.74;567.888;1.89
1044;1949.26;565.935;1.89
1045;1941.93;585.467;1.89999
1046;1971.53;563.738;1.89999
1047;1981.3;571.795;1.89999
1048;1981.3;548.112;1.89999
1049;1966.65;589.618;1.89999
1050;1926.98;581.561;1.89999
1051;1897.37;542.009;1.89999
1052;1926.98;595.477;1.89999
1053;1963.9;583.514;1.89999
1054;1978.86;581.561;1.89999
1055;1983.74;561.785;1.89999
1056;1971.53;587.42;1.89999
1057;1941.93;575.701;1.89999
1058;1936.74;601.337;1.89999
1059;1978.86;557.878;1.89999
1060;2008.46;569.842;1.89999
1061;2020.97;609.149;1.91
1062;2018.23;552.019;1.91
1063;1986.18;569.842;1.91
1064;1949.26;569.842;1.91
1065;1946.81;585.467;1.91
1066;1969.09;565.935;1.91
1067;1983.74;573.748;1.91
1068;1983.74;550.066;1.91
1069;1966.65;599.384;1.91
1070;1929.42;579.608;1.91
1071;1899.82;544.206;1.91
1072;1929.42;603.29;1.91
1073;1963.9;579.608;1.91
1074;1978.86;579.608;1.91
1075;1986.18;563.738;1.91
1076;1971.53;587.42;1.91
1077;1941.93;575.701;1.91
1078;1934.3;601.337;1.92
1079;1981.3;552.019;1.92
1080;2006.02;573.748;1.92
1081;2018.23;607.196;1.92
1082;2013.34;542.009;1.92
1083;1983.74;571.795;1.92
1084;1949.26;571.795;1.92
1085;1946.81;587.42;1.92
1086;1973.98;565.935;1.92
1087;1981.3;573.748;1.92
1088;1986.18;553.972;1.92
1089;1966.65;603.29;1.92
1090;1926.98;579.608;1.92
1091;1902.26;542.009;1.92
1092;1931.86;597.43;1.92
1093;1966.65;579.608;1.92
1094;1981.3;583.514;1.92
1095;1986.18;563.738;1.93
1096;1973.98;587.42;1.93
1097;1944.37;575.701;1.93
1098;1939.49;601.337;1.93
1099;1981.3;553.972;1.93
1100;2008.46;571.795;1.93
1101;2020.97;607.196;1.93
1102;2013.34;546.159;1.93
1103;1986.18;571.795;1.93
1104;1946.81;569.842;1.93
1105;1946.81;585.467;1.93
1106;1973.98;563.738;1.93
1107;1983.74;573.748;1.93
1108;1986.18;552.019;1.93
1109;1966.65;601.337;1.93
1110;1929.42;577.654;1.93
1111;1902.26;542.009;1.93
1112;1936.74;607.196;1.93
1113;1971.53;575.701;1.93999
1114;1983.74;579.608;1.93999
1115;1993.81;561.785;1.93999
1116;1976.42;587.42;1.93999
1117;1946.81;575.701;1.93999
1118;1941.93;601.337;1.93999
1119;1986.18;548.112;1.93999
1120;2013.34;573.748;1.93999
1121;2023.42;603.29;1.93999
1122;2018.23;567.888;1.93999
1123;1988.62;563.738;1.93999
1124;1951.7;569.842;1.93999
1125;1951.7;583.514;1.93999
1126;1981.3;567.888;1.93999
1127;1986.18;573.748;1.93999
1128;1988.62;550.066;1.93999
1129;1969.09;583.514;1.93999
1130;1929.42;581.561;1.93999
1131;1904.7;544.206;1.95
1132;1939.49;589.618;1.95
1133;1973.98;585.467;1.95
1134;1983.74;579.608;1.95
1135;1993.81;563.738;1.95
1136;1981.3;585.467;1.95
1137;1951.7;577.654;1.95
1138;1939.49;601.337;1.95
1139;1981.3;567.888;1.95
1140;2008.46;567.888;1.95
1141;2025.86;607.196;1.95
1142;2023.42;557.878;1.95
1143;1996.25;565.935;1.95
1144;1959.02;565.935;1.95
1145;1949.26;585.467;1.95
1146;1973.98;561.785;1.95
1147;1986.18;571.795;1.95
1148;1988.62;550.066;1.95
1149;1976.42;593.524;1.96
1150;1939.49;579.608;1.96
1151;1907.14;542.009;1.96
1152;1931.86;595.477;1.96
1153;1969.09;581.561;1.96
1154;1986.18;579.608;1.96
1155;1993.81;561.785;1.96
1156;1983.74;587.42;1.96
1157;1951.7;573.748;1.96
1158;1941.93;599.384;1.96
1159;1983.74;553.972;1.96
1160;2015.79;571.795;1.96
1161;2025.86;607.196;1.96
1162;2028.3;550.066;1.96
1163;1998.7;567.888;1.96
1164;1961.46;569.842;1.96
1165;1954.14;581.561;1.96
1166;1978.86;561.785;1.97
1167;1988.62;569.842;1.97
1168;1991.07;552.019;1.97
1169;1976.42;599.384;1.97
1170;1941.93;577.654;1.97
1171;1907.14;544.206;1.97
1172;1931.86;605.243;1.97
1173;1971.53;577.654;1.97
1174;1986.18;581.561;1.97
1175;1993.81;561.785;1.97
1176;1983.74;587.42;1.97
1177;1954.14;573.748;1.97
1178;1939.49;599.384;1.97
1179;1983.74;550.066;1.97
1180;2015.79;571.795;1.97
1181;2025.86;605.243;1.97
1182;2028.3;540.056;1.97
1183;1998.7;561.785;1.98
1184;1959.02;567.888;1.98
1185;1954.14;583.514;1.98
1186;1981.3;569.842;1.98
1187;1991.07;569.842;1.98
1188;1991.07;550.066;1.98
1189;1978.86;581.561;1.98
1190;1936.74;581.561;1.98
1191;1907.14;542.009;1.98
1192;1939.49;585.467;1.98
1193;1976.42;587.42;1.98
1194;1991.07;579.608;1.98
1195;1993.81;563.738;1.98
1196;1986.18;583.514;1.98
1197;1956.58;575.701;1.98
1198;1949.26;599.384;1.98
1199;1991.07;565.935;1.98
1200;2020.97;567.888;1.99
1201;2033.18;605.243;1.99
1202;2030.74;557.878;1.99
1203;2003.58;567.888;1.99
1204;1966.65;565.935;1.99
1205;1959.02;585.467;1.99
1206;1986.18;561.785;1.99
1207;1996.25;569.842;1.99
1208;1998.7;548.112;1.99
1209;1981.3;589.618;1.99
1210;1944.37;579.608;1.99
1211;1914.77;544.206;1.99
1212;1944.37;595.477;1.99
1213;1978.86;581.561;1.99
1214;1996.25;579.608;1.99
1215;2003.58;561.785;1.99
1216;1988.62;587.42;1.99
1217;1961.46;573.748;2
1218;1946.81;599.384;2
1219;1991.07;559.832;2
1220;2020.97;571.795;2
1221;2033.18;607.196;2
1222;2030.74;550.066;2
1223;2001.14;569.842;2
1224;1963.9;567.888;2
1225;1959.02;583.514;2
1226;1988.62;561.785;2
1227;1996.25;573.748;2
1228;1998.7;548.112;2
1229;1983.74;599.384;2
1230;1944.37;577.654;2
1231;1914.77;540.056;2
1232;1944.37;603.29;2
1233;1981.3;577.654;2
1234;1996.25;577.654;2.00999
1235;2003.58;561.785;2.00999
1236;1988.62;585.467;2.00999
1237;1959.02;573.748;2.00999
1238;1951.7;599.384;2.00999
1239;1996.25;550.066;2.00999
1240;2023.42;571.795;2.00999
1241;2035.62;605.243;2.00999
1242;2035.62;542.009;2.00999
1243;2006.02;571.795;2.00999
1244;1966.65;565.935;2.00999
1245;1961.46;585.467;2.00999
1246;1986.18;559.832;2.00999
1247;1998.7;571.795;2.00999
1248;1998.7;548.112;2.00999
1249;1986.18;593.524;2.00999
1250;1946.81;579.608;2.02
1251;1917.21;544.206;2.02
1252;1949.26;597.43;2.02
1253;1986.18;579.608;2.02
1254;1998.7;577.654;2.02
1255;2008.46;559.832;2.02
1256;1996.25;585.467;2.02
1257;1963.9;575.701;2.02
1258;1954.14;601.337;2.02
1259;1998.7;553.972;2.02
1260;2028.3;573.748;2.02
1261;2040.51;609.149;2.02
1262;2038.06;546.159;2.02
1263;2008.46;569.842;2.02
1264;1969.09;567.888;2.02
1265;1966.65;587.42;2.02
1266;1991.07;561.785;2.03
1267;2003.58;573.748;2.03
1268;2003.58;552.019;2.03
1269;1988.62;603.29;2.03
1270;1951.7;577.654;2.03
1271;1919.65;542.009;2.03
1272;1951.7;607.196;2.03
1273;1986.18;577.654;2.03
1274;2003.58;577.654;2.03
1275;2010.9;563.738;2.03
1276;1993.81;577.654;2.03
1277;1966.65;573.748;2.03
1278;1956.58;597.43;2.03
1279;2006.02;573.748;2.03
1280;2033.18;565.935;2.03
1281;2048.14;603.29;2.03
1282;2040.51;565.935;2.04
1283;2010.9;563.738;2.04
1284;1971.53;567.888;2.04
1285;1971.53;583.514;2.04
1286;1998.7;569.842;2.04
1287;2006.02;571.795;2.04
1288;2008.46;548.112;2.04
1289;1991.07;583.514;2.04
1290;1954.14;577.654;2.04
1291;1924.54;544.206;2.04
1292;1956.58;587.42;2.04
1293;1991.07;585.467;2.04
1294;2008.46;579.608;2.04
1295;2010.9;563.738;2.04
1296;1998.7;583.514;2.04
1297;1969.09;575.701;2.04
1298;1961.46;597.43;2.05
1299;2006.02;565.935;2.05
1300;2035.62;567.888;2.05
1301;2045.39;607.196;2.05
1302;2045.39;553.972;2.05
1303;2013.34;567.888;2.05
1304;1976.42;565.935;2.05
1305;1971.53;585.467;2.05
1306;2001.14;561.785;2.05
1307;2006.02;569.842;2.05
1308;2010.9;546.159;2.05
1309;2003.58;591.571;2.05
1310;1969.09;577.654;2.05
1311;1931.86;540.056;2.05
1312;1941.93;595.477;2.05
1313;1986.18;579.608;2.06
1314;2006.02;579.608;2.06
1315;2018.23;561.785;2.06
1316;2010.9;587.42;2.06
1317;1986.18;575.701;2.06
1318;1961.46;601.337;2.06
1319;1993.81;553.972;2.06
1320;2030.74;569.842;2.06
1321;2045.39;611.347;2.06
1322;2053.02;548.112;2.06
1323;2030.74;569.842;2.06
1324;1988.62;565.935;2.06
1325;1969.09;585.467;2.06
1326;1998.7;563.738;2.06
1327;2010.9;573.748;2.06
1328;2018.23;550.066;2.06
1329;2008.46;599.384;2.07
1330;1976.42;575.701;2.07
1331;1934.3;542.009;2.07
1332;1946.81;605.243;2.07
1333;1991.07;579.608;2.07
1334;2010.9;577.654;2.07
1335;2018.23;561.785;2.07
1336;2015.79;587.42;2.07
1337;1986.18;573.748;2.07
1338;1966.65;597.43;2.07
1339;1996.25;571.795;2.07
1340;2033.18;567.888;2.07
1341;2050.58;601.337;2.07
1342;2055.46;567.888;2.07
1343;2035.62;559.832;2.07
1344;1996.25;567.888;2.07999
1345;1973.98;583.514;2.07999
1346;2001.14;569.842;2.07999
1347;2018.23;569.842;2.07999
1348;2020.97;550.066;2.07999
1349;2010.9;581.561;2.07999
1350;1978.86;579.608;2.07999
1351;1941.93;544.206;2.07999
1352;1949.26;585.467;2.07999
1353;1996.25;585.467;2.07999
1354;2015.79;577.654;2.07999
1355;2025.86;561.785;2.07999
1356;2018.23;585.467;2.07999
1357;1991.07;575.701;2.07999
1358;1969.09;599.384;2.07999
1359;2003.58;565.935;2.07999
1360;2042.95;567.888;2.09
1361;2057.9;605.243;2.09
1362;2060.34;557.878;2.09
1363;2038.06;563.738;2.09
1364;1998.7;565.935;2.09
1365;1978.86;585.467;2.09
1366;2003.58;559.832;2.09
1367;2023.42;569.842;2.09
1368;2025.86;550.066;2.09
1369;2015.79;587.42;2.09
1370;1981.3;577.654;2.09
1371;1941.93;538.102;2.09
1372;1956.58;597.43;2.09
1373;1998.7;581.561;2.09
1374;2020.97;577.654;2.09
1375;2028.3;561.785;2.1
1376;2025.86;587.42;2.1
1377;1996.25;573.748;2.1
1378;1973.98;601.337;2.1
1379;2010.9;557.878;2.1
1380;2048.14;569.842;2.1
1381;2062.78;607.196;2.1
1382;2065.23;548.112;2.1
1383;2045.39;567.888;2.1
1384;2006.02;567.888;2.1
1385;1986.18;585.467;2.1
1386;2013.34;561.785;2.1
1387;2030.74;573.748;2.1
1388;2033.18;548.112;2.1
1389;2025.86;599.384;2.1
1390;1988.62;579.608;2.1
1391;1949.26;538.102;2.11
1392;1963.9;601.337;2.11
1393;2008.46;577.654;2.11
1394;2028.3;579.608;2.11
1395;2040.51;561.785;2.11
1396;2033.18;587.42;2.11
1397;2003.58;571.795;2.11
1398;1978.86;599.384;2.11
1399;2018.23;567.888;2.11
1400;2053.02;569.842;2.11
1401;2065.23;607.196;2.11
1402;2072.55;555.925;2.11
1403;2048.14;565.935;2.11
1404;2006.02;563.738;2.11
1405;1991.07;585.467;2.12
1406;2015.79;561.785;2.12
1407;2033.18;569.842;2.12
1408;2038.06;550.066;2.12
1409;2025.86;591.571;2.12
1410;1991.07;577.654;2.12
1411;1951.7;538.102;2.12
1412;1966.65;595.477;2.12
1413;2013.34;581.561;2.12
1414;2028.3;577.654;2.12
1415;2038.06;559.832;2.12
1416;2033.18;587.42;2.12
1417;2003.58;571.795;2.12
1418;1983.74;599.384;2.12
1419;2020.97;553.972;2.12
1420;2057.9;569.842;2.12
1421;2072.55;605.243;2.13
1422;2075.3;546.159;2.13
1423;2053.02;569.842;2.13
1424;2010.9;565.935;2.13
1425;1993.81;585.467;2.13
1426;2020.97;561.785;2.13
1427;2038.06;569.842;2.13
1428;2038.06;550.066;2.13
1429;2030.74;599.384;2.13
1430;1996.25;581.561;2.13
1431;1956.58;544.206;2.13
1432;1973.98;577.654;2.13
1433;2018.23;593.524;2.13
1434;2035.62;575.701;2.13
1435;2045.39;563.738;2.13
1436;2038.06;575.701;2.14
1437;2010.9;573.748;2.14
1438;1988.62;595.477;2.14
1439;2028.3;569.842;2.14
1440;2065.23;565.935;2.14
1441;2080.18;601.337;2.14
1442;2080.18;567.888;2.14
1443;2057.9;561.785;2.14
1444;2018.23;567.888;2.14
1445;2003.58;583.514;2.14
1446;2030.74;563.738;2.14
1447;2042.95;569.842;2.14
1448;2045.39;548.112;2.14
1449;2035.62;583.514;2.14
1450;1998.7;579.608;2.14
1451;1959.02;540.056;2.14999
1452;1981.3;585.467;2.14999
1453;2023.42;585.467;2.14999
1454;2040.51;579.608;2.14999
1455;2050.58;559.832;2.14999
1456;2040.51;585.467;2.14999
1457;2013.34;577.654;2.14999
1458;1993.81;599.384;2.14999
1459;2033.18;563.738;2.14999
1460;2067.67;567.888;2.14999
1461;2082.62;607.196;2.14999
1462;2085.06;555.925;2.14999
1463;2057.9;565.935;2.14999
1464;2020.97;565.935;2.14999
1465;2006.02;585.467;2.14999
1466;2030.74;559.832;2.16
1467;2045.39;569.842;2.16
1468;2050.58;548.112;2.16
1469;2040.51;593.524;2.16
1470;2003.58;579.608;2.16
1471;1966.65;538.102;2.16
1472;1986.18;595.477;2.16
1473;2030.74;579.608;2.16
1474;2048.14;577.654;2.16
1475;2053.02;559.832;2.16
1476;2050.58;585.467;2.16
1477;2015.79;573.748;2.16
1478;1998.7;599.384;2.16
1479;2038.06;553.972;2.16
1480;2072.55;569.842;2.16
1481;2087.5;607.196;2.16
1482;2089.95;548.112;2.17
1483;2065.23;569.842;2.17
1484;2023.42;567.888;2.17
1485;2008.46;585.467;2.17
1486;2038.06;561.785;2.17
1487;2050.58;571.795;2.17
1488;2055.46;550.066;2.17
1489;2038.06;599.384;2.17
1490;2003.58;575.701;2.17
1491;1969.09;540.056;2.17
1492;1988.62;575.701;2.17
1493;2033.18;593.524;2.17
1494;2053.02;577.654;2.17
1495;2057.9;561.785;2.17
1496;2050.58;573.748;2.17
1497;2023.42;575.701;2.18
1498;2006.02;597.43;2.18
1499;2045.39;571.795;2.18
1500;2080.18;563.738;2.18
1501;2092.39;599.384;2.18
1502;2094.83;563.738;2.18
1503;2067.67;559.832;2.18
1504;2028.3;567.888;2.18
1505;2013.34;583.514;2.18
1506;2042.95;569.842;2.18
1507;2057.9;567.888;2.18
1508;2057.9;548.112;2.18
1509;2050.58;581.561;2.18
1510;2013.34;579.608;2.18
1511;1973.98;540.056;2.18
1512;1996.25;583.514;2.18999
1513;2040.51;587.42;2.18999
1514;2060.34;577.654;2.18999
1515;2065.23;557.878;2.18999
1516;2057.9;583.514;2.18999
1517;2028.3;575.701;2.18999
1518;2008.46;599.384;2.18999
1519;2050.58;565.935;2.18999
1520;2085.06;567.888;2.18999
1521;2099.71;607.196;2.18999
1522;2099.71;557.878;2.18999
1523;2072.55;561.785;2.18999
1524;2035.62;565.935;2.18999
1525;2023.42;583.514;2.18999
1526;2053.02;559.832;2.18999
1527;2065.23;569.842;2.18999
1528;2067.67;546.159;2.2
1529;2055.46;589.618;2.2
1530;2018.23;575.701;2.2
1531;1981.3;540.056;2.2
1532;2006.02;591.571;2.2
1533;2050.58;581.561;2.2
1534;2065.23;579.608;2.2
1535;2075.3;561.785;2.2
1536;2062.78;585.467;2.2
1537;2030.74;573.748;2.2
1538;2013.34;597.43;2.2
1539;2057.9;555.925;2.2
1540;2089.95;569.842;2.2
1541;2102.46;609.149;2.2
1542;2104.9;550.066;2.2
1543;2077.74;567.888;2.21
1544;2035.62;563.738;2.21
1545;2025.86;585.467;2.21
1546;2057.9;559.832;2.21
1547;2067.67;569.842;2.21
1548;2070.11;548.112;2.21
1549;2057.9;597.43;2.21
1550;2018.23;575.701;2.21
1551;1983.74;538.102;2.21
1552;2006.02;601.337;2.21
1553;2050.58;573.748;2.21
1554;2065.23;577.654;2.21
1555;2072.55;559.832;2.21
1556;2065.23;585.467;2.21
1557;2033.18;575.701;2.21
1558;2015.79;601.337;2.22
1559;2060.34;561.785;2.22
1560;2097.27;567.888;2.22
1561;2109.78;607.196;2.22
1562;2112.22;553.972;2.22
1563;2085.06;565.935;2.22
1564;2042.95;563.738;2.22
1565;2033.18;583.514;2.22
1566;2062.78;561.785;2.22
1567;2075.3;569.842;2.22
1568;2077.74;546.159;2.22
1569;2062.78;593.524;2.22
1570;2025.86;577.654;2.22
1571;1988.62;540.056;2.22
1572;2018.23;595.477;2.23
1573;2057.9;579.608;2.23
1574;2072.55;577.654;2.23
1575;2085.06;559.832;2.23
1576;2067.67;585.467;2.23
1577;2038.06;573.748;2.23
1578;2025.86;599.384;2.23
1579;2067.67;552.019;2.23
1580;2102.46;567.888;2.23
1581;2117.11;605.243;2.23
1582;2114.67;548.112;2.23
1583;2087.5;567.888;2.23
1584;2048.14;567.888;2.23
1585;2038.06;581.561;2.23
1586;2065.23;579.608;2.24
1587;2080.18;569.842;2.24
1588;2080.18;552.019;2.24
1589;2067.67;575.701;2.24
1590;2030.74;581.561;2.24
1591;1993.81;544.206;2.24
1592;2020.97;573.748;2.24
1593;2062.78;591.571;2.24
1594;2080.18;573.748;2.24
1595;2085.06;559.832;2.24
1596;2070.11;575.701;2.24
1597;2042.95;575.701;2.24
1598;2030.74;595.477;2.24
1599;2075.3;567.888;2.24
1600;2104.9;563.738;2.25
1601;2124.43;601.337;2.25
1602;2121.99;565.935;2.25
1603;2089.95;557.878;2.25
1604;2053.02;565.935;2.25
1605;2042.95;583.514;2.25
1606;2075.3;565.935;2.25
1607;2087.5;567.888;2.25
1608;2085.06;548.112;2.25
1609;2075.3;581.561;2.25
1610;2035.62;579.608;2.25
1611;1998.7;540.056;2.25
1612;2030.74;585.467;2.25
1613;2070.11;585.467;2.25
1614;2089.95;579.608;2.25999
1615;2094.83;559.832;2.25999
1616;2080.18;585.467;2.25999
1617;2050.58;573.748;2.25999
1618;2038.06;599.384;2.25999
1619;2082.62;563.738;2.25999
1620;2114.67;565.935;2.25999
1621;2129.62;603.29;2.25999
1622;2126.87;555.925;2.25999
1623;2099.71;563.738;2.25999
1624;2057.9;563.738;2.25999
1625;2050.58;583.514;2.25999
1626;2080.18;559.832;2.25999
1627;2092.39;569.842;2.27
1628;2092.39;546.159;2.27
1629;2080.18;589.618;2.27
1630;2038.06;577.654;2.27
1631;2003.58;538.102;2.27
1632;2033.18;595.477;2.27
1633;2075.3;581.561;2.27
1634;2089.95;577.654;2.27
1635;2097.27;561.785;2.27
1636;2085.06;585.467;2.27
1637;2055.46;571.795;2.27
1638;2042.95;597.43;2.27
1639;2087.5;555.925;2.27
1640;2124.43;569.842;2.27
1641;2134.5;605.243;2.28
1642;2132.06;546.159;2.28
1643;2104.9;565.935;2.28
1644;2065.23;563.738;2.28
1645;2057.9;585.467;2.28
1646;2089.95;559.832;2.28
1647;2099.71;565.935;2.28
1648;2104.9;548.112;2.28
1649;2087.5;573.748;2.28
1650;2048.14;583.514;2.28
1651;2013.34;546.159;2.28
1652;2042.95;571.795;2.28
1653;2085.06;593.524;2.28
1654;2099.71;575.701;2.29
1655;2107.34;559.832;2.29
1656;2099.71;571.795;2.29
1657;2075.3;573.748;2.29
1658;2048.14;595.477;2.29
1659;2075.3;571.795;2.29
1660;2117.11;561.785;2.29
1661;2136.94;597.43;2.29
1662;2141.83;565.935;2.29
1663;2121.99;555.925;2.29
1664;2082.62;565.935;2.29
1665;2055.46;581.561;2.29
1666;2080.18;565.935;2.3
1667;2099.71;567.888;2.3
1668;2104.9;544.206;2.3
1669;2099.71;579.608;2.3
1670;2065.23;579.608;2.3
1671;2025.86;540.056;2.3
