<WeldAnalyseData xmlns:i="http:www.w3.org/2001/XMLSchema-instance">
<WeldParameter>
<TimeStamp>DT#2024-01-24-13:57:27</TimeStamp>
<Generator>SG-22-10000</Generator>
<GenFreq>20</GenFreq>
<MaxForce>8000</MaxForce>
<MaxPower>10000</MaxPower>
<RunupPressure>1.5</RunupPressure>
<RunupDist>10</RunupDist>
<RunPress>0.8</RunPress>
<ShakeDelay>0.03</ShakeDelay>
<ShakeTime>0.3</ShakeTime>
<RunBackPress1>6</RunBackPress1>
<RunBackPress2>2</RunBackPress2>
<RunBackDist>1</RunBackDist>
<TrigValue>500</TrigValue>
<TrigModeUnit>W</TrigModeUnit>
<WeldModeUnit>Ws</WeldModeUnit>
<PressNr>0</PressNr>
<MaxLoss>1500</MaxLoss>
</WeldParameter>
<WeldSets>
<WeldSet>
<PressRiseTime>0</PressRiseTime>
<RunPressure>1</RunPressure>
<Amplitude>86</Amplitude>
<WeldMode>3270</WeldMode>
</WeldSet>
</WeldSets>
<WeldValue>
<WeldNr>2953</WeldNr>
<RecipeName>RickStyle</RecipeName>
<WeldTime>1679</WeldTime>
<DistDiff>2.41</DistDiff>
<DistAbs>78.11</DistAbs>
<Energy>3271.91</Energy>
<MaxPower>2152.81</MaxPower>
<CycleTime>6130</CycleTime>
<TrigForce>500.748</TrigForce>
<TrigDist>75.7</TrigDist>
<RunSpeed>68.5688</RunSpeed>
<MaxForce>619.16</MaxForce>
<LossPower>325.9</LossPower>
</WeldValue>
</WeldAnalyseData>
#CSV-START#
ms;Power[W];Force[N];Distance[mm]
1;0;0;0
2;0;496.597;0
3;0;500.748;0
4;0;498.795;0
5;0;500.748;0
6;0;500.748;0
7;0;498.795;0.0100021
8;0;472.915;0.0100021
9;0;423.597;0.0200043
10;0;403.821;0.0400009
11;0;364.513;0.0699997
12;19.57;358.409;0.110001
13;73.8929;332.774;0.150002
14;145.611;305.185;0.190002
15;219.771;314.951;0.230003
16;281.419;291.269;0.280006
17;330.859;285.409;0.330002
18;390.065;273.69;0.380005
19;449.271;281.503;0.43
20;503.594;291.269;0.480003
21;570.124;301.279;0.520004
22;649.167;289.315;0.560005
23;728.21;314.951;0.590004
24;802.37;330.821;0.620003
25;876.53;309.091;0.650002
26;928.411;338.633;0.670006
27;972.663;352.55;0.68
28;1034.31;374.279;0.690002
29;1093.82;374.279;0.700005
30;1140.51;384.045;0.710007
31;1180.19;384.045;0.720001
32;1204.91;419.691;0.720001
33;1209.79;405.774;0.720001
34;1224.44;392.102;0.730003
35;1273.88;443.373;0.730003
36;1316;413.831;0.740005
37;1348.04;419.691;0.740005
38;1377.64;413.831;0.740005
39;1395.04;427.503;0.75
40;1402.36;427.503;0.75
41;1434.41;439.467;0.760002
42;1493.61;407.971;0.760002
43;1530.85;433.607;0.770004
44;1562.89;447.279;0.770004
45;1582.73;399.915;0.780006
46;1577.54;429.456;0.780006
47;1577.54;433.607;0.790001
48;1604.7;443.373;0.800003
49;1649.26;429.456;0.800003
50;1673.98;427.503;0.810005
51;1696.26;429.456;0.810005
52;1698.7;459.243;0.82
53;1681.3;435.56;0.830002
54;1676.42;427.503;0.830002
55;1728.3;479.019;0.840004
56;1765.23;447.279;0.850006
57;1794.83;445.326;0.850006
58;1814.67;445.326;0.860001
59;1812.23;459.243;0.860001
60;1799.71;469.008;0.870003
61;1824.43;469.008;0.880005
62;1886.39;445.326;0.880005
63;1920.87;475.112;0.889999
64;1948.03;480.972;0.889999
65;1955.36;437.513;0.900002
66;1938.27;469.008;0.900002
67;1915.99;472.915;0.910004
68;1930.64;480.972;0.910004
69;1967.87;469.008;0.910004
70;1987.4;459.243;0.920006
71;1995.03;470.962;0.920006
72;1977.64;492.691;0.93
73;1943.15;469.008;0.93
74;1925.76;470.962;0.940002
75;1972.75;512.467;0.940002
76;2009.68;484.878;0.940002
77;2027.08;479.019;0.950005
78;2034.4;477.065;0.950005
79;2019.75;490.738;0.960007
80;1995.03;504.654;0.960007
81;2007.24;498.795;0.960007
82;2064;475.112;0.970001
83;2093.61;506.607;0.970001
84;2111;500.748;0.980003
85;2108.56;467.055;0.980003
86;2078.96;496.597;0.980003
87;2046.91;504.654;0.990005
88;2056.68;506.607;0.990005
89;2088.73;494.644;1
90;2098.49;498.795;1
91;2101.24;482.925;1
92;2078.96;532.243;1.01
93;2039.29;504.654;1.01
94;2014.57;477.065;1.01
95;2054.24;540.056;1.02
96;2086.28;510.514;1.02
97;2103.68;510.514;1.02
98;2106.12;496.597;1.03001
99;2086.28;518.326;1.03001
100;2056.68;514.42;1.03001
101;2059.12;532.243;1.04
102;2111;486.831;1.04
103;2140.61;510.514;1.04
104;2152.81;540.056;1.05
105;2143.05;475.112;1.05
106;2108.56;508.56;1.05
107;2071.33;508.56;1.06001
108;2076.52;524.43;1.06001
109;2103.68;504.654;1.06001
110;2113.44;506.607;1.06001
111;2113.44;494.644;1.07
112;2088.73;542.009;1.07
113;2044.17;514.42;1.07
114;2017.01;488.784;1.08
115;2054.24;553.972;1.08
116;2083.84;520.524;1.08
117;2098.49;518.326;1.09
118;2098.49;508.56;1.09
119;2081.4;528.336;1.09
120;2049.36;524.43;1.09
121;2056.68;538.102;1.10001
122;2106.12;494.644;1.10001
123;2135.72;526.383;1.10001
124;2150.37;548.112;1.10001
125;2143.05;482.925;1.10001
126;2106.12;520.524;1.11
127;2066.45;522.477;1.11
128;2068.89;532.243;1.11
129;2098.49;516.373;1.11
130;2103.68;518.326;1.12
131;2103.68;508.56;1.12
132;2078.96;550.066;1.12
133;2034.4;522.477;1.13
134;2004.8;504.654;1.13
135;2039.29;565.935;1.13
136;2068.89;526.383;1.13
137;2081.4;526.383;1.13
138;2083.84;520.524;1.14
139;2064;534.196;1.14
140;2027.08;536.149;1.14
141;2029.52;546.159;1.14
142;2078.96;506.607;1.15
143;2111;534.196;1.15
144;2120.77;550.066;1.15
145;2113.44;492.691;1.15
146;2083.84;528.336;1.15
147;2046.91;530.29;1.16
148;2046.91;540.056;1.16
149;2074.08;524.43;1.16
150;2083.84;522.477;1.16
151;2083.84;522.477;1.16
152;2056.68;552.019;1.16
153;2012.12;524.43;1.17001
154;1982.52;514.42;1.17001
155;2017.01;571.795;1.17001
156;2049.36;532.243;1.17001
157;2064;530.29;1.17001
158;2064;528.336;1.18
159;2041.73;538.102;1.18
160;2014.57;546.159;1.18
161;2009.68;548.112;1.18
162;2056.68;516.373;1.18
163;2081.4;546.159;1.19
164;2093.61;552.019;1.19
165;2088.73;504.654;1.19
166;2054.24;534.196;1.19
167;2012.12;542.009;1.19
168;2029.52;548.112;1.19
169;2049.36;532.243;1.2
170;2054.24;524.43;1.2
171;2046.91;530.29;1.2
172;2014.57;555.925;1.2
173;1970.31;528.336;1.2
174;1962.68;524.43;1.2
175;2002.36;575.701;1.21001
176;2024.64;540.056;1.21001
177;2034.4;536.149;1.21001
178;2029.52;536.149;1.21001
179;2002.36;546.159;1.21001
180;1972.75;553.972;1.21001
181;1999.92;552.019;1.22
182;2044.17;524.43;1.22
183;2061.56;553.972;1.22
184;2071.33;557.878;1.22
185;2056.68;514.42;1.22
186;2024.64;540.056;1.23
187;1992.59;548.112;1.23
188;2009.68;550.066;1.23
189;2031.96;538.102;1.23
190;2036.84;526.383;1.23
191;2034.4;538.102;1.23
192;1999.92;559.832;1.23
193;1955.36;530.29;1.24001
194;1945.59;536.149;1.24001
195;1982.52;575.701;1.24001
196;2004.8;546.159;1.24001
197;2017.01;538.102;1.24001
198;2012.12;536.149;1.24001
199;1984.96;550.066;1.25
200;1957.8;563.738;1.25
201;1982.52;553.972;1.25
202;2024.64;530.29;1.25
203;2046.91;565.935;1.25
204;2056.68;553.972;1.25
205;2041.73;522.477;1.26
206;2002.36;546.159;1.26
207;1977.64;555.925;1.26
208;1995.03;557.878;1.26
209;2014.57;544.206;1.26
210;2022.19;544.206;1.26
211;2014.57;530.29;1.26
212;1984.96;577.654;1.27
213;1943.15;550.066;1.27
214;1930.64;522.477;1.27
215;1970.31;583.514;1.27
216;1995.03;553.972;1.27
217;2002.36;553.972;1.27
218;1999.92;540.056;1.27
219;1977.64;559.832;1.28001
220;1948.03;553.972;1.28001
221;1965.43;571.795;1.28001
222;2009.68;524.43;1.28001
223;2031.96;552.019;1.28001
224;2041.73;579.608;1.28001
225;2027.08;514.42;1.28001
226;1989.84;550.066;1.29
227;1962.68;548.112;1.29
228;1980.08;561.785;1.29
229;2004.8;542.009;1.29
230;2007.24;546.159;1.29
231;2004.8;534.196;1.29
232;1977.64;581.561;1.29
233;1930.64;553.972;1.3
234;1918.43;528.336;1.3
235;1960.24;591.571;1.3
236;1980.08;555.925;1.3
237;1992.59;552.019;1.3
238;1987.4;546.159;1.3
239;1965.43;559.832;1.3
240;1938.27;559.832;1.3
241;1955.36;571.795;1.31001
242;2004.8;530.29;1.31001
243;2022.19;557.878;1.31001
244;2034.4;577.654;1.31001
245;2024.64;516.373;1.31001
246;1989.84;552.019;1.31001
247;1960.24;553.972;1.31001
248;1975.2;565.935;1.32
249;1995.03;548.112;1.32
250;2002.36;548.112;1.32
251;1999.92;542.009;1.32
252;1970.31;579.608;1.32
253;1928.2;553.972;1.32
254;1913.55;536.149;1.32
255;1952.92;597.43;1.32
256;1977.64;559.832;1.33
257;1987.4;555.925;1.33
258;1984.96;550.066;1.33
259;1967.87;565.935;1.33
260;1935.52;565.935;1.33
261;1950.48;571.795;1.33
262;1997.47;536.149;1.33
263;2019.75;563.738;1.33
264;2029.52;575.701;1.34
265;2017.01;524.43;1.34
266;1987.4;557.878;1.34
267;1952.92;559.832;1.34
268;1970.31;567.888;1.34
269;1989.84;552.019;1.34
270;1997.47;548.112;1.34
271;1995.03;550.066;1.34
272;1967.87;579.608;1.35001
273;1923.31;555.925;1.35001
274;1908.36;544.206;1.35001
275;1945.59;595.477;1.35001
276;1970.31;561.785;1.35001
277;1980.08;557.878;1.35001
278;1977.64;555.925;1.35001
279;1955.36;567.888;1.35001
280;1925.76;571.795;1.36
281;1940.71;575.701;1.36
282;1987.4;542.009;1.36
283;2007.24;571.795;1.36
284;2019.75;577.654;1.36
285;2007.24;532.243;1.36
286;1977.64;561.785;1.36
287;1940.71;567.888;1.36
288;1955.36;571.795;1.36
289;1980.08;557.878;1.37
290;1989.84;550.066;1.37
291;1987.4;557.878;1.37
292;1957.8;581.561;1.37
293;1915.99;555.925;1.37
294;1898.59;552.019;1.37
295;1935.52;599.384;1.37
296;1957.8;565.935;1.37
297;1970.31;559.832;1.38
298;1967.87;557.878;1.38
299;1940.71;571.795;1.38
300;1915.99;579.608;1.38
301;1940.71;579.608;1.38
302;1984.96;550.066;1.38
303;2002.36;579.608;1.38
304;2014.57;577.654;1.38
305;1999.92;542.009;1.38
306;1965.43;567.888;1.39
307;1938.27;575.701;1.39
308;1957.8;577.654;1.39
309;1977.64;565.935;1.39
310;1982.52;552.019;1.39
311;1975.2;565.935;1.39
312;1948.03;585.467;1.39
313;1903.48;552.019;1.39
314;1898.59;561.785;1.39
315;1938.27;599.384;1.4
316;1960.24;571.795;1.4
317;1970.31;563.738;1.4
318;1967.87;565.935;1.4
319;1943.15;575.701;1.4
320;1915.99;587.42;1.4
321;1940.71;579.608;1.4
322;1984.96;559.832;1.4
323;1999.92;591.571;1.4
324;2009.68;579.608;1.4
325;1999.92;550.066;1.41
326;1962.68;573.748;1.41
327;1938.27;579.608;1.41
328;1955.36;583.514;1.41
329;1977.64;571.795;1.41
330;1982.52;561.785;1.41
331;1977.64;565.935;1.41
332;1948.03;599.384;1.41
333;1905.92;567.888;1.41
334;1901.04;557.878;1.42001
335;1938.27;611.347;1.42001
336;1957.8;577.654;1.42001
337;1967.87;571.795;1.42001
338;1965.43;569.842;1.42001
339;1940.71;581.561;1.42001
340;1913.55;587.42;1.42001
341;1935.52;589.618;1.42001
342;1980.08;557.878;1.42001
343;1997.47;585.467;1.43
344;2009.68;593.524;1.43
345;1997.47;546.159;1.43
346;1965.43;575.701;1.43
347;1935.52;581.561;1.43
348;1952.92;585.467;1.43
349;1972.75;569.842;1.43
350;1977.64;561.785;1.43
351;1972.75;571.795;1.43
352;1940.71;593.524;1.43
353;1905.92;563.738;1.44
354;1893.71;565.935;1.44
355;1933.08;611.347;1.44
356;1955.36;577.654;1.44
357;1965.43;571.795;1.44
358;1962.68;571.795;1.44
359;1943.15;583.514;1.44
360;1913.55;593.524;1.44
361;1933.08;587.42;1.44
362;1980.08;563.738;1.45
363;1999.92;593.524;1.45
364;2007.24;591.571;1.45
365;1999.92;553.972;1.45
366;1965.43;579.608;1.45
367;1938.27;585.467;1.45
368;1952.92;587.42;1.45
369;1972.75;577.654;1.45
370;1977.64;561.785;1.45
371;1975.2;575.701;1.45
372;1945.59;593.524;1.46001
373;1903.48;565.935;1.46001
374;1896.15;571.795;1.46001
375;1933.08;611.347;1.46001
376;1955.36;579.608;1.46001
377;1965.43;573.748;1.46001
378;1965.43;571.795;1.46001
379;1943.15;585.467;1.46001
380;1913.55;597.43;1.46001
381;1935.52;585.467;1.46001
382;1977.64;567.888;1.46001
383;1997.47;599.384;1.47
384;2009.68;585.467;1.47
385;1997.47;555.925;1.47
386;1965.43;579.608;1.47
387;1935.52;589.618;1.47
388;1950.48;589.618;1.47
389;1970.31;577.654;1.47
390;1975.2;559.832;1.47
391;1970.31;561.785;1.47
392;1945.59;609.149;1.47
393;1905.92;581.561;1.47
394;1891.27;553.972;1.48
395;1930.64;617.206;1.48
396;1952.92;585.467;1.48
397;1962.68;583.514;1.48
398;1962.68;573.748;1.48
399;1938.27;591.571;1.48
400;1913.55;583.514;1.48
401;1928.2;605.243;1.48
402;1975.2;553.972;1.48
403;1997.47;581.561;1.48
404;2009.68;607.196;1.49001
405;1999.92;544.206;1.49001
406;1965.43;579.608;1.49001
407;1935.52;579.608;1.49001
408;1950.48;591.571;1.49001
409;1972.75;571.795;1.49001
410;1975.2;575.701;1.49001
411;1972.75;561.785;1.49001
412;1948.03;609.149;1.49001
413;1905.92;581.561;1.49001
414;1891.27;559.832;1.49001
415;1933.08;619.16;1.49001
416;1955.36;585.467;1.5
417;1965.43;581.561;1.5
418;1965.43;571.795;1.5
419;1943.15;593.524;1.5
420;1913.55;587.42;1.5
421;1930.64;597.43;1.5
422;1977.64;559.832;1.5
423;1997.47;583.514;1.5
424;2009.68;603.29;1.5
425;1999.92;546.159;1.5
426;1967.87;577.654;1.5
427;1938.27;581.561;1.5
428;1950.48;591.571;1.51
429;1970.31;573.748;1.51
430;1977.64;573.748;1.51
431;1972.75;569.842;1.51
432;1948.03;605.243;1.51
433;1905.92;577.654;1.51
434;1891.27;561.785;1.51
435;1930.64;617.206;1.51
436;1955.36;583.514;1.51
437;1965.43;579.608;1.51
438;1967.87;575.701;1.51
439;1945.59;587.42;1.51
440;1915.99;591.571;1.52
441;1930.64;595.477;1.52
442;1980.08;561.785;1.52
443;1999.92;589.618;1.52
444;2009.68;599.384;1.52
445;2002.36;546.159;1.52
446;1970.31;579.608;1.52
447;1938.27;581.561;1.52
448;1950.48;591.571;1.52
449;1972.75;575.701;1.52
450;1972.75;569.842;1.52
451;1975.2;571.795;1.52
452;1950.48;601.337;1.53001
453;1911.11;573.748;1.53001
454;1893.71;567.888;1.53001
455;1930.64;617.206;1.53001
456;1957.8;581.561;1.53001
457;1965.43;577.654;1.53001
458;1970.31;575.701;1.53001
459;1948.03;587.42;1.53001
460;1918.43;591.571;1.53001
461;1930.64;593.524;1.53001
462;1977.64;563.738;1.53001
463;1999.92;591.571;1.53001
464;2014.57;595.477;1.54
465;2004.8;552.019;1.54
466;1975.2;577.654;1.54
467;1940.71;583.514;1.54
468;1952.92;591.571;1.54
469;1975.2;575.701;1.54
470;1980.08;565.935;1.54
471;1977.64;575.701;1.54
472;1957.8;599.384;1.54
473;1913.55;569.842;1.54
474;1896.15;569.842;1.54
475;1930.64;613.3;1.54
476;1955.36;581.561;1.54
477;1965.43;575.701;1.55
478;1967.87;577.654;1.55
479;1948.03;585.467;1.55
480;1918.43;595.477;1.55
481;1930.64;591.571;1.55
482;1977.64;565.935;1.55
483;2002.36;595.477;1.55
484;2014.57;593.524;1.55
485;2007.24;555.925;1.55
486;1975.2;579.608;1.55
487;1945.59;589.618;1.55
488;1952.92;591.571;1.55
489;1975.2;575.701;1.55
490;1982.52;561.785;1.56001
491;1980.08;579.608;1.56001
492;1957.8;595.477;1.56001
493;1915.99;563.738;1.56001
494;1896.15;575.701;1.56001
495;1933.08;611.347;1.56001
496;1960.24;581.561;1.56001
497;1970.31;571.795;1.56001
498;1970.31;573.748;1.56001
499;1948.03;585.467;1.56001
500;1923.31;597.43;1.56001
501;1933.08;587.42;1.56001
502;1977.64;569.842;1.56001
503;2002.36;601.337;1.57
504;2012.12;585.467;1.57
505;2004.8;559.832;1.57
506;1972.75;579.608;1.57
507;1943.15;589.618;1.57
508;1950.48;591.571;1.57
509;1972.75;577.654;1.57
510;1982.52;575.701;1.57
511;1982.52;561.785;1.57
512;1957.8;609.149;1.57
513;1915.99;581.561;1.57
514;1896.15;555.925;1.57
515;1930.64;619.16;1.57
516;1955.36;581.561;1.58
517;1965.43;583.514;1.58
518;1970.31;573.748;1.58
519;1945.59;589.618;1.58
520;1920.87;585.467;1.58
521;1925.76;601.337;1.58
522;1975.2;557.878;1.58
523;2002.36;583.514;1.58
524;2014.57;605.243;1.58
525;2004.8;546.159;1.58
526;1977.64;577.654;1.58
527;1943.15;579.608;1.58
528;1950.48;591.571;1.58
529;1975.2;573.748;1.59
530;1982.52;575.701;1.59
531;1982.52;565.935;1.59
532;1960.24;607.196;1.59
533;1920.87;581.561;1.59
534;1896.15;559.832;1.59
535;1930.64;619.16;1.59
536;1955.36;583.514;1.59
537;1965.43;581.561;1.59
538;1967.87;573.748;1.59
539;1948.03;587.42;1.59
540;1920.87;587.42;1.59
541;1930.64;597.43;1.59
542;1972.75;555.925;1.60001
543;2002.36;587.42;1.60001
544;2014.57;601.337;1.60001
545;2009.68;546.159;1.60001
546;1980.08;579.608;1.60001
547;1945.59;581.561;1.60001
548;1950.48;591.571;1.60001
549;1975.2;573.748;1.60001
550;1984.96;573.748;1.60001
551;1982.52;571.795;1.60001
552;1960.24;603.29;1.60001
553;1920.87;577.654;1.60001
554;1896.15;563.738;1.60001
555;1930.64;617.206;1.61
556;1957.8;583.514;1.61
557;1967.87;579.608;1.61
558;1967.87;573.748;1.61
559;1952.92;587.42;1.61
560;1915.99;591.571;1.61
561;1948.03;599.384;1.61
562;1987.4;561.785;1.61
563;2004.8;591.571;1.61
564;2017.01;599.384;1.61
565;1997.47;550.066;1.61
566;1962.68;581.561;1.61
567;1940.71;583.514;1.61
568;1960.24;589.618;1.61
569;1975.2;577.654;1.62
570;1982.52;567.888;1.62
571;1980.08;573.748;1.62
572;1945.59;601.337;1.62
573;1903.48;573.748;1.62
574;1901.04;567.888;1.62
575;1943.15;615.253;1.62
576;1957.8;581.561;1.62
577;1965.43;575.701;1.62
578;1962.68;575.701;1.62
579;1938.27;585.467;1.62
580;1913.55;593.524;1.62
581;1940.71;593.524;1.62
582;1980.08;565.935;1.63
583;2004.8;595.477;1.63
584;2009.68;593.524;1.63
585;1997.47;553.972;1.63
586;1960.24;581.561;1.63
587;1938.27;587.42;1.63
588;1957.8;589.618;1.63
589;1975.2;577.654;1.63
590;1977.64;565.935;1.63
591;1972.75;577.654;1.63
592;1943.15;597.43;1.63
593;1905.92;571.795;1.63
594;1898.59;571.795;1.63
595;1938.27;611.347;1.63
596;1957.8;581.561;1.64
597;1962.68;573.748;1.64
598;1962.68;577.654;1.64
599;1938.27;585.467;1.64
600;1911.11;597.43;1.64
601;1938.27;591.571;1.64
602;1982.52;569.842;1.64
603;2002.36;597.43;1.64
604;2009.68;589.618;1.64
605;1997.47;557.878;1.64
606;1962.68;583.514;1.64
607;1935.52;587.42;1.64
608;1955.36;589.618;1.64
609;1975.2;577.654;1.64
610;1977.64;561.785;1.65
611;1977.64;581.561;1.65
612;1945.59;593.524;1.65
613;1905.92;563.738;1.65
614;1901.04;575.701;1.65
615;1938.27;607.196;1.65
616;1955.36;581.561;1.65
617;1965.43;573.748;1.65
618;1962.68;575.701;1.65
619;1940.71;585.467;1.65
620;1913.55;601.337;1.65
621;1935.52;583.514;1.65
622;1987.4;567.888;1.65
623;2004.8;601.337;1.65
624;2014.57;583.514;1.65
625;1997.47;559.832;1.66
626;1965.43;577.654;1.66
627;1938.27;587.42;1.66
628;1957.8;587.42;1.66
629;1975.2;577.654;1.66
630;1980.08;565.935;1.66
631;1975.2;573.748;1.66
632;1948.03;599.384;1.66
633;1905.92;569.842;1.66
634;1898.59;567.888;1.66
635;1940.71;613.3;1.66
636;1960.24;579.608;1.66
637;1967.87;575.701;1.66
638;1965.43;573.748;1.66
639;1943.15;587.42;1.67001
640;1915.99;595.477;1.67001
641;1935.52;589.618;1.67001
642;1980.08;563.738;1.67001
643;1999.92;593.524;1.67001
644;2009.68;591.571;1.67001
645;1997.47;552.019;1.67001
646;1960.24;577.654;1.67001
647;1938.27;585.467;1.67001
648;1952.92;587.42;1.67001
649;1972.75;575.701;1.67001
650;1977.64;561.785;1.67001
651;1975.2;575.701;1.67001
652;1943.15;595.477;1.67001
653;1905.92;567.888;1.67001
654;1893.71;569.842;1.68
655;1933.08;609.149;1.68
656;1955.36;579.608;1.68
657;1962.68;571.795;1.68
658;1960.24;571.795;1.68
659;1940.71;583.514;1.68
660;1911.11;599.384;1.68
661;1935.52;585.467;1.68
662;1980.08;567.888;1.68
663;1997.47;597.43;1.68
664;2009.68;585.467;1.68
665;1997.47;553.972;1.68
666;1962.68;577.654;1.68
667;1935.52;587.42;1.68
668;1952.92;589.618;1.68
669;1972.75;577.654;1.69
670;1977.64;559.832;1.69
671;1977.64;577.654;1.69
672;1948.03;593.524;1.69
673;1905.92;559.832;1.69
674;1893.71;571.795;1.69
675;1933.08;605.243;1.69
676;1952.92;579.608;1.69
677;1965.43;569.842;1.69
678;1960.24;573.748;1.69
679;1938.27;583.514;1.69
680;1911.11;597.43;1.69
681;1928.2;581.561;1.69
682;1975.2;567.888;1.69
683;1995.03;599.384;1.69
684;2004.8;581.561;1.7
685;1992.59;561.785;1.7
686;1960.24;577.654;1.7
687;1933.08;585.467;1.7
688;1945.59;585.467;1.7
689;1967.87;569.842;1.7
690;1972.75;573.748;1.7
691;1972.75;565.935;1.7
692;1943.15;607.196;1.7
693;1905.92;579.608;1.7
694;1891.27;553.972;1.7
695;1928.2;617.206;1.7
696;1948.03;579.608;1.7
697;1957.8;577.654;1.7
698;1960.24;571.795;1.7
699;1938.27;585.467;1.71001
700;1908.36;583.514;1.71001
701;1925.76;593.524;1.71001
702;1970.31;553.972;1.71001
703;1992.59;579.608;1.71001
704;2004.8;599.384;1.71001
705;1995.03;540.056;1.71001
706;1960.24;577.654;1.71001
707;1933.08;577.654;1.71001
708;1943.15;587.42;1.71001
709;1967.87;569.842;1.71001
710;1972.75;569.842;1.71001
711;1967.87;563.738;1.71001
712;1943.15;599.384;1.71001
713;1903.48;571.795;1.71001
714;1891.27;557.878;1.72
715;1928.2;615.253;1.72
716;1952.92;579.608;1.72
717;1962.68;577.654;1.72
718;1960.24;569.842;1.72
719;1938.27;583.514;1.72
720;1911.11;585.467;1.72
721;1925.76;589.618;1.72
722;1972.75;555.925;1.72
723;1992.59;583.514;1.72
724;2004.8;595.477;1.72
725;1995.03;546.159;1.72
726;1965.43;577.654;1.72
727;1930.64;579.608;1.72
728;1945.59;587.42;1.73
729;1965.43;571.795;1.73
730;1972.75;565.935;1.73
731;1970.31;567.888;1.73
732;1945.59;597.43;1.73
733;1903.48;569.842;1.73
734;1886.39;561.785;1.73
735;1923.31;613.3;1.73
736;1948.03;577.654;1.73
737;1957.8;575.701;1.73
738;1962.68;569.842;1.73
739;1940.71;583.514;1.73
740;1908.36;589.618;1.73
741;1923.31;587.42;1.73
742;1970.31;559.832;1.73
743;1992.59;587.42;1.74001
744;2004.8;593.524;1.74001
745;1995.03;548.112;1.74001
746;1962.68;577.654;1.74001
747;1933.08;583.514;1.74001
748;1943.15;583.514;1.74001
749;1965.43;571.795;1.74001
750;1972.75;563.738;1.74001
751;1972.75;571.795;1.74001
752;1945.59;593.524;1.74001
753;1905.92;565.935;1.74001
754;1891.27;565.935;1.74001
755;1923.31;607.196;1.74001
756;1948.03;575.701;1.74001
757;1957.8;569.842;1.75
758;1960.24;569.842;1.75
759;1938.27;583.514;1.75
760;1908.36;591.571;1.75
761;1925.76;581.561;1.75
762;1970.31;561.785;1.75
763;1989.84;591.571;1.75
764;2002.36;585.467;1.75
765;1995.03;550.066;1.75
766;1965.43;575.701;1.75
767;1935.52;583.514;1.75
768;1945.59;585.467;1.75
769;1967.87;573.748;1.75
770;1970.31;557.878;1.75
771;1972.75;573.748;1.75
772;1948.03;589.618;1.76
773;1908.36;561.785;1.76
774;1891.27;567.888;1.76
775;1925.76;605.243;1.76
776;1950.48;575.701;1.76
777;1962.68;569.842;1.76
778;1962.68;569.842;1.76
779;1943.15;579.608;1.76
780;1913.55;595.477;1.76
781;1925.76;581.561;1.76
782;1970.31;565.935;1.76
783;1995.03;595.477;1.76
784;2004.8;581.561;1.76
785;1999.92;552.019;1.76
786;1967.87;573.748;1.76
787;1935.52;587.42;1.77
788;1945.59;585.467;1.77
789;1970.31;573.748;1.77
790;1975.2;555.925;1.77
791;1972.75;577.654;1.77
792;1948.03;589.618;1.77
793;1908.36;557.878;1.77
794;1888.83;571.795;1.77
795;1925.76;599.384;1.77
796;1948.03;577.654;1.77
797;1960.24;565.935;1.77
798;1962.68;571.795;1.77
799;1940.71;579.608;1.77
800;1913.55;597.43;1.77
801;1923.31;577.654;1.77
802;1970.31;567.888;1.78001
803;1992.59;599.384;1.78001
804;2002.36;575.701;1.78001
805;1997.47;559.832;1.78001
806;1965.43;573.748;1.78001
807;1935.52;583.514;1.78001
808;1943.15;581.561;1.78001
809;1967.87;573.748;1.78001
810;1972.75;567.888;1.78001
811;1975.2;559.832;1.78001
812;1952.92;601.337;1.78001
813;1911.11;575.701;1.78001
814;1891.27;553.972;1.78001
815;1925.76;617.206;1.78001
816;1948.03;577.654;1.78001
817;1960.24;575.701;1.79
818;1962.68;569.842;1.79
819;1945.59;583.514;1.79
820;1913.55;581.561;1.79
821;1920.87;593.524;1.79
822;1980.08;553.972;1.79
823;1997.47;577.654;1.79
824;2007.24;597.43;1.79
825;1989.84;540.056;1.79
826;1955.36;573.748;1.79
827;1933.08;577.654;1.79
828;1955.36;583.514;1.79
829;1970.31;569.842;1.79
830;1975.2;565.935;1.79
831;1965.43;563.738;1.8
832;1933.08;597.43;1.8
833;1896.15;569.842;1.8
834;1896.15;557.878;1.8
835;1933.08;613.3;1.8
836;1952.92;575.701;1.8
837;1962.68;573.748;1.8
838;1957.8;569.842;1.8
839;1935.52;583.514;1.8
840;1908.36;585.467;1.8
841;1938.27;587.42;1.8
842;1977.64;555.925;1.8
843;1995.03;583.514;1.8
844;2002.36;591.571;1.8
845;1987.4;546.159;1.8
846;1955.36;575.701;1.81001
847;1928.2;577.654;1.81001
848;1952.92;585.467;1.81001
849;1970.31;571.795;1.81001
850;1975.2;563.738;1.81001
851;1970.31;565.935;1.81001
852;1940.71;595.477;1.81001
853;1901.04;567.888;1.81001
854;1898.59;559.832;1.81001
855;1938.27;609.149;1.81001
856;1955.36;573.748;1.81001
857;1965.43;569.842;1.81001
858;1960.24;569.842;1.81001
859;1938.27;581.561;1.81001
860;1913.55;589.618;1.81001
861;1940.71;587.42;1.82
862;1984.96;559.832;1.82
863;1999.92;587.42;1.82
864;2012.12;589.618;1.82
865;1995.03;548.112;1.82
866;1957.8;573.748;1.82
867;1938.27;581.561;1.82
868;1957.8;585.467;1.82
869;1975.2;567.888;1.82
870;1982.52;557.878;1.82
871;1975.2;569.842;1.82
872;1943.15;591.571;1.82
873;1903.48;561.785;1.82
874;1898.59;563.738;1.82
875;1938.27;605.243;1.82
876;1955.36;573.748;1.83
877;1967.87;569.842;1.83
878;1960.24;569.842;1.83
879;1938.27;581.561;1.83
880;1913.55;589.618;1.83
881;1938.27;583.514;1.83
882;1982.52;559.832;1.83
883;1999.92;591.571;1.83
884;2007.24;583.514;1.83
885;1995.03;550.066;1.83
886;1957.8;573.748;1.83
887;1933.08;581.561;1.83
888;1952.92;585.467;1.83
889;1970.31;567.888;1.83
890;1977.64;553.972;1.83
891;1970.31;573.748;1.84
892;1940.71;589.618;1.84
893;1898.59;555.925;1.84
894;1896.15;569.842;1.84
895;1935.52;601.337;1.84
896;1952.92;575.701;1.84
897;1962.68;565.935;1.84
898;1960.24;565.935;1.84
899;1938.27;581.561;1.84
900;1913.55;593.524;1.84
901;1935.52;583.514;1.84
902;1980.08;563.738;1.84
903;1997.47;595.477;1.84
904;2007.24;579.608;1.84
905;1992.59;553.972;1.85001
906;1960.24;573.748;1.85001
907;1933.08;583.514;1.85001
908;1952.92;583.514;1.85001
909;1972.75;569.842;1.85001
910;1975.2;552.019;1.85001
911;1972.75;577.654;1.85001
912;1945.59;585.467;1.85001
913;1901.04;552.019;1.85001
914;1893.71;573.748;1.85001
915;1933.08;597.43;1.85001
916;1950.48;575.701;1.85001
917;1965.43;567.888;1.85001
918;1957.8;573.748;1.85001
919;1935.52;577.654;1.85001
920;1908.36;597.43;1.86
921;1935.52;575.701;1.86
922;1977.64;563.738;1.86
923;1997.47;597.43;1.86
924;2004.8;575.701;1.86
925;1995.03;557.878;1.86
926;1960.24;571.795;1.86
927;1933.08;583.514;1.86
928;1950.48;577.654;1.86
929;1972.75;573.748;1.86
930;1975.2;557.878;1.86
931;1972.75;571.795;1.86
932;1943.15;591.571;1.86
933;1903.48;559.832;1.86
934;1893.71;567.888;1.86
935;1935.52;603.29;1.87
936;1955.36;573.748;1.87
937;1962.68;567.888;1.87
938;1960.24;567.888;1.87
939;1940.71;577.654;1.87
940;1911.11;589.618;1.87
941;1933.08;579.608;1.87
942;1977.64;561.785;1.87
943;1999.92;591.571;1.87
944;2004.8;583.514;1.87
945;1995.03;550.066;1.87
946;1962.68;573.748;1.87
947;1935.52;579.608;1.87
948;1952.92;583.514;1.87
949;1972.75;567.888;1.87
950;1975.2;555.925;1.87
951;1972.75;573.748;1.88
952;1943.15;585.467;1.88
953;1898.59;553.972;1.88
954;1901.04;571.795;1.88
955;1943.15;601.337;1.88
956;1957.8;575.701;1.88
957;1970.31;563.738;1.88
958;1960.24;565.935;1.88
959;1933.08;579.608;1.88
960;1911.11;595.477;1.88
961;1945.59;579.608;1.88
962;1984.96;559.832;1.88
963;2002.36;595.477;1.88
964;2007.24;577.654;1.88
965;1992.59;555.925;1.88
966;1957.8;571.795;1.89
967;1935.52;583.514;1.89
968;1957.8;583.514;1.89
969;1972.75;569.842;1.89
970;1975.2;552.019;1.89
971;1967.87;579.608;1.89
972;1935.52;585.467;1.89
973;1896.15;550.066;1.89
974;1898.59;575.701;1.89
975;1938.27;595.477;1.89
976;1957.8;575.701;1.89
977;1965.43;561.785;1.89
978;1960.24;571.795;1.89
979;1935.52;577.654;1.89
980;1911.11;597.43;1.89
981;1940.71;573.748;1.9
982;1982.52;563.738;1.9
983;1999.92;599.384;1.9
984;2009.68;573.748;1.9
985;1992.59;559.832;1.9
986;1957.8;571.795;1.9
987;1938.27;581.561;1.9
988;1960.24;577.654;1.9
989;1975.2;573.748;1.9
990;1977.64;565.935;1.9
991;1972.75;561.785;1.9
992;1940.71;597.43;1.9
993;1901.04;571.795;1.9
994;1901.04;553.972;1.9
995;1940.71;613.3;1.9
996;1955.36;575.701;1.9
997;1965.43;571.795;1.91
998;1960.24;565.935;1.91
999;1935.52;583.514;1.91
1000;1913.55;579.608;1.91
1001;1943.15;589.618;1.91
1002;1980.08;552.019;1.91
1003;1999.92;583.514;1.91
1004;2007.24;593.524;1.91
1005;1992.59;542.009;1.91
1006;1955.36;571.795;1.91
1007;1933.08;577.654;1.91
1008;1957.8;583.514;1.91
1009;1975.2;567.888;1.91
1010;1980.08;561.785;1.91
1011;1972.75;565.935;1.91
1012;1940.71;595.477;1.92001
1013;1903.48;567.888;1.92001
1014;1901.04;555.925;1.92001
1015;1940.71;611.347;1.92001
1016;1957.8;573.748;1.92001
1017;1967.87;569.842;1.92001
1018;1960.24;567.888;1.92001
1019;1938.27;579.608;1.92001
1020;1913.55;585.467;1.92001
1021;1945.59;587.42;1.92001
1022;1984.96;557.878;1.92001
1023;2002.36;583.514;1.92001
1024;2009.68;587.42;1.92001
1025;1995.03;542.009;1.92001
1026;1960.24;571.795;1.92001
1027;1935.52;579.608;1.92001
1028;1957.8;581.561;1.92001
1029;1975.2;571.795;1.93
1030;1982.52;557.878;1.93
1031;1975.2;565.935;1.93
1032;1943.15;591.571;1.93
1033;1905.92;561.785;1.93
1034;1901.04;561.785;1.93
1035;1940.71;607.196;1.93
1036;1957.8;571.795;1.93
1037;1967.87;569.842;1.93
1038;1962.68;563.738;1.93
1039;1938.27;579.608;1.93
1040;1915.99;589.618;1.93
1041;1943.15;583.514;1.93
1042;1984.96;557.878;1.93
1043;2004.8;589.618;1.93
1044;2012.12;585.467;1.93
1045;1999.92;546.159;1.94
1046;1965.43;573.748;1.94
1047;1940.71;579.608;1.94
1048;1960.24;583.514;1.94
1049;1980.08;567.888;1.94
1050;1982.52;555.925;1.94
1051;1975.2;571.795;1.94
1052;1945.59;589.618;1.94
1053;1903.48;555.925;1.94
1054;1898.59;567.888;1.94
1055;1943.15;603.29;1.94
1056;1962.68;573.748;1.94
1057;1970.31;565.935;1.94
1058;1965.43;565.935;1.94
1059;1943.15;579.608;1.94
1060;1918.43;591.571;1.94
1061;1943.15;579.608;1.95
1062;1984.96;561.785;1.95
1063;2002.36;593.524;1.95
1064;2012.12;579.608;1.95
1065;1999.92;552.019;1.95
1066;1965.43;571.795;1.95
1067;1938.27;579.608;1.95
1068;1957.8;583.514;1.95
1069;1977.64;569.842;1.95
1070;1982.52;552.019;1.95
1071;1977.64;573.748;1.95
1072;1948.03;585.467;1.95
1073;1905.92;555.925;1.95
1074;1901.04;573.748;1.95
1075;1938.27;599.384;1.95
1076;1955.36;573.748;1.95
1077;1970.31;565.935;1.96001
1078;1965.43;567.888;1.96001
1079;1940.71;575.701;1.96001
1080;1913.55;593.524;1.96001
1081;1940.71;575.701;1.96001
1082;1984.96;561.785;1.96001
1083;2004.8;597.43;1.96001
1084;2012.12;573.748;1.96001
1085;1999.92;555.925;1.96001
1086;1965.43;569.842;1.96001
1087;1940.71;581.561;1.96001
1088;1957.8;577.654;1.96001
1089;1977.64;569.842;1.96001
1090;1982.52;550.066;1.96001
1091;1977.64;579.608;1.96001
1092;1950.48;583.514;1.96001
1093;1911.11;552.019;1.97
1094;1898.59;575.701;1.97
1095;1940.71;595.477;1.97
1096;1960.24;575.701;1.97
1097;1970.31;561.785;1.97
1098;1967.87;573.748;1.97
1099;1945.59;577.654;1.97
1100;1918.43;595.477;1.97
1101;1940.71;573.748;1.97
1102;1989.84;563.738;1.97
1103;2007.24;599.384;1.97
1104;2019.75;569.842;1.97
1105;2007.24;559.832;1.97
1106;1970.31;567.888;1.97
1107;1945.59;581.561;1.97
1108;1962.68;581.561;1.98
1109;1984.96;565.935;1.98
1110;1987.4;563.738;1.98
1111;1984.96;561.785;1.98
1112;1957.8;597.43;1.98
1113;1915.99;569.842;1.98
1114;1908.36;553.972;1.98
1115;1945.59;609.149;1.98
1116;1967.87;573.748;1.98
1117;1975.2;571.795;1.98
1118;1975.2;563.738;1.98
1119;1952.92;579.608;1.98
1120;1925.76;583.514;1.98
1121;1943.15;587.42;1.98
1122;1989.84;552.019;1.98
1123;2007.24;581.561;1.98
1124;2019.75;587.42;1.99001
1125;2007.24;540.056;1.99001
1126;1972.75;571.795;1.99001
1127;1948.03;575.701;1.99001
1128;1962.68;579.608;1.99001
1129;1984.96;567.888;1.99001
1130;1989.84;559.832;1.99001
1131;1989.84;563.738;1.99001
1132;1960.24;593.524;1.99001
1133;1918.43;563.738;1.99001
1134;1905.92;557.878;1.99001
1135;1945.59;609.149;1.99001
1136;1965.43;573.748;1.99001
1137;1977.64;567.888;1.99001
1138;1977.64;567.888;1.99001
1139;1952.92;579.608;2
1140;1925.76;585.467;2
1141;1940.71;583.514;2
1142;1989.84;555.925;2
1143;2009.68;585.467;2
1144;2019.75;585.467;2
1145;2009.68;546.159;2
1146;1977.64;573.748;2
1147;1945.59;577.654;2
1148;1962.68;583.514;2
1149;1982.52;567.888;2
1150;1987.4;559.832;2
1151;1984.96;565.935;2
1152;1957.8;589.618;2
1153;1918.43;561.785;2
1154;1905.92;561.785;2.01
1155;1945.59;603.29;2.01
1156;1965.43;573.748;2.01
1157;1975.2;565.935;2.01
1158;1975.2;565.935;2.01
1159;1952.92;577.654;2.01
1160;1928.2;589.618;2.01
1161;1943.15;579.608;2.01
1162;1989.84;557.878;2.01
1163;2014.57;587.42;2.01
1164;2024.64;583.514;2.01
1165;2017.01;548.112;2.01
1166;1980.08;571.795;2.01
1167;1952.92;579.608;2.01
1168;1967.87;581.561;2.02
1169;1987.4;569.842;2.02
1170;1992.59;553.972;2.02
1171;1989.84;571.795;2.02
1172;1962.68;587.42;2.02
1173;1923.31;555.925;2.02
1174;1908.36;567.888;2.02
1175;1945.59;601.337;2.02
1176;1970.31;573.748;2.02
1177;1982.52;565.935;2.02
1178;1980.08;561.785;2.02
1179;1957.8;575.701;2.02
1180;1930.64;591.571;2.02
1181;1945.59;577.654;2.02
1182;1992.59;563.738;2.02
1183;2017.01;593.524;2.03001
1184;2027.08;577.654;2.03001
1185;2019.75;552.019;2.03001
1186;1984.96;571.795;2.03001
1187;1952.92;579.608;2.03001
1188;1967.87;581.561;2.03001
1189;1992.59;569.842;2.03001
1190;1997.47;552.019;2.03001
1191;1997.47;573.748;2.03001
1192;1967.87;585.467;2.03001
1193;1925.76;552.019;2.03001
1194;1911.11;569.842;2.03001
1195;1952.92;595.477;2.03001
1196;1972.75;573.748;2.03001
1197;1984.96;563.738;2.04
1198;1984.96;569.842;2.04
1199;1965.43;575.701;2.04
1200;1933.08;597.43;2.04
1201;1950.48;573.748;2.04
1202;1997.47;561.785;2.04
1203;2019.75;597.43;2.04
1204;2031.96;573.748;2.04
1205;2022.19;555.925;2.04
1206;1989.84;571.795;2.04
1207;1962.68;583.514;2.04
1208;1970.31;577.654;2.04
1209;1995.03;571.795;2.04
1210;1999.92;548.112;2.04
1211;1999.92;581.561;2.05
1212;1972.75;581.561;2.05
1213;1918.43;548.112;2.05
1214;1925.76;575.701;2.05
1215;1965.43;591.571;2.05
1216;1982.52;577.654;2.05
1217;1992.59;563.738;2.05
1218;1984.96;575.701;2.05
1219;1957.8;575.701;2.05
1220;1935.52;597.43;2.05
1221;1972.75;569.842;2.05
1222;2009.68;565.935;2.05
1223;2024.64;603.29;2.05
1224;2031.96;567.888;2.05
1225;2012.12;559.832;2.05
1226;1977.64;571.795;2.06001
1227;1957.8;579.608;2.06001
1228;1982.52;579.608;2.06001
1229;1997.47;569.842;2.06001
1230;1999.92;553.972;2.06001
1231;1992.59;573.748;2.06001
1232;1957.8;585.467;2.06001
1233;1918.43;552.019;2.06001
1234;1923.31;567.888;2.06001
1235;1965.43;599.384;2.06001
1236;1977.64;571.795;2.06001
1237;1987.4;565.935;2.06001
1238;1982.52;565.935;2.06001
1239;1955.36;575.701;2.06001
1240;1930.64;595.477;2.07
1241;1967.87;577.654;2.07
1242;2004.8;561.785;2.07
1243;2027.08;595.477;2.07
1244;2031.96;575.701;2.07
1245;2014.57;552.019;2.07
1246;1977.64;569.842;2.07
1247;1957.8;581.561;2.07
1248;1982.52;581.561;2.07
1249;1997.47;569.842;2.07
1250;1999.92;550.066;2.07
1251;1992.59;575.701;2.07
1252;1962.68;583.514;2.07
1253;1918.43;550.066;2.07
1254;1923.31;569.842;2.08
1255;1962.68;595.477;2.08
1256;1982.52;573.748;2.08
1257;1989.84;561.785;2.08
1258;1982.52;569.842;2.08
1259;1960.24;575.701;2.08
1260;1938.27;597.43;2.08
1261;1970.31;573.748;2.08
1262;2012.12;561.785;2.08
1263;2029.52;599.384;2.08
1264;2034.4;569.842;2.08
1265;2019.75;555.925;2.08
1266;1982.52;569.842;2.08
1267;1962.68;581.561;2.08
1268;1987.4;575.701;2.09
1269;2004.8;567.888;2.09
1270;2007.24;550.066;2.09
1271;1999.92;577.654;2.09
1272;1967.87;579.608;2.09
1273;1928.2;546.159;2.09
1274;1930.64;577.654;2.09
1275;1972.75;589.618;2.09
1276;1989.84;575.701;2.09
1277;1999.92;561.785;2.09
1278;1997.47;577.654;2.09
1279;1967.87;573.748;2.09
1280;1943.15;597.43;2.09
1281;1977.64;569.842;2.09
1282;2017.01;563.738;2.10001
1283;2036.84;601.337;2.10001
1284;2044.17;565.935;2.10001
1285;2027.08;557.878;2.10001
1286;1992.59;567.888;2.10001
1287;1970.31;575.701;2.10001
1288;1989.84;579.608;2.10001
1289;2007.24;565.935;2.10001
1290;2012.12;559.832;2.10001
1291;2002.36;563.738;2.10001
1292;1970.31;593.524;2.10001
1293;1930.64;565.935;2.10001
1294;1928.2;553.972;2.10001
1295;1972.75;607.196;2.10001
1296;1989.84;571.795;2.11
1297;1997.47;567.888;2.11
1298;1995.03;565.935;2.11
1299;1965.43;577.654;2.11
1300;1943.15;583.514;2.11
1301;1975.2;585.467;2.11
1302;2017.01;555.925;2.11
1303;2034.4;581.561;2.11
1304;2046.91;585.467;2.11
1305;2029.52;542.009;2.11
1306;1992.59;571.795;2.11
1307;1970.31;575.701;2.11
1308;1995.03;581.561;2.11
1309;2012.12;565.935;2.11
1310;2014.57;557.878;2.12
1311;2007.24;565.935;2.12
1312;1977.64;589.618;2.12
1313;1935.52;561.785;2.12
1314;1935.52;561.785;2.12
1315;1977.64;605.243;2.12
1316;1995.03;571.795;2.12
1317;2007.24;565.935;2.12
1318;1999.92;563.738;2.12
1319;1975.2;577.654;2.12
1320;1948.03;589.618;2.12
1321;1977.64;581.561;2.12
1322;2022.19;555.925;2.12
1323;2041.73;589.618;2.12
1324;2046.91;585.467;2.13
1325;2031.96;546.159;2.13
1326;1997.47;571.795;2.13
1327;1972.75;577.654;2.13
1328;1995.03;581.561;2.13
1329;2009.68;567.888;2.13
1330;2017.01;555.925;2.13
1331;2009.68;569.842;2.13
1332;1977.64;585.467;2.13
1333;1935.52;555.925;2.13
1334;1933.08;565.935;2.13
1335;1975.2;601.337;2.13
1336;1997.47;571.795;2.13
1337;2004.8;563.738;2.13
1338;2002.36;565.935;2.14
1339;1975.2;573.748;2.14
1340;1950.48;593.524;2.14
1341;1977.64;579.608;2.14
1342;2022.19;557.878;2.14
1343;2041.73;591.571;2.14
1344;2051.8;575.701;2.14
1345;2036.84;548.112;2.14
1346;2002.36;571.795;2.14
1347;1975.2;577.654;2.14
1348;1997.47;579.608;2.14
1349;2017.01;569.842;2.14
1350;2019.75;553.972;2.14
1351;2014.57;571.795;2.14
1352;1984.96;585.467;2.15
1353;1945.59;552.019;2.15
1354;1938.27;569.842;2.15
1355;1977.64;597.43;2.15
1356;1999.92;571.795;2.15
1357;2009.68;563.738;2.15
1358;2004.8;565.935;2.15
1359;1980.08;575.701;2.15
1360;1952.92;595.477;2.15
1361;1980.08;573.748;2.15
1362;2027.08;561.785;2.15
1363;2046.91;595.477;2.15
1364;2054.24;569.842;2.15
1365;2041.73;553.972;2.15
1366;2007.24;569.842;2.15
1367;1982.52;581.561;2.16
1368;2002.36;579.608;2.16
1369;2019.75;569.842;2.16
1370;2024.64;550.066;2.16
1371;2022.19;575.701;2.16
1372;1987.4;583.514;2.16
1373;1948.03;548.112;2.16
1374;1940.71;573.748;2.16
1375;1980.08;591.571;2.16
1376;2002.36;573.748;2.16
1377;2012.12;563.738;2.16
1378;2007.24;575.701;2.16
1379;1982.52;575.701;2.16
1380;1955.36;597.43;2.16
1381;1980.08;571.795;2.17001
1382;2027.08;563.738;2.17001
1383;2046.91;599.384;2.17001
1384;2056.68;569.842;2.17001
1385;2044.17;555.925;2.17001
1386;2009.68;567.888;2.17001
1387;1982.52;583.514;2.17001
1388;2002.36;573.748;2.17001
1389;2024.64;569.842;2.17001
1390;2027.08;548.112;2.17001
1391;2019.75;579.608;2.17001
1392;1992.59;579.608;2.17001
1393;1950.48;544.206;2.17001
1394;1943.15;579.608;2.17001
1395;1987.4;587.42;2.18
1396;2009.68;579.608;2.18
1397;2019.75;561.785;2.18
1398;2017.01;577.654;2.18
1399;1992.59;575.701;2.18
1400;1965.43;597.43;2.18
1401;1987.4;565.935;2.18
1402;2031.96;563.738;2.18
1403;2054.24;601.337;2.18
1404;2061.56;561.785;2.18
1405;2049.36;542.009;2.18
1406;2014.57;573.748;2.18
1407;1989.84;573.748;2.18
1408;2004.8;581.561;2.18
1409;2022.19;565.935;2.18
1410;2034.4;561.785;2.19
1411;2027.08;561.785;2.19
1412;1997.47;591.571;2.19
1413;1955.36;563.738;2.19
1414;1943.15;555.925;2.19
1415;1984.96;607.196;2.19
1416;2007.24;571.795;2.19
1417;2017.01;567.888;2.19
1418;2017.01;563.738;2.19
1419;1995.03;577.654;2.19
1420;1965.43;587.42;2.19
1421;1987.4;579.608;2.19
1422;2034.4;552.019;2.19
1423;2056.68;583.514;2.19
1424;2066.45;585.467;2.2
1425;2054.24;540.056;2.2
1426;2017.01;569.842;2.2
1427;1992.59;575.701;2.2
1428;2007.24;577.654;2.2
1429;2034.4;565.935;2.2
1430;2036.84;553.972;2.2
1431;2031.96;565.935;2.2
1432;2007.24;589.618;2.2
1433;1962.68;555.925;2.2
1434;1950.48;559.832;2.2
1435;1989.84;603.29;2.2
1436;2014.57;569.842;2.2
1437;2024.64;561.785;2.21001
1438;2024.64;561.785;2.21001
1439;1999.92;573.748;2.21001
1440;1972.75;587.42;2.21001
1441;1989.84;579.608;2.21001
1442;2036.84;559.832;2.21001
1443;2059.12;589.618;2.21001
1444;2068.89;579.608;2.21001
1445;2059.12;548.112;2.21001
1446;2024.64;569.842;2.21001
1447;1995.03;577.654;2.21001
1448;2012.12;581.561;2.21001
1449;2034.4;567.888;2.21001
1450;2041.73;552.019;2.22
1451;2036.84;569.842;2.22
1452;2009.68;585.467;2.22
1453;1967.87;553.972;2.22
1454;1952.92;567.888;2.22
1455;1995.03;597.43;2.22
1456;2019.75;571.795;2.22
1457;2029.52;563.738;2.22
1458;2027.08;563.738;2.22
1459;2004.8;575.701;2.22
1460;1977.64;591.571;2.22
1461;1995.03;575.701;2.22
1462;2044.17;561.785;2.22
1463;2064;593.524;2.23
1464;2076.52;571.795;2.23
1465;2064;550.066;2.23
1466;2029.52;569.842;2.23
1467;2002.36;579.608;2.23
1468;2014.57;579.608;2.23
1469;2039.29;567.888;2.23
1470;2046.91;548.112;2.23
1471;2041.73;573.748;2.23
1472;1997.47;581.561;2.23
1473;1955.36;550.066;2.23
1474;1967.87;571.795;2.23
1475;2007.24;595.477;2.23
1476;2024.64;571.795;2.24001
1477;2031.96;561.785;2.24001
1478;2022.19;569.842;2.24001
1479;1995.03;573.748;2.24001
1480;1975.2;591.571;2.24001
1481;2017.01;571.795;2.24001
1482;2056.68;561.785;2.24001
1483;2068.89;597.43;2.24001
1484;2078.96;569.842;2.24001
1485;2056.68;552.019;2.24001
1486;2019.75;567.888;2.24001
1487;2002.36;581.561;2.24001
1488;2029.52;577.654;2.24001
1489;2046.91;569.842;2.25
1490;2049.36;548.112;2.25
1491;2039.29;577.654;2.25
1492;2004.8;579.608;2.25
1493;1962.68;546.159;2.25
1494;1975.2;573.748;2.25
1495;2017.01;589.618;2.25
1496;2031.96;573.748;2.25
1497;2039.29;557.878;2.25
1498;2031.96;575.701;2.25
1499;2004.8;573.748;2.25
1500;1982.52;595.477;2.25
1501;2022.19;571.795;2.25
1502;2061.56;563.738;2.26
1503;2076.52;599.384;2.26
1504;2083.84;565.935;2.26
1505;2064;557.878;2.26
1506;2024.64;565.935;2.26
1507;2007.24;581.561;2.26
1508;2036.84;567.888;2.26
1509;2051.8;567.888;2.26
1510;2054.24;544.206;2.26
1511;2044.17;581.561;2.26
1512;2009.68;579.608;2.26
1513;1970.31;542.009;2.26
1514;1977.64;579.608;2.27
1515;2019.75;585.467;2.27
1516;2036.84;577.654;2.27
1517;2044.17;559.832;2.27
1518;2036.84;579.608;2.27
1519;2009.68;573.748;2.27
1520;1984.96;599.384;2.27
1521;2022.19;565.935;2.27
1522;2064;563.738;2.27
1523;2083.84;601.337;2.27
1524;2088.73;573.748;2.27
1525;2068.89;548.112;2.27
1526;2031.96;569.842;2.28001
1527;2014.57;579.608;2.28001
1528;2036.84;575.701;2.28001
1529;2056.68;565.935;2.28001
1530;2056.68;548.112;2.28001
1531;2046.91;573.748;2.28001
1532;2014.57;579.608;2.28001
1533;1972.75;546.159;2.28001
1534;1977.64;569.842;2.28001
1535;2022.19;593.524;2.28001
1536;2041.73;569.842;2.28001
1537;2051.8;559.832;2.28001
1538;2041.73;567.888;2.28001
1539;2014.57;571.795;2.29
1540;1992.59;593.524;2.29
1541;2027.08;571.795;2.29
1542;2066.45;559.832;2.29
1543;2086.28;595.477;2.29
1544;2091.17;569.842;2.29
1545;2074.08;555.925;2.29
1546;2039.29;565.935;2.29
1547;2017.01;581.561;2.29
1548;2044.17;575.701;2.29
1549;2059.12;567.888;2.29
1550;2064;546.159;2.3
1551;2056.68;577.654;2.3
1552;2022.19;579.608;2.3
1553;1977.64;542.009;2.3
1554;1982.52;575.701;2.3
1555;2024.64;587.42;2.3
1556;2044.17;573.748;2.3
1557;2054.24;557.878;2.3
1558;2046.91;575.701;2.3
1559;2022.19;571.795;2.3
1560;1997.47;595.477;2.3
1561;2031.96;567.888;2.3
1562;2074.08;561.785;2.3
1563;2093.61;599.384;2.31001
1564;2101.24;563.738;2.31001
1565;2083.84;555.925;2.31001
1566;2044.17;565.935;2.31001
1567;2022.19;579.608;2.31001
1568;2046.91;565.935;2.31001
1569;2064;567.888;2.31001
1570;2071.33;546.159;2.31001
1571;2061.56;581.561;2.31001
1572;2027.08;577.654;2.31001
1573;1987.4;540.056;2.31001
1574;1989.84;581.561;2.32
1575;2034.4;583.514;2.32
1576;2051.8;575.701;2.32
1577;2061.56;557.878;2.32
1578;2056.68;579.608;2.32
1579;2027.08;571.795;2.32
1580;2004.8;597.43;2.32
1581;2036.84;563.738;2.32
1582;2078.96;561.785;2.32
1583;2098.49;599.384;2.32
1584;2106.12;583.514;2.32
1585;2088.73;538.102;2.32
1586;2054.24;567.888;2.33
1587;2029.52;573.748;2.33
1588;2056.68;577.654;2.33
1589;2074.08;563.738;2.33
1590;2078.96;553.972;2.33
1591;2071.33;563.738;2.33
1592;2034.4;587.42;2.33
1593;1995.03;555.925;2.33
1594;1997.47;557.878;2.33
1595;2039.29;605.243;2.33
1596;2059.12;569.842;2.33
1597;2066.45;561.785;2.34
1598;2064;561.785;2.34
1599;2036.84;573.748;2.34
1600;2007.24;585.467;2.34
1601;2041.73;577.654;2.34
1602;2086.28;553.972;2.34
1603;2108.56;583.514;2.34
1604;2113.44;579.608;2.34
1605;2093.61;542.009;2.34
1606;2054.24;567.888;2.34
1607;2039.29;577.654;2.34
1608;2066.45;575.701;2.34
1609;2081.4;563.738;2.35001
1610;2081.4;552.019;2.35001
1611;2068.89;561.785;2.35001
1612;2034.4;583.514;2.35001
1613;1992.59;552.019;2.35001
1614;2007.24;563.738;2.35001
1615;2049.36;597.43;2.35001
1616;2064;569.842;2.35001
1617;2074.08;561.785;2.35001
1618;2061.56;561.785;2.35001
1619;2031.96;571.795;2.35001
1620;2012.12;585.467;2.36
1621;2054.24;575.701;2.36
1622;2091.17;557.878;2.36
1623;2108.56;587.42;2.36
1624;2115.89;575.701;2.36
1625;2093.61;546.159;2.36
1626;2056.68;565.935;2.36
1627;2039.29;577.654;2.36
1628;2066.45;575.701;2.36
1629;2081.4;563.738;2.36
1630;2083.84;548.112;2.36
1631;2074.08;569.842;2.37
1632;2036.84;579.608;2.37
1633;1995.03;550.066;2.37
1634;2002.36;565.935;2.37
1635;2046.91;593.524;2.37
1636;2066.45;567.888;2.37
1637;2074.08;557.878;2.37
1638;2064;563.738;2.37
1639;2039.29;573.748;2.37
1640;2014.57;589.618;2.37
1641;2056.68;571.795;2.37
1642;2096.05;557.878;2.38
1643;2111;593.524;2.38
1644;2115.89;567.888;2.38
1645;2096.05;548.112;2.38
1646;2059.12;565.935;2.38
1647;2044.17;579.608;2.38
1648;2068.89;573.748;2.38
1649;2086.28;563.738;2.38
1650;2091.17;546.159;2.38
1651;2078.96;573.748;2.38
1652;2041.73;579.608;2.38
1653;2002.36;544.206;2.39
1654;2012.12;571.795;2.39
1655;2054.24;589.618;2.39
1656;2071.33;571.795;2.39
1657;2078.96;555.925;2.39
1658;2071.33;567.888;2.39
1659;2044.17;571.795;2.39
1660;2019.75;593.524;2.39
1661;2059.12;563.738;2.39
1662;2101.24;559.832;2.39
1663;2120.77;595.477;2.39
1664;2128.4;565.935;2.4
1665;2106.12;552.019;2.4
1666;2066.45;563.738;2.4
1667;2054.24;577.654;2.4
1668;2076.52;567.888;2.4
1669;2091.17;565.935;2.4
1670;2098.49;542.009;2.4
1671;2083.84;579.608;2.4
1672;2049.36;577.654;2.4
1673;2007.24;540.056;2.4
1674;2017.01;575.701;2.4
1675;2061.56;585.467;2.41
1676;2076.52;571.795;2.41
1677;2086.28;553.972;2.41
1678;2081.4;573.748;2.41
1679;2051.8;569.842;2.41
