<WeldAnalyseData xmlns:i="http:www.w3.org/2001/XMLSchema-instance">
<WeldParameter>
<TimeStamp>DT#2024-01-24-13:58:53</TimeStamp>
<Generator>SG-22-10000</Generator>
<GenFreq>20</GenFreq>
<MaxForce>8000</MaxForce>
<MaxPower>10000</MaxPower>
<RunupPressure>1.5</RunupPressure>
<RunupDist>10</RunupDist>
<RunPress>0.8</RunPress>
<ShakeDelay>0.03</ShakeDelay>
<ShakeTime>0.3</ShakeTime>
<RunBackPress1>6</RunBackPress1>
<RunBackPress2>2</RunBackPress2>
<RunBackDist>1</RunBackDist>
<TrigValue>500</TrigValue>
<TrigModeUnit>W</TrigModeUnit>
<WeldModeUnit>Ws</WeldModeUnit>
<PressNr>0</PressNr>
<MaxLoss>1500</MaxLoss>
</WeldParameter>
<WeldSets>
<WeldSet>
<PressRiseTime>0</PressRiseTime>
<RunPressure>1</RunPressure>
<Amplitude>86</Amplitude>
<WeldMode>3270</WeldMode>
</WeldSet>
</WeldSets>
<WeldValue>
<WeldNr>2955</WeldNr>
<RecipeName>RickStyle</RecipeName>
<WeldTime>1668</WeldTime>
<DistDiff>2.39</DistDiff>
<DistAbs>78.07</DistAbs>
<Energy>3271.26</Energy>
<MaxPower>2161.74</MaxPower>
<CycleTime>6030</CycleTime>
<TrigForce>500.748</TrigForce>
<TrigDist>75.68</TrigDist>
<RunSpeed>67.8136</RunSpeed>
<MaxForce>619.16</MaxForce>
<LossPower>327.044</LossPower>
</WeldValue>
</WeldAnalyseData>
#CSV-START#
ms;Power[W];Force[N];Distance[mm]
1;0;0;0
2;0;502.701;0
3;0;500.748;0
4;0;502.701;0
5;0;502.701;0
6;0;502.701;0
7;0;502.701;0
8;0;494.644;0.0100021
9;0;435.56;0.0199966
10;0;409.925;0.0400009
11;0;386.242;0.0699997
12;28.4966;364.513;0.0999985
13;87.7026;330.821;0.139999
14;169.187;336.68;0.18
15;245.788;312.998;0.220001
16;309.877;301.279;0.269997
17;369.083;285.409;0.32
18;430.731;293.222;0.370003
19;492.683;291.269;0.409996
20;564.096;312.998;0.459999
21;643.139;285.409;0.5
22;719.741;311.045;0.529999
23;793.901;340.831;0.559998
24;865.314;301.279;0.589996
25;919.637;336.68;0.610001
26;966.636;338.633;0.629997
27;1025.84;366.466;0.639999
28;1089.93;360.363;0.659996
29;1141.81;380.139;0.669998
30;1186.37;374.279;0.669998
31;1213.53;417.737;0.68
32;1220.85;409.925;0.68
33;1238.25;388.195;0.690002
34;1297.46;445.326;0.690002
35;1331.94;417.737;0.690002
36;1364.29;419.691;0.699997
37;1393.89;407.971;0.699997
38;1410.99;427.503;0.709999
39;1415.87;425.55;0.709999
40;1453.1;443.373;0.720001
41;1514.75;403.821;0.730003
42;1551.68;427.503;0.730003
43;1584.03;453.383;0.739998
44;1601.12;396.008;0.739998
45;1591.35;429.456;0.75
46;1588.91;431.654;0.75
47;1623.39;443.373;0.760002
48;1660.32;429.456;0.760002
49;1687.48;433.607;0.769997
50;1707.32;423.597;0.779999
51;1700;463.149;0.779999
52;1682.6;441.42;0.790001
53;1692.67;423.597;0.800003
54;1744.25;482.925;0.800003
55;1783.92;445.326;0.809998
56;1808.64;447.279;0.82
57;1825.73;441.42;0.82
58;1825.73;459.243;0.830002
59;1811.08;461.196;0.839996
60;1843.13;475.112;0.839996
61;1902.33;435.56;0.849998
62;1934.38;465.102;0.849998
63;1956.66;482.925;0.860001
64;1956.66;429.456;0.860001
65;1934.38;463.149;0.870003
66;1917.29;470.962;0.870003
67;1942.01;480.972;0.879997
68;1974.05;465.102;0.879997
69;1991.45;465.102;0.889999
70;1996.33;463.149;0.889999
71;1974.05;498.795;0.900002
72;1939.57;472.915;0.900002
73;1931.94;461.196;0.900002
74;1981.38;518.326;0.909996
75;2013.42;482.925;0.909996
76;2030.82;479.019;0.919998
77;2033.26;475.112;0.919998
78;2018.61;488.784;0.93
79;1993.89;496.597;0.93
80;2018.61;500.748;0.940002
81;2070.19;469.008;0.940002
82;2097.35;496.597;0.940002
83;2117.18;506.607;0.949997
84;2107.42;461.196;0.949997
85;2077.81;490.738;0.959999
86;2048.21;498.795;0.959999
87;2065.3;504.654;0.959999
88;2094.91;492.691;0.970001
89;2104.98;484.878;0.970001
90;2104.98;490.738;0.980003
91;2077.81;516.373;0.980003
92;2033.26;490.738;0.980003
93;2021.05;488.784;0.989998
94;2062.86;538.102;0.989998
95;2092.46;502.701;0.989998
96;2104.98;498.795;1
97;2102.53;498.795;1
98;2080.26;510.514;1
99;2050.65;522.477;1.01
100;2067.74;520.524;1.01
101;2119.63;490.738;1.01
102;2146.79;522.477;1.02
103;2161.74;520.524;1.02
104;2146.79;480.972;1.02
105;2112.3;510.514;1.03
106;2075.37;516.373;1.03
107;2092.46;520.524;1.04
108;2117.18;506.607;1.04
109;2127.25;492.691;1.04
110;2122.07;506.607;1.05
111;2090.02;524.43;1.05
112;2045.77;500.748;1.05
113;2025.93;492.691;1.06
114;2067.74;553.972;1.06
115;2092.46;514.42;1.06
116;2104.98;512.467;1.06
117;2102.53;506.607;1.07
118;2077.81;522.477;1.07
119;2045.77;526.383;1.07
120;2057.98;532.243;1.08
121;2109.86;496.597;1.08
122;2134.58;524.43;1.08
123;2144.34;538.102;1.08
124;2132.14;484.878;1.09
125;2094.91;520.524;1.09
126;2060.42;524.43;1.09
127;2072.93;530.29;1.09
128;2100.09;516.373;1.1
129;2104.98;514.42;1.1
130;2102.53;510.514;1.1
131;2072.93;544.206;1.11
132;2028.37;516.373;1.11
133;2006.1;506.607;1.11
134;2045.77;559.832;1.11
135;2067.74;524.43;1.12
136;2080.26;522.477;1.12
137;2075.37;516.373;1.12
138;2053.09;532.243;1.12
139;2018.61;536.149;1.13
140;2028.37;538.102;1.13
141;2077.81;506.607;1.13
142;2104.98;538.102;1.13
143;2114.74;544.206;1.14
144;2104.98;492.691;1.14
145;2070.19;524.43;1.14
146;2033.26;532.243;1.14
147;2040.58;538.102;1.15
148;2062.86;524.43;1.15
149;2072.93;516.373;1.15
150;2067.74;522.477;1.15
151;2043.02;548.112;1.15
152;1996.33;518.326;1.16
153;1974.05;518.326;1.16
154;2010.98;567.888;1.16
155;2038.14;532.243;1.16
156;2053.09;526.383;1.16
157;2048.21;524.43;1.17
158;2021.05;538.102;1.17
159;1991.45;548.112;1.17
160;1998.77;546.159;1.17
161;2048.21;516.373;1.17
162;2067.74;548.112;1.18
163;2080.26;544.206;1.18
164;2070.19;506.607;1.18
165;2035.7;534.196;1.18
166;2001.21;540.056;1.18
167;2008.54;546.159;1.19
168;2030.82;530.29;1.19
169;2038.14;520.524;1.19
170;2033.26;532.243;1.19
171;2008.54;563.738;1.19
172;1966.73;542.009;1.19
173;1942.01;512.467;1.2
174;1976.49;567.888;1.2
175;2006.1;540.056;1.2
176;2015.86;542.009;1.2
177;2013.42;530.29;1.2
178;1993.89;552.019;1.2
179;1961.54;540.056;1.21
180;1971.61;561.785;1.21
181;2015.86;512.467;1.21
182;2043.02;540.056;1.21
183;2055.54;571.795;1.21
184;2045.77;510.514;1.21
185;2010.98;536.149;1.22
186;1976.49;536.149;1.22
187;1986.26;552.019;1.22
188;2013.42;532.243;1.22
189;2015.86;536.149;1.22
190;2018.61;520.524;1.22
191;1991.45;569.842;1.23
192;1949.33;544.206;1.23
193;1922.17;514.42;1.23
194;1956.66;573.748;1.23
195;1981.38;544.206;1.23
196;1993.89;546.159;1.23
197;1993.89;536.149;1.24
198;1974.05;552.019;1.24
199;1942.01;546.159;1.24
200;1949.33;565.935;1.24
201;1996.33;518.326;1.24
202;2021.05;542.009;1.24
203;2035.7;573.748;1.25
204;2025.93;508.56;1.25
205;1996.33;544.206;1.25
206;1961.54;544.206;1.25
207;1966.73;557.878;1.25
208;1993.89;536.149;1.25
209;2003.65;544.206;1.25
210;1996.33;528.336;1.26
211;1976.49;573.748;1.26
212;1934.38;544.206;1.26
213;1909.96;524.43;1.26
214;1944.45;585.467;1.26
215;1971.61;550.066;1.26
216;1983.82;550.066;1.26
217;1983.82;540.056;1.27
218;1966.73;557.878;1.27
219;1931.94;552.019;1.27
220;1934.38;567.888;1.27
221;1986.26;524.43;1.27
222;2008.54;552.019;1.27
223;2021.05;573.748;1.28
224;2015.86;512.467;1.28
225;1983.82;550.066;1.28
226;1954.21;552.019;1.28
227;1956.66;561.785;1.28
228;1978.93;542.009;1.28
229;1988.7;542.009;1.28
230;1988.7;538.102;1.29
231;1966.73;575.701;1.29
232;1924.61;546.159;1.29
233;1897.45;532.243;1.29
234;1929.49;593.524;1.29
235;1956.66;553.972;1.29
236;1969.17;548.112;1.29
237;1971.61;544.206;1.3
238;1951.77;559.832;1.3
239;1924.61;559.832;1.3
240;1927.05;569.842;1.3
241;1974.05;530.29;1.3
242;1998.77;559.832;1.3
243;2010.98;571.795;1.3
244;2006.1;520.524;1.31
245;1976.49;552.019;1.31
246;1944.45;555.925;1.31
247;1946.89;563.738;1.31
248;1971.61;548.112;1.31
249;1978.93;544.206;1.31
250;1981.38;544.206;1.31
251;1959.1;577.654;1.31
252;1919.73;548.112;1.32
253;1892.57;540.056;1.32
254;1919.73;591.571;1.32
255;1949.33;557.878;1.32
256;1961.54;553.972;1.32
257;1964.29;550.066;1.32
258;1944.45;561.785;1.32
259;1914.85;569.842;1.33
260;1917.29;571.795;1.33
261;1966.73;538.102;1.33
262;1991.45;569.842;1.33
263;2006.1;573.748;1.33
264;2003.65;526.383;1.33
265;1974.05;557.878;1.33
266;1937.12;561.785;1.33
267;1939.57;565.935;1.34
268;1964.29;553.972;1.34
269;1974.05;546.159;1.34
270;1974.05;553.972;1.34
271;1954.21;575.701;1.34
272;1914.85;548.112;1.34
273;1887.68;548.112;1.34
274;1917.29;595.477;1.34
275;1944.45;561.785;1.35
276;1956.66;555.925;1.35
277;1956.66;553.972;1.35
278;1942.01;567.888;1.35
279;1912.4;575.701;1.35
280;1909.96;573.748;1.35
281;1959.1;546.159;1.35
282;1986.26;577.654;1.35
283;1998.77;577.654;1.36
284;1996.33;536.149;1.36
285;1966.73;563.738;1.36
286;1931.94;569.842;1.36
287;1934.38;575.701;1.36
288;1959.1;555.925;1.36
289;1966.73;563.738;1.36
290;1969.17;544.206;1.37
291;1949.33;593.524;1.37
292;1912.4;567.888;1.37
293;1882.8;538.102;1.37
294;1909.96;599.384;1.37
295;1939.57;571.795;1.37
296;1949.33;569.842;1.37
297;1954.21;555.925;1.37
298;1937.12;579.608;1.37
299;1904.77;569.842;1.38
300;1904.77;589.618;1.38
301;1954.21;542.009;1.38
302;1981.38;567.888;1.38
303;1993.89;597.43;1.38
304;1993.89;536.149;1.38
305;1969.17;569.842;1.38
306;1934.38;565.935;1.38
307;1929.49;579.608;1.39
308;1956.66;561.785;1.39
309;1966.73;565.935;1.39
310;1961.54;553.972;1.39
311;1931.94;597.43;1.39
312;1892.57;569.842;1.39
313;1885.24;546.159;1.39
314;1924.61;607.196;1.39
315;1944.45;573.748;1.39
316;1951.77;573.748;1.4
317;1949.33;561.785;1.4
318;1927.05;583.514;1.4
319;1899.89;577.654;1.4
320;1922.17;593.524;1.4
321;1964.29;548.112;1.4
322;1983.82;573.748;1.4
323;1993.89;601.337;1.4
324;1983.82;538.102;1.4
325;1949.33;571.795;1.41
326;1922.17;571.795;1.41
327;1937.12;583.514;1.41
328;1959.1;565.935;1.41
329;1964.29;569.842;1.41
330;1961.54;559.832;1.41
331;1929.49;601.337;1.41
332;1892.57;575.701;1.41
333;1880.05;552.019;1.42
334;1919.73;615.253;1.42
335;1937.12;575.701;1.42
336;1946.89;571.795;1.42
337;1946.89;565.935;1.42
338;1922.17;583.514;1.42
339;1895.01;581.561;1.42
340;1914.85;593.524;1.42
341;1959.1;552.019;1.42
342;1978.93;579.608;1.43
343;1991.45;597.43;1.43
344;1978.93;542.009;1.43
345;1946.89;573.748;1.43
346;1919.73;575.701;1.43
347;1934.38;587.42;1.43
348;1954.21;569.842;1.43
349;1959.1;571.795;1.43
350;1956.66;563.738;1.43
351;1929.49;599.384;1.43
352;1887.68;575.701;1.44
353;1877.61;555.925;1.44
354;1917.29;617.206;1.44
355;1937.12;577.654;1.44
356;1949.33;575.701;1.44
357;1949.33;569.842;1.44
358;1927.05;585.467;1.44
359;1899.89;587.42;1.44
360;1914.85;593.524;1.44
361;1961.54;557.878;1.45
362;1981.38;585.467;1.45
363;1996.33;599.384;1.45
364;1983.82;546.159;1.45
365;1949.33;575.701;1.45
366;1922.17;579.608;1.45
367;1939.57;589.618;1.45
368;1959.1;573.748;1.45
369;1966.73;567.888;1.45
370;1961.54;569.842;1.45
371;1934.38;599.384;1.46
372;1897.45;571.795;1.46
373;1880.05;561.785;1.46
374;1917.29;613.3;1.46
375;1937.12;579.608;1.46
376;1951.77;571.795;1.46
377;1949.33;571.795;1.46
378;1927.05;583.514;1.46
379;1899.89;591.571;1.46
380;1919.73;591.571;1.46
381;1961.54;561.785;1.47
382;1983.82;591.571;1.47
383;1996.33;595.477;1.47
384;1986.26;552.019;1.47
385;1956.66;579.608;1.47
386;1924.61;585.467;1.47
387;1939.57;589.618;1.47
388;1959.1;575.701;1.47
389;1969.17;565.935;1.47
390;1966.73;573.748;1.47
391;1939.57;593.524;1.47
392;1899.89;567.888;1.48
393;1887.68;567.888;1.48
394;1924.61;611.347;1.48
395;1946.89;579.608;1.48
396;1959.1;573.748;1.48
397;1956.66;571.795;1.48
398;1937.12;585.467;1.48
399;1909.96;595.477;1.48
400;1922.17;589.618;1.48
401;1969.17;565.935;1.48
402;1988.7;593.524;1.49
403;2003.65;603.29;1.49
404;1993.89;544.206;1.49
405;1964.29;577.654;1.49
406;1934.38;579.608;1.49
407;1949.33;589.618;1.49
408;1969.17;573.748;1.49
409;1976.49;569.842;1.49
410;1974.05;567.888;1.49
411;1949.33;603.29;1.49
412;1907.22;577.654;1.49
413;1890.13;561.785;1.5
414;1922.17;617.206;1.5
415;1949.33;579.608;1.5
416;1961.54;577.654;1.5
417;1961.54;571.795;1.5
418;1942.01;585.467;1.5
419;1912.4;589.618;1.5
420;1927.05;595.477;1.5
421;1971.61;557.878;1.5
422;1991.45;587.42;1.5
423;2006.1;599.384;1.5
424;1996.33;546.159;1.5
425;1964.29;577.654;1.51
426;1934.38;583.514;1.51
427;1944.45;589.618;1.51
428;1971.61;573.748;1.51
429;1978.93;569.842;1.51
430;1974.05;569.842;1.51
431;1951.77;599.384;1.51
432;1912.4;573.748;1.51
433;1892.57;565.935;1.51
434;1927.05;613.3;1.51
435;1949.33;581.561;1.51
436;1961.54;573.748;1.52
437;1961.54;573.748;1.52
438;1942.01;587.42;1.52
439;1909.96;595.477;1.52
440;1922.17;589.618;1.52
441;1971.61;561.785;1.52
442;1996.33;591.571;1.52
443;2006.1;593.524;1.52
444;1998.77;548.112;1.52
445;1969.17;579.608;1.52
446;1937.12;585.467;1.52
447;1944.45;589.618;1.53
448;1969.17;573.748;1.53
449;1976.49;563.738;1.53
450;1974.05;575.701;1.53
451;1949.33;595.477;1.53
452;1909.96;567.888;1.53
453;1890.13;567.888;1.53
454;1922.17;611.347;1.53
455;1949.33;581.561;1.53
456;1956.66;573.748;1.53
457;1961.54;573.748;1.53
458;1942.01;585.467;1.53
459;1909.96;597.43;1.54
460;1919.73;587.42;1.54
461;1971.61;555.925;1.54
462;1993.89;579.608;1.54
463;2008.54;611.347;1.54
464;1996.33;550.066;1.54
465;1969.17;575.701;1.54
466;1937.12;575.701;1.54
467;1949.33;593.524;1.54
468;1974.05;571.795;1.54
469;1976.49;577.654;1.54
470;1976.49;561.785;1.54
471;1951.77;609.149;1.54
472;1912.4;583.514;1.55
473;1890.13;553.972;1.55
474;1927.05;615.253;1.55
475;1951.77;585.467;1.55
476;1964.29;583.514;1.55
477;1969.17;571.795;1.55
478;1949.33;591.571;1.55
479;1919.73;583.514;1.55
480;1927.05;603.29;1.55
481;1974.05;553.972;1.55
482;1996.33;579.608;1.55
483;2008.54;609.149;1.55
484;2003.65;548.112;1.56
485;1974.05;577.654;1.56
486;1944.45;577.654;1.56
487;1949.33;591.571;1.56
488;1971.61;573.748;1.56
489;1981.38;577.654;1.56
490;1981.38;563.738;1.56
491;1956.66;609.149;1.56
492;1914.85;581.561;1.56
493;1892.57;555.925;1.56
494;1927.05;617.206;1.56
495;1954.21;583.514;1.56
496;1966.73;581.561;1.57
497;1969.17;569.842;1.57
498;1951.77;589.618;1.57
499;1919.73;585.467;1.57
500;1927.05;601.337;1.57
501;1974.05;553.972;1.57
502;1998.77;583.514;1.57
503;2008.54;603.29;1.57
504;2006.1;546.159;1.57
505;1974.05;579.608;1.57
506;1944.45;581.561;1.57
507;1949.33;591.571;1.58
508;1974.05;575.701;1.58
509;1981.38;573.748;1.58
510;1978.93;567.888;1.58
511;1956.66;607.196;1.58
512;1917.29;577.654;1.58
513;1892.57;559.832;1.58
514;1927.05;619.16;1.58
515;1954.21;583.514;1.58
516;1966.73;581.561;1.58
517;1971.61;571.795;1.58
518;1954.21;587.42;1.58
519;1924.61;589.618;1.58
520;1927.05;597.43;1.59
521;1974.05;557.878;1.59
522;1996.33;585.467;1.59
523;2008.54;601.337;1.59
524;2006.1;548.112;1.59
525;1976.49;581.561;1.59
526;1944.45;583.514;1.59
527;1949.33;591.571;1.59
528;1976.49;575.701;1.59
529;1983.82;571.795;1.59
530;1983.82;569.842;1.59
531;1964.29;603.29;1.59
532;1922.17;573.748;1.6
533;1897.45;563.738;1.6
534;1924.61;619.16;1.6
535;1954.21;579.608;1.6
536;1964.29;579.608;1.6
537;1969.17;575.701;1.6
538;1949.33;589.618;1.6
539;1922.17;593.524;1.6
540;1922.17;595.477;1.6
541;1971.61;561.785;1.6
542;1996.33;589.618;1.6
543;2010.98;599.384;1.6
544;2006.1;548.112;1.6
545;1978.93;581.561;1.61
546;1942.01;583.514;1.61
547;1946.89;591.571;1.61
548;1974.05;577.654;1.61
549;1978.93;569.842;1.61
550;1981.38;573.748;1.61
551;1964.29;603.29;1.61
552;1922.17;571.795;1.61
553;1895.01;567.888;1.61
554;1927.05;615.253;1.61
555;1954.21;581.561;1.61
556;1966.73;577.654;1.61
557;1969.17;575.701;1.62
558;1954.21;587.42;1.62
559;1924.61;595.477;1.62
560;1922.17;593.524;1.62
561;1971.61;563.738;1.62
562;1996.33;593.524;1.62
563;2010.98;593.524;1.62
564;2010.98;553.972;1.62
565;1978.93;579.608;1.62
566;1946.89;589.618;1.62
567;1949.33;589.618;1.62
568;1974.05;577.654;1.62
569;1983.82;563.738;1.62
570;1981.38;577.654;1.63
571;1964.29;595.477;1.63
572;1924.61;569.842;1.63
573;1897.45;571.795;1.63
574;1924.61;611.347;1.63
575;1951.77;583.514;1.63
576;1964.29;575.701;1.63
577;1969.17;575.701;1.63
578;1954.21;593.524;1.63
579;1924.61;583.514;1.63
580;1922.17;603.29;1.63
581;1983.82;555.925;1.63
582;2006.1;579.608;1.64
583;2015.86;609.149;1.64
584;2001.21;548.112;1.64
585;1969.17;577.654;1.64
586;1942.01;577.654;1.64
587;1961.54;591.571;1.64
588;1981.38;569.842;1.64
589;1986.26;577.654;1.64
590;1983.82;561.785;1.64
591;1954.21;609.149;1.64
592;1912.4;583.514;1.64
593;1904.77;553.972;1.64
594;1944.45;615.253;1.64
595;1964.29;583.514;1.65
596;1974.05;581.561;1.65
597;1971.61;571.795;1.65
598;1949.33;587.42;1.65
599;1919.73;581.561;1.65
600;1944.45;601.337;1.65
601;1988.7;555.925;1.65
602;2008.54;579.608;1.65
603;2018.61;607.196;1.65
604;2006.1;542.009;1.65
605;1976.49;577.654;1.65
606;1944.45;577.654;1.65
607;1961.54;591.571;1.65
608;1983.82;573.748;1.66
609;1988.7;575.701;1.66
610;1986.26;561.785;1.66
611;1956.66;609.149;1.66
612;1914.85;581.561;1.66
613;1904.77;557.878;1.66
614;1944.45;615.253;1.66
615;1964.29;581.561;1.66
616;1974.05;577.654;1.66
617;1971.61;571.795;1.66
618;1949.33;589.618;1.66
619;1922.17;585.467;1.66
620;1939.57;599.384;1.66
621;1986.26;555.925;1.67
622;2006.1;579.608;1.67
623;2018.61;603.29;1.67
624;2008.54;544.206;1.67
625;1974.05;577.654;1.67
626;1946.89;581.561;1.67
627;1964.29;589.618;1.67
628;1983.82;573.748;1.67
629;1988.7;571.795;1.67
630;1988.7;565.935;1.67
631;1959.1;603.29;1.67
632;1919.73;575.701;1.67
633;1904.77;555.925;1.67
634;1944.45;617.206;1.67
635;1966.73;579.608;1.68
636;1976.49;577.654;1.68
637;1976.49;569.842;1.68
638;1954.21;585.467;1.68
639;1927.05;587.42;1.68
640;1944.45;595.477;1.68
641;1988.7;557.878;1.68
642;2006.1;585.467;1.68
643;2021.05;599.384;1.68
644;2008.54;544.206;1.68
645;1976.49;579.608;1.68
646;1946.89;581.561;1.68
647;1964.29;587.42;1.68
648;1986.26;573.748;1.69
649;1991.45;569.842;1.69
650;1991.45;569.842;1.69
651;1961.54;599.384;1.69
652;1919.73;571.795;1.69
653;1904.77;561.785;1.69
654;1942.01;615.253;1.69
655;1964.29;577.654;1.69
656;1974.05;575.701;1.69
657;1971.61;571.795;1.69
658;1951.77;583.514;1.69
659;1919.73;589.618;1.69
660;1942.01;591.571;1.69
661;1988.7;559.832;1.69
662;2008.54;589.618;1.7
663;2021.05;593.524;1.7
664;2010.98;548.112;1.7
665;1978.93;577.654;1.7
666;1946.89;583.514;1.7
667;1961.54;587.42;1.7
668;1986.26;571.795;1.7
669;1988.7;565.935;1.7
670;1988.7;571.795;1.7
671;1961.54;595.477;1.7
672;1922.17;565.935;1.7
673;1907.22;561.785;1.7
674;1944.45;609.149;1.7
675;1966.73;579.608;1.7
676;1978.93;573.748;1.7
677;1974.05;569.842;1.71
678;1956.66;583.514;1.71
679;1924.61;593.524;1.71
680;1939.57;587.42;1.71
681;1988.7;563.738;1.71
682;2010.98;593.524;1.71
683;2021.05;587.42;1.71
684;2010.98;550.066;1.71
685;1983.82;579.608;1.71
686;1949.33;583.514;1.71
687;1961.54;587.42;1.71
688;1983.82;573.748;1.71
689;1988.7;557.878;1.71
690;1988.7;573.748;1.71
691;1964.29;591.571;1.72
692;1917.29;559.832;1.72
693;1902.33;569.842;1.72
694;1942.01;615.253;1.72
695;1964.29;577.654;1.72
696;1974.05;573.748;1.72
697;1976.49;569.842;1.72
698;1954.21;585.467;1.72
699;1929.49;587.42;1.72
700;1942.01;593.524;1.72
701;1988.7;555.925;1.72
702;2008.54;583.514;1.72
703;2023.49;597.43;1.72
704;2018.61;546.159;1.72
705;1983.82;575.701;1.73
706;1954.21;579.608;1.73
707;1966.73;585.467;1.73
708;1988.7;569.842;1.73
709;1991.45;567.888;1.73
710;1993.89;565.935;1.73
711;1969.17;597.43;1.73
712;1922.17;569.842;1.73
713;1904.77;561.785;1.73
714;1942.01;613.3;1.73
715;1966.73;579.608;1.73
716;1978.93;573.748;1.73
717;1978.93;569.842;1.73
718;1956.66;583.514;1.73
719;1927.05;587.42;1.73
720;1951.77;589.618;1.74
721;1993.89;559.832;1.74
722;2015.86;585.467;1.74
723;2023.49;591.571;1.74
724;2013.42;548.112;1.74
725;1978.93;573.748;1.74
726;1951.77;581.561;1.74
727;1969.17;585.467;1.74
728;1988.7;571.795;1.74
729;1993.89;561.785;1.74
730;1991.45;569.842;1.74
731;1959.1;595.477;1.74
732;1922.17;565.935;1.74
733;1912.4;563.738;1.74
734;1949.33;607.196;1.75
735;1971.61;577.654;1.75
736;1976.49;569.842;1.75
737;1976.49;567.888;1.75
738;1954.21;581.561;1.75
739;1922.17;591.571;1.75
740;1949.33;585.467;1.75
741;1996.33;561.785;1.75
742;2015.86;591.571;1.75
743;2025.93;587.42;1.75
744;2015.86;548.112;1.75
745;1978.93;575.701;1.75
746;1951.77;579.608;1.75
747;1969.17;585.467;1.75
748;1988.7;573.748;1.76
749;1996.33;559.832;1.76
750;1991.45;571.795;1.76
751;1964.29;591.571;1.76
752;1919.73;579.608;1.76
753;1909.96;546.159;1.76
754;1946.89;607.196;1.76
755;1969.17;579.608;1.76
756;1978.93;581.561;1.76
757;1976.49;563.738;1.76
758;1954.21;585.467;1.76
759;1924.61;575.701;1.76
760;1949.33;599.384;1.76
761;1993.89;550.066;1.76
762;2015.86;575.701;1.77
763;2025.93;603.29;1.77
764;2013.42;544.206;1.77
765;1978.93;573.748;1.77
766;1951.77;571.795;1.77
767;1969.17;587.42;1.77
768;1986.26;565.935;1.77
769;1993.89;573.748;1.77
770;1991.45;557.878;1.77
771;1964.29;601.337;1.77
772;1922.17;577.654;1.77
773;1907.22;552.019;1.77
774;1944.45;613.3;1.77
775;1969.17;575.701;1.77
776;1978.93;579.608;1.77
777;1978.93;565.935;1.78
778;1954.21;585.467;1.78
779;1927.05;577.654;1.78
780;1944.45;593.524;1.78
781;1993.89;552.019;1.78
782;2010.98;577.654;1.78
783;2021.05;601.337;1.78
784;2010.98;542.009;1.78
785;1978.93;573.748;1.78
786;1949.33;571.795;1.78
787;1964.29;587.42;1.78
788;1983.82;565.935;1.78
789;1993.89;569.842;1.78
790;1991.45;559.832;1.78
791;1961.54;603.29;1.79
792;1919.73;571.795;1.79
793;1904.77;553.972;1.79
794;1944.45;615.253;1.79
795;1966.73;575.701;1.79
796;1978.93;571.795;1.79
797;1976.49;567.888;1.79
798;1956.66;583.514;1.79
799;1927.05;581.561;1.79
800;1944.45;593.524;1.79
801;1991.45;553.972;1.79
802;2013.42;579.608;1.79
803;2023.49;597.43;1.79
804;2013.42;540.056;1.79
805;1981.38;573.748;1.79
806;1954.21;577.654;1.8
807;1969.17;585.467;1.8
808;1988.7;569.842;1.8
809;1993.89;565.935;1.8
810;1991.45;565.935;1.8
811;1966.73;595.477;1.8
812;1924.61;567.888;1.8
813;1907.22;557.878;1.8
814;1944.45;613.3;1.8
815;1966.73;575.701;1.8
816;1976.49;573.748;1.8
817;1976.49;567.888;1.8
818;1954.21;581.561;1.8
819;1927.05;585.467;1.8
820;1939.57;589.618;1.81
821;1988.7;557.878;1.81
822;2010.98;581.561;1.81
823;2021.05;591.571;1.81
824;2013.42;542.009;1.81
825;1978.93;573.748;1.81
826;1949.33;579.608;1.81
827;1961.54;583.514;1.81
828;1986.26;567.888;1.81
829;1988.7;561.785;1.81
830;1988.7;565.935;1.81
831;1964.29;593.524;1.81
832;1919.73;565.935;1.81
833;1902.33;557.878;1.81
834;1939.57;607.196;1.81
835;1961.54;573.748;1.82
836;1971.61;569.842;1.82
837;1974.05;569.842;1.82
838;1954.21;581.561;1.82
839;1924.61;587.42;1.82
840;1939.57;585.467;1.82
841;1986.26;557.878;1.82
842;2008.54;585.467;1.82
843;2021.05;587.42;1.82
844;2013.42;546.159;1.82
845;1981.38;571.795;1.82
846;1949.33;579.608;1.82
847;1964.29;581.561;1.82
848;1986.26;569.842;1.82
849;1993.89;559.832;1.83
850;1991.45;569.842;1.83
851;1966.73;591.571;1.83
852;1924.61;561.785;1.83
853;1904.77;563.738;1.83
854;1944.45;605.243;1.83
855;1964.29;573.748;1.83
856;1976.49;567.888;1.83
857;1976.49;567.888;1.83
858;1956.66;579.608;1.83
859;1927.05;591.571;1.83
860;1939.57;583.514;1.83
861;1988.7;561.785;1.83
862;2010.98;591.571;1.83
863;2023.49;581.561;1.83
864;2015.86;548.112;1.83
865;1983.82;573.748;1.84
866;1951.77;579.608;1.84
867;1964.29;585.467;1.84
868;1986.26;567.888;1.84
869;1993.89;553.972;1.84
870;1991.45;553.972;1.84
871;1969.17;603.29;1.84
872;1924.61;577.654;1.84
873;1904.77;548.112;1.84
874;1944.45;607.196;1.84
875;1966.73;575.701;1.84
876;1976.49;579.608;1.84
877;1983.82;561.785;1.84
878;1959.1;585.467;1.84
879;1931.94;575.701;1.84
880;1942.01;593.524;1.85
881;1986.26;550.066;1.85
882;2010.98;573.748;1.85
883;2023.49;599.384;1.85
884;2015.86;538.102;1.85
885;1983.82;571.795;1.85
886;1954.21;575.701;1.85
887;1961.54;581.561;1.85
888;1986.26;563.738;1.85
889;1991.45;569.842;1.85
890;1991.45;557.878;1.85
891;1969.17;599.384;1.85
892;1929.49;573.748;1.85
893;1907.22;550.066;1.85
894;1942.01;611.347;1.85
895;1969.17;575.701;1.86
896;1976.49;573.748;1.86
897;1978.93;563.738;1.86
898;1959.1;581.561;1.86
899;1929.49;579.608;1.86
900;1942.01;593.524;1.86
901;1991.45;550.066;1.86
902;2013.42;573.748;1.86
903;2025.93;595.477;1.86
904;2021.05;538.102;1.86
905;1986.26;573.748;1.86
906;1956.66;573.748;1.86
907;1964.29;583.514;1.86
908;1988.7;567.888;1.86
909;1993.89;567.888;1.87
910;1993.89;559.832;1.87
911;1969.17;599.384;1.87
912;1929.49;571.795;1.87
913;1904.77;553.972;1.87
914;1939.57;613.3;1.87
915;1969.17;573.748;1.87
916;1978.93;573.748;1.87
917;1978.93;565.935;1.87
918;1964.29;581.561;1.87
919;1934.38;579.608;1.87
920;1939.57;589.618;1.87
921;1988.7;552.019;1.87
922;2013.42;579.608;1.87
923;2023.49;591.571;1.87
924;2018.61;540.056;1.88
925;1988.7;571.795;1.88
926;1954.21;573.748;1.88
927;1961.54;581.561;1.88
928;1988.7;567.888;1.88
929;1996.33;563.738;1.88
930;1996.33;563.738;1.88
931;1974.05;595.477;1.88
932;1931.94;567.888;1.88
933;1909.96;555.925;1.88
934;1942.01;611.347;1.88
935;1966.73;571.795;1.88
936;1978.93;569.842;1.88
937;1981.38;565.935;1.88
938;1964.29;579.608;1.88
939;1931.94;583.514;1.89
940;1939.57;589.618;1.89
941;1986.26;552.019;1.89
942;2010.98;581.561;1.89
943;2023.49;591.571;1.89
944;2021.05;540.056;1.89
945;1993.89;569.842;1.89
946;1959.1;575.701;1.89
947;1964.29;581.561;1.89
948;1991.45;567.888;1.89
949;2001.21;559.832;1.89
950;1996.33;565.935;1.89
951;1976.49;593.524;1.89
952;1934.38;565.935;1.89
953;1909.96;557.878;1.89
954;1944.45;607.196;1.89
955;1969.17;573.748;1.9
956;1978.93;565.935;1.9
957;1983.82;565.935;1.9
958;1966.73;577.654;1.9
959;1934.38;587.42;1.9
960;1939.57;581.561;1.9
961;1988.7;559.832;1.9
962;2013.42;585.467;1.9
963;2028.37;583.514;1.9
964;2023.49;544.206;1.9
965;1993.89;571.795;1.9
966;1959.1;577.654;1.9
967;1964.29;581.561;1.9
968;1988.7;567.888;1.9
969;1996.33;555.925;1.9
970;1996.33;569.842;1.91
971;1976.49;589.618;1.91
972;1937.12;557.878;1.91
973;1909.96;565.935;1.91
974;1942.01;601.337;1.91
975;1969.17;573.748;1.91
976;1978.93;567.888;1.91
977;1981.38;565.935;1.91
978;1966.73;577.654;1.91
979;1934.38;589.618;1.91
980;1937.12;581.561;1.91
981;1983.82;559.832;1.91
982;2013.42;589.618;1.91
983;2025.93;579.608;1.91
984;2023.49;550.066;1.91
985;1993.89;571.795;1.92
986;1961.54;577.654;1.92
987;1961.54;579.608;1.92
988;1986.26;567.888;1.92
989;1993.89;561.785;1.92
990;1993.89;561.785;1.92
991;1961.54;593.524;1.92
992;1919.73;565.935;1.92
993;1914.85;555.925;1.92
994;1956.66;609.149;1.92
995;1974.05;573.748;1.92
996;1983.82;567.888;1.92
997;1983.82;565.935;1.92
998;1956.66;579.608;1.92
999;1931.94;585.467;1.92
1000;1956.66;587.42;1.92
1001;2001.21;553.972;1.93
1002;2023.49;581.561;1.93
1003;2030.82;587.42;1.93
1004;2018.61;542.009;1.93
1005;1986.26;571.795;1.93
1006;1959.1;575.701;1.93
1007;1976.49;581.561;1.93
1008;1993.89;567.888;1.93
1009;2001.21;557.878;1.93
1010;1993.89;565.935;1.93
1011;1961.54;589.618;1.93
1012;1922.17;561.785;1.93
1013;1914.85;561.785;1.93
1014;1956.66;603.29;1.93
1015;1978.93;575.701;1.93
1016;1986.26;565.935;1.93
1017;1983.82;565.935;1.93
1018;1961.54;577.654;1.94
1019;1934.38;587.42;1.94
1020;1956.66;583.514;1.94
1021;2001.21;557.878;1.94
1022;2018.61;585.467;1.94
1023;2028.37;585.467;1.94
1024;2018.61;544.206;1.94
1025;1981.38;573.748;1.94
1026;1956.66;577.654;1.94
1027;1974.05;583.514;1.94
1028;1996.33;569.842;1.94
1029;1998.77;555.925;1.94
1030;1996.33;567.888;1.94
1031;1969.17;587.42;1.94
1032;1924.61;557.878;1.94
1033;1914.85;563.738;1.94
1034;1954.21;605.243;1.94
1035;1974.05;571.795;1.95
1036;1986.26;565.935;1.95
1037;1983.82;565.935;1.95
1038;1964.29;577.654;1.95
1039;1934.38;591.571;1.95
1040;1956.66;579.608;1.95
1041;2003.65;559.832;1.95
1042;2021.05;593.524;1.95
1043;2033.26;579.608;1.95
1044;2021.05;550.066;1.95
1045;1988.7;571.795;1.95
1046;1959.1;567.888;1.95
1047;1976.49;583.514;1.95
1048;1998.77;561.785;1.95
1049;2001.21;569.842;1.95
1050;1996.33;553.972;1.95
1051;1976.49;601.337;1.95
1052;1931.94;573.748;1.96
1053;1917.29;546.159;1.96
1054;1956.66;607.196;1.96
1055;1981.38;573.748;1.96
1056;1988.7;571.795;1.96
1057;1988.7;561.785;1.96
1058;1964.29;581.561;1.96
1059;1934.38;579.608;1.96
1060;1956.66;593.524;1.96
1061;2001.21;548.112;1.96
1062;2025.93;571.795;1.96
1063;2033.26;597.43;1.96
1064;2023.49;536.149;1.96
1065;1988.7;567.888;1.96
1066;1964.29;569.842;1.96
1067;1978.93;583.514;1.96
1068;1998.77;565.935;1.97
1069;2006.1;567.888;1.97
1070;2001.21;553.972;1.97
1071;1976.49;599.384;1.97
1072;1934.38;571.795;1.97
1073;1917.29;548.112;1.97
1074;1961.54;611.347;1.97
1075;1981.38;573.748;1.97
1076;1991.45;573.748;1.97
1077;1988.7;563.738;1.97
1078;1966.73;579.608;1.97
1079;1939.57;577.654;1.97
1080;1954.21;591.571;1.97
1081;2001.21;550.066;1.97
1082;2023.49;573.748;1.97
1083;2030.82;595.477;1.97
1084;2023.49;536.149;1.97
1085;1986.26;569.842;1.98
1086;1959.1;573.748;1.98
1087;1976.49;583.514;1.98
1088;1996.33;563.738;1.98
1089;2001.21;563.738;1.98
1090;2001.21;559.832;1.98
1091;1971.61;595.477;1.98
1092;1929.49;567.888;1.98
1093;1914.85;553.972;1.98
1094;1951.77;611.347;1.98
1095;1978.93;573.748;1.98
1096;1988.7;569.842;1.98
1097;1986.26;561.785;1.98
1098;1966.73;581.561;1.98
1099;1937.12;581.561;1.98
1100;1956.66;587.42;1.98
1101;2003.65;550.066;1.99
1102;2025.93;579.608;1.99
1103;2030.82;591.571;1.99
1104;2025.93;538.102;1.99
1105;1993.89;569.842;1.99
1106;1964.29;575.701;1.99
1107;1976.49;581.561;1.99
1108;1998.77;565.935;1.99
1109;2003.65;561.785;1.99
1110;2001.21;559.832;1.99
1111;1974.05;593.524;1.99
1112;1931.94;565.935;1.99
1113;1917.29;555.925;1.99
1114;1954.21;609.149;1.99
1115;1983.82;571.795;1.99
1116;1993.89;569.842;1.99
1117;1996.33;565.935;2
1118;1971.61;577.654;2
1119;1942.01;581.561;2
1120;1956.66;585.467;2
1121;2006.1;553.972;2
1122;2023.49;581.561;2
1123;2035.7;589.618;2
1124;2025.93;542.009;2
1125;1993.89;573.748;2
1126;1964.29;575.701;2
1127;1976.49;583.514;2
1128;1998.77;567.888;2
1129;2003.65;555.925;2
1130;2003.65;567.888;2
1131;1978.93;589.618;2
1132;1939.57;559.832;2
1133;1919.73;557.878;2.01
1134;1959.1;605.243;2.01
1135;1981.38;571.795;2.01
1136;1991.45;565.935;2.01
1137;1993.89;561.785;2.01
1138;1971.61;577.654;2.01
1139;1942.01;585.467;2.01
1140;1954.21;581.561;2.01
1141;2001.21;557.878;2.01
1142;2025.93;585.467;2.01
1143;2038.14;583.514;2.01
1144;2030.82;544.206;2.01
1145;1998.77;571.795;2.01
1146;1969.17;579.608;2.01
1147;1978.93;581.561;2.01
1148;2003.65;567.888;2.02
1149;2008.54;552.019;2.02
1150;2006.1;571.795;2.02
1151;1981.38;587.42;2.02
1152;1942.01;555.925;2.02
1153;1922.17;563.738;2.02
1154;1959.1;601.337;2.02
1155;1983.82;571.795;2.02
1156;1993.89;563.738;2.02
1157;1996.33;565.935;2.02
1158;1976.49;577.654;2.02
1159;1946.89;589.618;2.02
1160;1959.1;577.654;2.02
1161;2006.1;559.832;2.02
1162;2030.82;589.618;2.02
1163;2040.58;575.701;2.02
1164;2035.7;538.102;2.03
1165;2003.65;569.842;2.03
1166;1971.61;567.888;2.03
1167;1978.93;581.561;2.03
1168;2003.65;561.785;2.03
1169;2008.54;569.842;2.03
1170;2010.98;553.972;2.03
1171;1986.26;599.384;2.03
1172;1944.45;571.795;2.03
1173;1924.61;546.159;2.03
1174;1964.29;609.149;2.03
1175;1986.26;573.748;2.03
1176;1998.77;573.748;2.03
1177;1998.77;563.738;2.03
1178;1981.38;579.608;2.03
1179;1951.77;575.701;2.04
1180;1961.54;591.571;2.04
1181;2008.54;546.159;2.04
1182;2030.82;573.748;2.04
1183;2045.77;595.477;2.04
1184;2038.14;536.149;2.04
1185;2006.1;569.842;2.04
1186;1976.49;571.795;2.04
1187;1983.82;581.561;2.04
1188;2008.54;563.738;2.04
1189;2013.42;565.935;2.04
1190;2010.98;559.832;2.04
1191;1988.7;597.43;2.04
1192;1949.33;569.842;2.04
1193;1924.61;550.066;2.04
1194;1961.54;611.347;2.04
1195;1988.7;571.795;2.05
1196;2001.21;571.795;2.05
1197;2001.21;561.785;2.05
1198;1981.38;579.608;2.05
1199;1949.33;579.608;2.05
1200;1956.66;589.618;2.05
1201;2010.98;546.159;2.05
1202;2030.82;575.701;2.05
1203;2045.77;593.524;2.05
1204;2040.58;534.196;2.05
1205;2008.54;569.842;2.05
1206;1978.93;571.795;2.05
1207;1983.82;581.561;2.05
1208;2008.54;567.888;2.05
1209;2015.86;561.785;2.06
1210;2015.86;561.785;2.06
1211;1991.45;593.524;2.06
1212;1951.77;567.888;2.06
1213;1927.05;552.019;2.06
1214;1964.29;609.149;2.06
1215;1988.7;571.795;2.06
1216;2001.21;567.888;2.06
1217;2003.65;561.785;2.06
1218;1983.82;579.608;2.06
1219;1954.21;581.561;2.06
1220;1959.1;585.467;2.06
1221;2008.54;552.019;2.06
1222;2035.7;579.608;2.06
1223;2048.21;589.618;2.06
1224;2043.02;540.056;2.07
1225;2015.86;569.842;2.07
1226;1981.38;571.795;2.07
1227;1986.26;581.561;2.07
1228;2010.98;567.888;2.07
1229;2018.61;561.785;2.07
1230;2018.61;561.785;2.07
1231;1998.77;593.524;2.07
1232;1956.66;561.785;2.07
1233;1931.94;555.925;2.07
1234;1966.73;607.196;2.07
1235;1993.89;571.795;2.07
1236;2006.1;563.738;2.07
1237;2008.54;565.935;2.07
1238;1988.7;577.654;2.07
1239;1959.1;585.467;2.07
1240;1964.29;587.42;2.08
1241;2015.86;553.972;2.08
1242;2040.58;583.514;2.08
1243;2053.09;587.42;2.08
1244;2050.65;540.056;2.08
1245;2021.05;569.842;2.08
1246;1988.7;579.608;2.08
1247;1988.7;579.608;2.08
1248;2013.42;565.935;2.08
1249;2023.49;555.925;2.08
1250;2023.49;565.935;2.08
1251;2003.65;589.618;2.08
1252;1959.1;557.878;2.08
1253;1931.94;559.832;2.08
1254;1966.73;605.243;2.08
1255;1996.33;569.842;2.09
1256;2008.54;563.738;2.09
1257;2010.98;563.738;2.09
1258;1993.89;573.748;2.09
1259;1964.29;587.42;2.09
1260;1964.29;579.608;2.09
1261;2013.42;557.878;2.09
1262;2038.14;587.42;2.09
1263;2055.54;579.608;2.09
1264;2040.58;548.112;2.09
1265;2006.1;571.795;2.09
1266;1983.82;577.654;2.09
1267;2003.65;581.561;2.09
1268;2021.05;565.935;2.09
1269;2025.93;552.019;2.09
1270;2023.49;571.795;2.09
1271;1991.45;585.467;2.1
1272;1946.89;555.925;2.1
1273;1944.45;565.935;2.1
1274;1986.26;597.43;2.1
1275;2006.1;571.795;2.1
1276;2015.86;561.785;2.1
1277;2010.98;567.888;2.1
1278;1988.7;577.654;2.1
1279;1961.54;593.524;2.1
1280;1988.7;585.467;2.1
1281;2033.26;552.019;2.1
1282;2053.09;579.608;2.1
1283;2062.86;589.618;2.1
1284;2045.77;538.102;2.1
1285;2013.42;569.842;2.1
1286;1986.26;575.701;2.11
1287;2008.54;581.561;2.11
1288;2028.37;565.935;2.11
1289;2033.26;559.832;2.11
1290;2028.37;563.738;2.11
1291;1998.77;591.571;2.11
1292;1956.66;561.785;2.11
1293;1949.33;557.878;2.11
1294;1993.89;605.243;2.11
1295;2013.42;571.795;2.11
1296;2021.05;563.738;2.11
1297;2021.05;563.738;2.11
1298;1996.33;579.608;2.11
1299;1966.73;585.467;2.11
1300;1991.45;583.514;2.11
1301;2038.14;555.925;2.12
1302;2057.98;583.514;2.12
1303;2065.3;585.467;2.12
1304;2055.54;542.009;2.12
1305;2018.61;569.842;2.12
1306;1993.89;577.654;2.12
1307;2013.42;583.514;2.12
1308;2030.82;567.888;2.12
1309;2038.14;555.925;2.12
1310;2030.82;565.935;2.12
1311;2001.21;587.42;2.12
1312;1959.1;557.878;2.12
1313;1949.33;561.785;2.12
1314;1993.89;603.29;2.12
1315;2015.86;573.748;2.12
1316;2025.93;563.738;2.13
1317;2023.49;563.738;2.13
1318;2001.21;575.701;2.13
1319;1971.61;587.42;2.13
1320;1993.89;579.608;2.13
1321;2040.58;555.925;2.13
1322;2062.86;589.618;2.13
1323;2070.19;579.608;2.13
1324;2060.42;546.159;2.13
1325;2025.93;569.842;2.13
1326;1996.33;577.654;2.13
1327;2015.86;583.514;2.13
1328;2038.14;565.935;2.13
1329;2040.58;552.019;2.13
1330;2040.58;569.842;2.13
1331;2008.54;587.42;2.13
1332;1966.73;552.019;2.14
1333;1956.66;565.935;2.14
1334;1996.33;597.43;2.14
1335;2018.61;569.842;2.14
1336;2028.37;561.785;2.14
1337;2028.37;567.888;2.14
1338;2003.65;583.514;2.14
1339;1974.05;573.748;2.14
1340;1996.33;591.571;2.14
1341;2045.77;546.159;2.14
1342;2062.86;571.795;2.14
1343;2072.93;599.384;2.14
1344;2065.3;536.149;2.14
1345;2028.37;569.842;2.14
1346;2001.21;565.935;2.14
1347;2018.61;581.561;2.15
1348;2040.58;563.738;2.15
1349;2050.65;565.935;2.15
1350;2045.77;553.972;2.15
1351;2015.86;601.337;2.15
1352;1974.05;573.748;2.15
1353;1961.54;548.112;2.15
1354;2003.65;611.347;2.15
1355;2025.93;571.795;2.15
1356;2033.26;571.795;2.15
1357;2035.7;561.785;2.15
1358;2010.98;577.654;2.15
1359;1981.38;575.701;2.15
1360;2006.1;591.571;2.15
1361;2053.09;548.112;2.15
1362;2072.93;571.795;2.16
1363;2082.7;593.524;2.16
1364;2075.37;534.196;2.16
1365;2038.14;567.888;2.16
1366;2010.98;571.795;2.16
1367;2028.37;583.514;2.16
1368;2048.21;563.738;2.16
1369;2055.54;563.738;2.16
1370;2050.65;557.878;2.16
1371;2021.05;595.477;2.16
1372;1981.38;567.888;2.16
1373;1966.73;552.019;2.16
1374;2006.1;611.347;2.16
1375;2033.26;571.795;2.16
1376;2040.58;569.842;2.16
1377;2040.58;563.738;2.17
1378;2018.61;577.654;2.17
1379;1986.26;581.561;2.17
1380;2006.1;589.618;2.17
1381;2055.54;548.112;2.17
1382;2077.81;573.748;2.17
1383;2085.14;591.571;2.17
1384;2075.37;536.149;2.17
1385;2043.02;569.842;2.17
1386;2013.42;571.795;2.17
1387;2028.37;581.561;2.17
1388;2053.09;565.935;2.17
1389;2057.98;559.832;2.17
1390;2053.09;561.785;2.17
1391;2025.93;593.524;2.17
1392;1983.82;565.935;2.17
1393;1966.73;552.019;2.18
1394;2010.98;609.149;2.18
1395;2033.26;571.795;2.18
1396;2045.77;567.888;2.18
1397;2043.02;563.738;2.18
1398;2023.49;577.654;2.18
1399;1993.89;581.561;2.18
1400;2008.54;583.514;2.18
1401;2062.86;552.019;2.18
1402;2085.14;581.561;2.18
1403;2094.91;587.42;2.18
1404;2075.37;540.056;2.18
1405;2043.02;569.842;2.18
1406;2015.86;573.748;2.18
1407;2040.58;579.608;2.18
1408;2057.98;567.888;2.19
1409;2062.86;557.878;2.19
1410;2060.42;563.738;2.19
1411;2025.93;587.42;2.19
1412;1986.26;559.832;2.19
1413;1983.82;557.878;2.19
1414;2023.49;603.29;2.19
1415;2043.02;571.795;2.19
1416;2053.09;563.738;2.19
1417;2048.21;563.738;2.19
1418;2023.49;575.701;2.19
1419;1993.89;585.467;2.19
1420;2023.49;579.608;2.19
1421;2070.19;555.925;2.19
1422;2090.02;585.467;2.19
1423;2100.09;583.514;2.2
1424;2085.14;544.206;2.2
1425;2050.65;571.795;2.2
1426;2025.93;577.654;2.2
1427;2045.77;579.608;2.2
1428;2065.3;567.888;2.2
1429;2070.19;555.925;2.2
1430;2065.3;567.888;2.2
1431;2033.26;587.42;2.2
1432;1993.89;555.925;2.2
1433;1986.26;559.832;2.2
1434;2028.37;601.337;2.2
1435;2053.09;569.842;2.2
1436;2060.42;561.785;2.2
1437;2057.98;563.738;2.2
1438;2035.7;577.654;2.2
1439;2006.1;589.618;2.21
1440;2030.82;579.608;2.21
1441;2077.81;555.925;2.21
1442;2094.91;589.618;2.21
1443;2107.42;575.701;2.21
1444;2092.46;548.112;2.21
1445;2055.54;569.842;2.21
1446;2030.82;579.608;2.21
1447;2053.09;579.608;2.21
1448;2072.93;565.935;2.21
1449;2077.81;550.066;2.21
1450;2072.93;571.795;2.21
1451;2040.58;583.514;2.21
1452;2001.21;550.066;2.21
1453;1993.89;567.888;2.21
1454;2035.7;597.43;2.22
1455;2060.42;573.748;2.22
1456;2067.74;573.748;2.22
1457;2065.3;559.832;2.22
1458;2043.02;579.608;2.22
1459;2013.42;573.748;2.22
1460;2038.14;589.618;2.22
1461;2085.14;544.206;2.22
1462;2109.86;569.842;2.22
1463;2117.18;597.43;2.22
1464;2102.53;534.196;2.22
1465;2067.74;569.842;2.22
1466;2038.14;569.842;2.22
1467;2060.42;579.608;2.22
1468;2080.26;561.785;2.23
1469;2087.58;563.738;2.23
1470;2082.7;553.972;2.23
1471;2053.09;597.43;2.23
1472;2008.54;569.842;2.23
1473;2001.21;548.112;2.23
1474;2043.02;609.149;2.23
1475;2065.3;571.795;2.23
1476;2075.37;571.795;2.23
1477;2072.93;563.738;2.23
1478;2048.21;577.654;2.23
1479;2018.61;579.608;2.23
1480;2043.02;589.618;2.23
1481;2092.46;548.112;2.23
1482;2112.3;573.748;2.24
1483;2119.63;591.571;2.24
1484;2107.42;534.196;2.24
1485;2072.93;569.842;2.24
1486;2043.02;569.842;2.24
1487;2062.86;579.608;2.24
1488;2087.58;563.738;2.24
1489;2090.02;563.738;2.24
1490;2090.02;557.878;2.24
1491;2057.98;593.524;2.24
1492;2013.42;567.888;2.24
1493;2001.21;550.066;2.24
1494;2043.02;609.149;2.24
1495;2065.3;571.795;2.24
1496;2075.37;567.888;2.25
1497;2072.93;561.785;2.25
1498;2048.21;575.701;2.25
1499;2018.61;581.561;2.25
1500;2043.02;587.42;2.25
1501;2090.02;550.066;2.25
1502;2114.74;577.654;2.25
1503;2124.51;585.467;2.25
1504;2114.74;536.149;2.25
1505;2077.81;569.842;2.25
1506;2048.21;571.795;2.25
1507;2065.3;581.561;2.25
1508;2092.46;563.738;2.25
1509;2094.91;557.878;2.26
1510;2092.46;559.832;2.26
1511;2062.86;591.571;2.26
1512;2021.05;561.785;2.26
1513;2006.1;552.019;2.26
1514;2050.65;605.243;2.26
1515;2072.93;571.795;2.26
1516;2082.7;565.935;2.26
1517;2080.26;561.785;2.26
1518;2057.98;575.701;2.26
1519;2028.37;583.514;2.26
1520;2048.21;583.514;2.26
1521;2100.09;552.019;2.26
1522;2119.63;583.514;2.26
1523;2132.14;585.467;2.27
1524;2119.63;540.056;2.27
1525;2085.14;569.842;2.27
1526;2053.09;575.701;2.27
1527;2070.19;577.654;2.27
1528;2094.91;565.935;2.27
1529;2097.35;553.972;2.27
1530;2094.91;561.785;2.27
1531;2065.3;585.467;2.27
1532;2023.49;555.925;2.27
1533;2008.54;557.878;2.27
1534;2053.09;601.337;2.27
1535;2080.26;569.842;2.27
1536;2087.58;563.738;2.28
1537;2085.14;561.785;2.28
1538;2062.86;575.701;2.28
1539;2030.82;587.42;2.28
1540;2048.21;581.561;2.28
1541;2097.35;553.972;2.28
1542;2122.07;585.467;2.28
1543;2134.58;579.608;2.28
1544;2124.51;542.009;2.28
1545;2092.46;569.842;2.28
1546;2055.54;575.701;2.28
1547;2072.93;579.608;2.28
1548;2100.09;565.935;2.28
1549;2102.53;552.019;2.29
1550;2100.09;569.842;2.29
1551;2070.19;583.514;2.29
1552;2030.82;552.019;2.29
1553;2013.42;563.738;2.29
1554;2055.54;597.43;2.29
1555;2077.81;571.795;2.29
1556;2090.02;559.832;2.29
1557;2087.58;563.738;2.29
1558;2067.74;573.748;2.29
1559;2033.26;589.618;2.29
1560;2050.65;573.748;2.29
1561;2102.53;555.925;2.3
1562;2124.51;593.524;2.3
1563;2134.58;575.701;2.3
1564;2127.25;548.112;2.3
1565;2092.46;567.888;2.3
1566;2060.42;577.654;2.3
1567;2072.93;579.608;2.3
1568;2100.09;567.888;2.3
1569;2104.98;548.112;2.3
1570;2104.98;571.795;2.3
1571;2075.37;583.514;2.3
1572;2033.26;559.832;2.3
1573;2013.42;555.925;2.3
1574;2057.98;605.243;2.31
1575;2085.14;567.888;2.31
1576;2094.91;563.738;2.31
1577;2094.91;561.785;2.31
1578;2075.37;575.701;2.31
1579;2043.02;583.514;2.31
1580;2055.54;581.561;2.31
1581;2107.42;552.019;2.31
1582;2129.7;583.514;2.31
1583;2144.34;583.514;2.31
1584;2132.14;538.102;2.31
1585;2100.09;569.842;2.31
1586;2067.74;575.701;2.32
1587;2080.26;577.654;2.32
1588;2104.98;563.738;2.32
1589;2112.3;555.925;2.32
1590;2109.86;563.738;2.32
1591;2080.26;587.42;2.32
1592;2040.58;555.925;2.32
1593;2018.61;559.832;2.32
1594;2060.42;601.337;2.32
1595;2087.58;569.842;2.32
1596;2094.91;563.738;2.32
1597;2097.35;561.785;2.32
1598;2072.93;573.748;2.33
1599;2040.58;587.42;2.33
1600;2053.09;577.654;2.33
1601;2104.98;553.972;2.33
1602;2132.14;587.42;2.33
1603;2141.9;577.654;2.33
1604;2134.58;542.009;2.33
1605;2102.53;569.842;2.33
1606;2065.3;577.654;2.33
1607;2077.81;577.654;2.33
1608;2104.98;565.935;2.33
1609;2112.3;548.112;2.33
1610;2107.42;565.935;2.34
1611;2082.7;583.514;2.34
1612;2040.58;552.019;2.34
1613;2021.05;561.785;2.34
1614;2060.42;599.384;2.34
1615;2090.02;569.842;2.34
1616;2100.09;559.832;2.34
1617;2097.35;561.785;2.34
1618;2080.26;571.795;2.34
1619;2048.21;589.618;2.34
1620;2057.98;577.654;2.34
1621;2107.42;555.925;2.34
1622;2132.14;589.618;2.35
1623;2146.79;575.701;2.35
1624;2139.46;548.112;2.35
1625;2107.42;569.842;2.35
1626;2072.93;579.608;2.35
1627;2080.26;577.654;2.35
1628;2107.42;567.888;2.35
1629;2114.74;546.159;2.35
1630;2112.3;569.842;2.35
1631;2087.58;597.43;2.35
1632;2045.77;569.842;2.35
1633;2018.61;544.206;2.35
1634;2060.42;609.149;2.36
1635;2087.58;571.795;2.36
1636;2102.53;569.842;2.36
1637;2104.98;557.878;2.36
1638;2082.7;577.654;2.36
1639;2048.21;571.795;2.36
1640;2055.54;587.42;2.36
1641;2109.86;542.009;2.36
1642;2137.02;571.795;2.36
1643;2151.67;591.571;2.36
1644;2144.34;532.243;2.36
1645;2109.86;567.888;2.37
1646;2072.93;567.888;2.37
1647;2080.26;579.608;2.37
1648;2109.86;557.878;2.37
1649;2117.18;561.785;2.37
1650;2117.18;553.972;2.37
1651;2092.46;595.477;2.37
1652;2045.77;565.935;2.37
1653;2023.49;548.112;2.37
1654;2062.86;609.149;2.37
1655;2092.46;567.888;2.37
1656;2104.98;565.935;2.37
1657;2107.42;559.832;2.38
1658;2087.58;575.701;2.38
1659;2055.54;577.654;2.38
1660;2062.86;585.467;2.38
1661;2114.74;544.206;2.38
1662;2139.46;573.748;2.38
1663;2151.67;589.618;2.38
1664;2146.79;532.243;2.38
1665;2117.18;567.888;2.38
1666;2080.26;571.795;2.38
1667;2087.58;577.654;2.38
1668;2117.18;563.738;2.39
