<WeldAnalyseData xmlns:i="http:www.w3.org/2001/XMLSchema-instance">
<WeldParameter>
<TimeStamp>DT#2024-01-24-14:02:27</TimeStamp>
<Generator>SG-22-10000</Generator>
<GenFreq>20</GenFreq>
<MaxForce>8000</MaxForce>
<MaxPower>10000</MaxPower>
<RunupPressure>1.5</RunupPressure>
<RunupDist>10</RunupDist>
<RunPress>0.8</RunPress>
<ShakeDelay>0.03</ShakeDelay>
<ShakeTime>0.3</ShakeTime>
<RunBackPress1>6</RunBackPress1>
<RunBackPress2>2</RunBackPress2>
<RunBackDist>1</RunBackDist>
<TrigValue>500</TrigValue>
<TrigModeUnit>W</TrigModeUnit>
<WeldModeUnit>Ws</WeldModeUnit>
<PressNr>0</PressNr>
<MaxLoss>1500</MaxLoss>
</WeldParameter>
<WeldSets>
<WeldSet>
<PressRiseTime>0</PressRiseTime>
<RunPressure>1</RunPressure>
<Amplitude>86</Amplitude>
<WeldMode>3270</WeldMode>
</WeldSet>
</WeldSets>
<WeldValue>
<WeldNr>2959</WeldNr>
<RecipeName>RickStyle</RecipeName>
<WeldTime>1680</WeldTime>
<DistDiff>2.35</DistDiff>
<DistAbs>78.09</DistAbs>
<Energy>3271.72</Energy>
<MaxPower>2145.7</MaxPower>
<CycleTime>6060</CycleTime>
<TrigForce>500.748</TrigForce>
<TrigDist>75.74</TrigDist>
<RunSpeed>68.7296</RunSpeed>
<MaxForce>621.113</MaxForce>
<LossPower>328.131</LossPower>
</WeldValue>
</WeldAnalyseData>
#CSV-START#
ms;Power[W];Force[N];Distance[mm]
1;0;0;0
2;0;500.748;0
3;0;504.654;0
4;0;506.607;0
5;0;504.654;0
6;0;504.654;0
7;0;502.701;0
8;0;475.112;0
9;0;423.597;0.0100021
10;0;401.868;0.0400009
11;0;364.513;0.0699997
12;24.6628;352.55;0.110001
13;84.1739;326.914;0.150002
14;163.217;314.951;0.190002
15;239.513;287.362;0.240005
16;306.349;303.232;0.290001
17;358.23;281.503;0.340004
18;410.112;259.774;0.389999
19;474.2;307.138;0.440002
20;548.36;295.419;0.480003
21;619.774;293.222;0.520004
22;681.726;297.372;0.560005
23;750.698;319.102;0.580002
24;814.787;326.914;0.610001
25;881.622;352.55;0.630005
26;960.665;344.737;0.639999
27;1032.08;354.503;0.660004
28;1088.84;396.008;0.660004
29;1145.91;378.185;0.670006
30;1177.96;388.195;0.68
31;1190.16;403.821;0.68
32;1214.88;417.737;0.68
33;1257;407.971;0.68
34;1289.04;415.784;0.690002
35;1318.65;396.008;0.690002
36;1340.93;427.503;0.700005
37;1343.37;425.55;0.700005
38;1345.81;396.008;0.709999
39;1382.74;431.654;0.709999
40;1439.5;431.654;0.720001
41;1476.73;429.456;0.720001
42;1508.78;415.784;0.730003
43;1528.61;437.513;0.740005
44;1531.06;431.654;0.740005
45;1545.71;455.336;0.75
46;1600.03;425.55;0.75
47;1649.47;431.654;0.760002
48;1686.4;465.102;0.760002
49;1711.12;421.644;0.770004
50;1716;431.654;0.779999
51;1703.79;433.607;0.779999
52;1708.67;451.186;0.790001
53;1753.23;431.654;0.790001
54;1782.83;441.42;0.800003
55;1810;419.691;0.810005
56;1817.32;463.149;0.82
57;1800.23;453.383;0.82
58;1785.28;423.597;0.830002
59;1812.44;475.112;0.840004
60;1864.32;467.055;0.840004
61;1891.48;469.008;0.849998
62;1911.32;453.383;0.849998
63;1913.76;477.065;0.849998
64;1896.36;469.008;0.860001
65;1893.92;494.644;0.860001
66;1945.8;457.289;0.870003
67;1995.24;469.008;0.870003
68;2019.96;506.607;0.880005
69;2037.05;453.383;0.880005
70;2022.4;470.962;0.880005
71;1990.36;472.915;0.889999
72;1985.17;490.738;0.889999
73;2019.96;467.055;0.900002
74;2041.94;482.925;0.900002
75;2054.45;459.243;0.900002
76;2047.12;508.56;0.910004
77;2014.77;490.738;0.910004
78;1977.85;457.289;0.910004
79;1997.68;512.467;0.920006
80;2039.49;496.597;0.920006
81;2064.21;500.748;0.93
82;2074.29;482.925;0.93
83;2064.21;506.607;0.93
84;2039.49;496.597;0.940002
85;2022.4;522.477;0.940002
86;2071.84;475.112;0.950005
87;2113.65;496.597;0.950005
88;2135.93;532.243;0.950005
89;2140.82;475.112;0.959999
90;2120.98;498.795;0.959999
91;2084.05;498.795;0.959999
92;2069.1;518.326;0.970001
93;2096.26;492.691;0.970001
94;2116.1;506.607;0.970001
95;2123.42;484.878;0.980003
96;2108.77;536.149;0.980003
97;2071.84;510.514;0.980003
98;2027.29;480.972;0.990005
99;2041.94;536.149;0.990005
100;2081.61;514.42;0.990005
101;2101.45;516.373;0.990005
102;2106.33;502.701;1
103;2093.82;526.383;1
104;2061.77;514.42;1
105;2041.94;536.149;1.01
106;2084.05;490.738;1.01
107;2123.42;514.42;1.01
108;2143.26;544.206;1.02
109;2145.7;484.878;1.02
110;2123.42;512.467;1.02
111;2081.61;512.467;1.03
112;2064.21;526.383;1.03
113;2088.93;506.607;1.03
114;2106.33;516.373;1.03
115;2111.21;498.795;1.04
116;2099.01;546.159;1.04
117;2056.89;520.524;1.04
118;2007.45;492.691;1.04
119;2041.94;552.019;1.05
120;2069.1;522.477;1.05
121;2081.61;524.43;1.05
122;2084.05;514.42;1.05
123;2061.77;534.196;1.06001
124;2027.29;524.43;1.06001
125;2032.17;544.206;1.06001
126;2079.17;498.795;1.06001
127;2108.77;524.43;1.07
128;2123.42;550.066;1.07
129;2118.54;492.691;1.07
130;2084.05;524.43;1.07
131;2049.57;524.43;1.08
132;2049.57;536.149;1.08
133;2074.29;512.467;1.08
134;2084.05;524.43;1.08
135;2081.61;506.607;1.09
136;2059.33;552.019;1.09
137;2014.77;530.29;1.09
138;1980.29;496.597;1.09
139;2014.77;553.972;1.1
140;2044.68;532.243;1.1
141;2056.89;536.149;1.1
142;2056.89;520.524;1.1
143;2037.05;542.009;1.1
144;2007.45;532.243;1.11
145;2005.01;553.972;1.11
146;2052.01;504.654;1.11
147;2079.17;528.336;1.11
148;2091.38;561.785;1.11
149;2084.05;506.607;1.12
150;2056.89;528.336;1.12
151;2019.96;524.43;1.12
152;2019.96;542.009;1.12
153;2044.68;522.477;1.12
154;2054.45;530.29;1.13
155;2056.89;512.467;1.13
156;2032.17;559.832;1.13
157;1987.61;536.149;1.13
158;1953.13;504.654;1.13
159;1985.17;563.738;1.14
160;2014.77;538.102;1.14
161;2024.85;538.102;1.14
162;2024.85;524.43;1.14
163;2007.45;546.159;1.14
164;1975.41;536.149;1.15
165;1972.96;559.832;1.15
166;2022.4;510.514;1.15
167;2047.12;536.149;1.15
168;2064.21;567.888;1.15
169;2061.77;508.56;1.15
170;2027.29;536.149;1.16
171;1990.36;536.149;1.16
172;1990.36;548.112;1.16
173;2014.77;526.383;1.16
174;2024.85;538.102;1.16
175;2024.85;518.326;1.17001
176;2005.01;569.842;1.17001
177;1960.45;544.206;1.17001
178;1930.85;516.373;1.17001
179;1960.45;573.748;1.17001
180;1992.8;544.206;1.17001
181;2002.57;544.206;1.18
182;2007.45;534.196;1.18
183;1990.36;550.066;1.18
184;1958.01;544.206;1.18
185;1955.57;561.785;1.18
186;2007.45;518.326;1.19
187;2032.17;544.206;1.19
188;2049.57;569.842;1.19
189;2044.68;510.514;1.19
190;2017.52;534.196;1.19
191;1980.29;538.102;1.19
192;1977.85;553.972;1.2
193;2002.57;536.149;1.2
194;2014.77;538.102;1.2
195;2012.33;516.373;1.2
196;1995.24;553.972;1.2
197;1950.69;550.066;1.2
198;1921.08;514.42;1.21
199;1945.8;559.832;1.21
200;1975.41;557.878;1.21
201;1987.61;552.019;1.21
202;1990.36;534.196;1.21
203;1972.96;557.878;1.21
204;1940.92;548.112;1.22
205;1940.92;573.748;1.22
206;1990.36;540.056;1.22
207;2014.77;544.206;1.22
208;2034.61;581.561;1.22
209;2032.17;534.196;1.22
210;2005.01;538.102;1.22
211;1970.52;542.009;1.23
212;1965.64;559.832;1.23
213;1990.36;538.102;1.23
214;1997.68;546.159;1.23
215;1997.68;522.477;1.23
216;1982.73;567.888;1.23
217;1940.92;553.972;1.24001
218;1908.88;520.524;1.24001
219;1933.29;567.888;1.24001
220;1963.2;557.878;1.24001
221;1975.41;557.878;1.24001
222;1980.29;538.102;1.24001
223;1963.2;565.935;1.24001
224;1930.85;550.066;1.25
225;1925.97;575.701;1.25
226;1972.96;538.102;1.25
227;2002.57;548.112;1.25
228;2014.77;585.467;1.25
229;2014.77;534.196;1.25
230;1987.61;544.206;1.25
231;1953.13;544.206;1.26
232;1948.24;563.738;1.26
233;1975.41;542.009;1.26
234;1982.73;552.019;1.26
235;1985.17;528.336;1.26
236;1965.64;573.748;1.26
237;1930.85;555.925;1.26
238;1896.36;520.524;1.27
239;1921.08;573.748;1.27
240;1950.69;559.832;1.27
241;1960.45;561.785;1.27
242;1965.64;544.206;1.27
243;1953.13;567.888;1.27
244;1921.08;553.972;1.27
245;1913.76;579.608;1.28
246;1963.2;536.149;1.28
247;1992.8;550.066;1.28
248;2007.45;585.467;1.28
249;2007.45;530.29;1.28
250;1977.85;553.972;1.28
251;1943.36;548.112;1.28
252;1940.92;567.888;1.29
253;1968.08;546.159;1.29
254;1977.85;553.972;1.29
255;1982.73;534.196;1.29
256;1965.64;583.514;1.29
257;1925.97;561.785;1.29
258;1891.48;526.383;1.29
259;1913.76;581.561;1.29
260;1945.8;563.738;1.3
261;1958.01;561.785;1.3
262;1960.45;546.159;1.3
263;1948.24;569.842;1.3
264;1916.2;559.832;1.3
265;1908.88;581.561;1.3
266;1955.57;534.196;1.3
267;1985.17;555.925;1.31001
268;2000.13;589.618;1.31001
269;2000.13;534.196;1.31001
270;1975.41;553.972;1.31001
271;1940.92;553.972;1.31001
272;1933.29;571.795;1.31001
273;1958.01;548.112;1.31001
274;1970.52;557.878;1.31001
275;1970.52;540.056;1.31001
276;1955.57;587.42;1.32
277;1921.08;563.738;1.32
278;1886.6;536.149;1.32
279;1903.69;593.524;1.32
280;1938.48;567.888;1.32
281;1953.13;563.738;1.32
282;1955.57;552.019;1.32
283;1943.36;571.795;1.32
284;1916.2;563.738;1.33
285;1906.13;587.42;1.33
286;1953.13;538.102;1.33
287;1980.29;561.785;1.33
288;1997.68;591.571;1.33
289;2000.13;532.243;1.33
290;1975.41;563.738;1.33
291;1940.92;561.785;1.33
292;1930.85;573.748;1.34
293;1955.57;555.925;1.34
294;1968.08;563.738;1.34
295;1970.52;548.112;1.34
296;1953.13;593.524;1.34
297;1916.2;567.888;1.34
298;1881.71;542.009;1.34
299;1901.25;603.29;1.34
300;1936.04;571.795;1.34
301;1948.24;569.842;1.35
302;1950.69;557.878;1.35
303;1940.92;577.654;1.35
304;1911.32;569.842;1.35
305;1903.69;593.524;1.35
306;1948.24;561.785;1.35
307;1977.85;563.738;1.35
308;1992.8;599.384;1.35
309;1995.24;559.832;1.36
310;1972.96;561.785;1.36
311;1936.04;563.738;1.36
312;1928.41;581.561;1.36
313;1953.13;563.738;1.36
314;1963.2;567.888;1.36
315;1970.52;544.206;1.36
316;1953.13;585.467;1.36
317;1916.2;577.654;1.36
318;1884.16;542.009;1.37
319;1901.25;585.467;1.37
320;1933.29;583.514;1.37
321;1945.8;579.608;1.37
322;1953.13;561.785;1.37
323;1943.36;583.514;1.37
324;1911.32;575.701;1.37
325;1903.69;599.384;1.37
326;1945.8;561.785;1.37
327;1980.29;569.842;1.38
328;1997.68;607.196;1.38
329;1997.68;559.832;1.38
330;1975.41;569.842;1.38
331;1943.36;565.935;1.38
332;1930.85;583.514;1.38
333;1955.57;565.935;1.38
334;1965.64;575.701;1.38
335;1968.08;552.019;1.38
336;1958.01;593.524;1.39
337;1918.64;581.561;1.39
338;1884.16;546.159;1.39
339;1901.25;597.43;1.39
340;1933.29;585.467;1.39
341;1948.24;583.514;1.39
342;1953.13;565.935;1.39
343;1943.36;587.42;1.39
344;1916.2;577.654;1.39
345;1903.69;601.337;1.39
346;1943.36;561.785;1.4
347;1975.41;571.795;1.4
348;1992.8;609.149;1.4
349;1995.24;553.972;1.4
350;1970.52;571.795;1.4
351;1938.48;569.842;1.4
352;1925.97;587.42;1.4
353;1953.13;565.935;1.4
354;1963.2;579.608;1.4
355;1968.08;555.925;1.41
356;1955.57;603.29;1.41
357;1916.2;583.514;1.41
358;1884.16;548.112;1.41
359;1898.8;603.29;1.41
360;1933.29;587.42;1.41
361;1945.8;585.467;1.41
362;1950.69;569.842;1.41
363;1940.92;593.524;1.41
364;1911.32;579.608;1.41
365;1901.25;605.243;1.42001
366;1940.92;557.878;1.42001
367;1975.41;577.654;1.42001
368;1987.61;611.347;1.42001
369;1992.8;553.972;1.42001
370;1975.41;575.701;1.42001
371;1936.04;575.701;1.42001
372;1923.52;589.618;1.42001
373;1948.24;569.842;1.42001
374;1958.01;579.608;1.42001
375;1960.45;559.832;1.43
376;1950.69;607.196;1.43
377;1913.76;583.514;1.43
378;1874.08;552.019;1.43
379;1891.48;609.149;1.43
380;1925.97;583.514;1.43
381;1940.92;585.467;1.43
382;1950.69;569.842;1.43
383;1938.48;591.571;1.43
384;1911.32;579.608;1.43
385;1898.8;601.337;1.43
386;1936.04;557.878;1.44
387;1972.96;577.654;1.44
388;1985.17;613.3;1.44
389;1990.36;553.972;1.44
390;1970.52;577.654;1.44
391;1936.04;575.701;1.44
392;1923.52;593.524;1.44
393;1948.24;573.748;1.44
394;1958.01;577.654;1.44
395;1963.2;559.832;1.44
396;1950.69;611.347;1.44
397;1916.2;583.514;1.45
398;1878.97;553.972;1.45
399;1893.92;617.206;1.45
400;1928.41;583.514;1.45
401;1943.36;583.514;1.45
402;1950.69;571.795;1.45
403;1943.36;593.524;1.45
404;1913.76;581.561;1.45
405;1896.36;601.337;1.45
406;1938.48;555.925;1.45
407;1970.52;579.608;1.45
408;1985.17;607.196;1.46
409;1990.36;550.066;1.46
410;1970.52;579.608;1.46
411;1936.04;579.608;1.46
412;1923.52;591.571;1.46
413;1945.8;571.795;1.46
414;1963.2;575.701;1.46
415;1963.2;565.935;1.46
416;1940.92;609.149;1.46
417;1901.25;583.514;1.46
418;1874.08;553.972;1.46
419;1906.13;609.149;1.47
420;1930.85;587.42;1.47
421;1945.8;587.42;1.47
422;1945.8;571.795;1.47
423;1930.85;591.571;1.47
424;1901.25;579.608;1.47
425;1906.13;605.243;1.47
426;1955.57;557.878;1.47
427;1977.85;577.654;1.47
428;1992.8;613.3;1.47
429;1990.36;555.925;1.47
430;1958.01;575.701;1.47
431;1928.41;571.795;1.48
432;1933.29;591.571;1.48
433;1955.57;569.842;1.48
434;1963.2;579.608;1.48
435;1963.2;559.832;1.48
436;1940.92;607.196;1.48
437;1903.69;585.467;1.48
438;1876.53;552.019;1.48
439;1906.13;611.347;1.48
440;1933.29;583.514;1.48
441;1943.36;585.467;1.48
442;1948.24;571.795;1.48
443;1930.85;589.618;1.48
444;1898.8;581.561;1.49001
445;1903.69;603.29;1.49001
446;1950.69;557.878;1.49001
447;1975.41;579.608;1.49001
448;1987.61;609.149;1.49001
449;1985.17;552.019;1.49001
450;1958.01;579.608;1.49001
451;1923.52;577.654;1.49001
452;1925.97;591.571;1.49001
453;1953.13;569.842;1.49001
454;1960.45;577.654;1.49001
455;1960.45;563.738;1.49001
456;1943.36;609.149;1.5
457;1903.69;579.608;1.5
458;1874.08;553.972;1.5
459;1906.13;615.253;1.5
460;1930.85;581.561;1.5
461;1943.36;581.561;1.5
462;1945.8;571.795;1.5
463;1930.85;593.524;1.5
464;1898.8;583.514;1.5
465;1898.8;601.337;1.5
466;1950.69;553.972;1.5
467;1977.85;579.608;1.5
468;1992.8;607.196;1.5
469;1990.36;546.159;1.51
470;1963.2;579.608;1.51
471;1930.85;577.654;1.51
472;1930.85;589.618;1.51
473;1955.57;571.795;1.51
474;1963.2;577.654;1.51
475;1965.64;553.972;1.51
476;1945.8;595.477;1.51
477;1906.13;589.618;1.51
478;1874.08;552.019;1.51
479;1908.88;595.477;1.51
480;1936.04;589.618;1.51
481;1948.24;587.42;1.52
482;1953.13;569.842;1.52
483;1936.04;593.524;1.52
484;1906.13;581.561;1.52
485;1903.69;605.243;1.52
486;1955.57;571.795;1.52
487;1977.85;575.701;1.52
488;1992.8;611.347;1.52
489;1990.36;563.738;1.52
490;1960.45;573.748;1.52
491;1928.41;573.748;1.52
492;1930.85;593.524;1.52
493;1958.01;569.842;1.52
494;1965.64;577.654;1.53
495;1968.08;552.019;1.53
496;1948.24;599.384;1.53
497;1908.88;585.467;1.53
498;1878.97;550.066;1.53
499;1911.32;597.43;1.53
500;1936.04;589.618;1.53
501;1950.69;585.467;1.53
502;1953.13;569.842;1.53
503;1940.92;591.571;1.53
504;1911.32;579.608;1.53
505;1911.32;609.149;1.53
506;1958.01;565.935;1.53
507;1985.17;579.608;1.53
508;2000.13;613.3;1.54
509;1997.68;561.785;1.54
510;1970.52;575.701;1.54
511;1936.04;575.701;1.54
512;1936.04;593.524;1.54
513;1963.2;569.842;1.54
514;1970.52;581.561;1.54
515;1975.41;555.925;1.54
516;1955.57;605.243;1.54
517;1913.76;587.42;1.54
518;1886.6;550.066;1.54
519;1913.76;603.29;1.54
520;1940.92;587.42;1.54
521;1955.57;589.618;1.55
522;1958.01;571.795;1.55
523;1943.36;593.524;1.55
524;1913.76;581.561;1.55
525;1908.88;609.149;1.55
526;1958.01;561.785;1.55
527;1985.17;577.654;1.55
528;1997.68;611.347;1.55
529;2000.13;557.878;1.55
530;1975.41;577.654;1.55
531;1940.92;575.701;1.55
532;1938.48;593.524;1.55
533;1963.2;569.842;1.55
534;1972.96;579.608;1.56001
535;1975.41;559.832;1.56001
536;1955.57;609.149;1.56001
537;1916.2;585.467;1.56001
538;1884.16;550.066;1.56001
539;1913.76;607.196;1.56001
540;1943.36;585.467;1.56001
541;1955.57;587.42;1.56001
542;1958.01;573.748;1.56001
543;1945.8;591.571;1.56001
544;1916.2;581.561;1.56001
545;1911.32;603.29;1.56001
546;1958.01;557.878;1.56001
547;1987.61;577.654;1.57
548;2000.13;609.149;1.57
549;2002.57;552.019;1.57
550;1975.41;581.561;1.57
551;1943.36;577.654;1.57
552;1936.04;593.524;1.57
553;1963.2;571.795;1.57
554;1970.52;581.561;1.57
555;1972.96;559.832;1.57
556;1958.01;609.149;1.57
557;1918.64;583.514;1.57
558;1886.6;553.972;1.57
559;1908.88;613.3;1.57
560;1940.92;585.467;1.57
561;1953.13;583.514;1.58
562;1955.57;571.795;1.58
563;1938.48;593.524;1.58
564;1906.13;583.514;1.58
565;1913.76;603.29;1.58
566;1963.2;553.972;1.58
567;1985.17;581.561;1.58
568;2000.13;611.347;1.58
569;1995.24;548.112;1.58
570;1968.08;579.608;1.58
571;1936.04;577.654;1.58
572;1943.36;593.524;1.58
573;1963.2;571.795;1.58
574;1970.52;577.654;1.59
575;1972.96;563.738;1.59
576;1953.13;609.149;1.59
577;1911.32;583.514;1.59
578;1889.04;557.878;1.59
579;1921.08;621.113;1.59
580;1948.24;585.467;1.59
581;1955.57;583.514;1.59
582;1958.01;573.748;1.59
583;1943.36;589.618;1.59
584;1908.88;585.467;1.59
585;1916.2;601.337;1.59
586;1963.2;555.925;1.59
587;1992.8;575.701;1.59
588;2002.57;611.347;1.6
589;2000.13;569.842;1.6
590;1970.52;571.795;1.6
591;1938.48;573.748;1.6
592;1940.92;591.571;1.6
593;1965.64;573.748;1.6
594;1972.96;579.608;1.6
595;1972.96;555.925;1.6
596;1950.69;593.524;1.6
597;1911.32;583.514;1.6
598;1886.6;550.066;1.6
599;1921.08;597.43;1.6
600;1948.24;589.618;1.6
601;1960.45;591.571;1.6
602;1965.64;569.842;1.6
603;1948.24;595.477;1.61
604;1916.2;579.608;1.61
605;1921.08;607.196;1.61
606;1968.08;569.842;1.61
607;1992.8;577.654;1.61
608;2005.01;611.347;1.61
609;2002.57;565.935;1.61
610;1975.41;575.701;1.61
611;1940.92;573.748;1.61
612;1945.8;591.571;1.61
613;1968.08;569.842;1.61
614;1977.85;579.608;1.61
615;1977.85;553.972;1.61
616;1955.57;601.337;1.61
617;1913.76;587.42;1.62
618;1889.04;552.019;1.62
619;1921.08;601.337;1.62
620;1950.69;587.42;1.62
621;1960.45;587.42;1.62
622;1965.64;569.842;1.62
623;1948.24;595.477;1.62
624;1918.64;579.608;1.62
625;1918.64;609.149;1.62
626;1968.08;563.738;1.62
627;1995.24;577.654;1.62
628;2009.89;611.347;1.62
629;2005.01;559.832;1.62
630;1975.41;575.701;1.62
631;1943.36;573.748;1.62
632;1943.36;593.524;1.63
633;1970.52;569.842;1.63
634;1977.85;579.608;1.63
635;1980.29;557.878;1.63
636;1955.57;603.29;1.63
637;1916.2;583.514;1.63
638;1889.04;550.066;1.63
639;1918.64;607.196;1.63
640;1948.24;583.514;1.63
641;1960.45;587.42;1.63
642;1965.64;569.842;1.63
643;1948.24;593.524;1.63
644;1921.08;579.608;1.63
645;1918.64;605.243;1.63
646;1968.08;557.878;1.63
647;1992.8;575.701;1.64
648;2007.45;607.196;1.64
649;2007.45;552.019;1.64
650;1977.85;575.701;1.64
651;1940.92;573.748;1.64
652;1943.36;589.618;1.64
653;1970.52;567.888;1.64
654;1975.41;577.654;1.64
655;1982.73;559.832;1.64
656;1963.2;607.196;1.64
657;1918.64;583.514;1.64
658;1891.48;550.066;1.64
659;1921.08;609.149;1.64
660;1948.24;583.514;1.64
661;1960.45;583.514;1.64
662;1963.2;571.795;1.64
663;1948.24;589.618;1.65
664;1918.64;579.608;1.65
665;1921.08;601.337;1.65
666;1968.08;553.972;1.65
667;1992.8;577.654;1.65
668;2007.45;607.196;1.65
669;2002.57;548.112;1.65
670;1977.85;575.701;1.65
671;1943.36;577.654;1.65
672;1943.36;589.618;1.65
673;1968.08;569.842;1.65
674;1982.73;575.701;1.65
675;1977.85;559.832;1.65
676;1963.2;605.243;1.65
677;1923.52;581.561;1.65
678;1891.48;552.019;1.66
679;1918.64;615.253;1.66
680;1953.13;583.514;1.66
681;1960.45;581.561;1.66
682;1965.64;569.842;1.66
683;1950.69;587.42;1.66
684;1921.08;577.654;1.66
685;1918.64;599.384;1.66
686;1965.64;552.019;1.66
687;1995.24;577.654;1.66
688;2007.45;603.29;1.66
689;2007.45;544.206;1.66
690;1980.29;575.701;1.66
691;1945.8;577.654;1.66
692;1945.8;587.42;1.66
693;1972.96;565.935;1.66
694;1982.73;571.795;1.67001
695;1982.73;563.738;1.67001
696;1965.64;605.243;1.67001
697;1925.97;577.654;1.67001
698;1896.36;555.925;1.67001
699;1921.08;617.206;1.67001
700;1950.69;577.654;1.67001
701;1965.64;583.514;1.67001
702;1968.08;567.888;1.67001
703;1953.13;591.571;1.67001
704;1923.52;577.654;1.67001
705;1921.08;601.337;1.67001
706;1970.52;553.972;1.67001
707;2000.13;577.654;1.67001
708;2012.33;607.196;1.67001
709;2012.33;550.066;1.68
710;1985.17;575.701;1.68
711;1953.13;575.701;1.68
712;1948.24;587.42;1.68
713;1972.96;567.888;1.68
714;1980.29;575.701;1.68
715;1980.29;555.925;1.68
716;1963.2;605.243;1.68
717;1921.08;581.561;1.68
718;1893.92;550.066;1.68
719;1918.64;609.149;1.68
720;1948.24;581.561;1.68
721;1960.45;581.561;1.68
722;1965.64;567.888;1.68
723;1950.69;587.42;1.68
724;1923.52;577.654;1.69
725;1916.2;599.384;1.69
726;1963.2;553.972;1.69
727;1990.36;575.701;1.69
728;2005.01;603.29;1.69
729;2005.01;548.112;1.69
730;1977.85;575.701;1.69
731;1945.8;573.748;1.69
732;1938.48;587.42;1.69
733;1968.08;567.888;1.69
734;1980.29;573.748;1.69
735;1977.85;557.878;1.69
736;1963.2;603.29;1.69
737;1925.97;575.701;1.69
738;1891.48;553.972;1.69
739;1916.2;615.253;1.7
740;1945.8;579.608;1.7
741;1958.01;579.608;1.7
742;1963.2;567.888;1.7
743;1950.69;583.514;1.7
744;1918.64;579.608;1.7
745;1913.76;597.43;1.7
746;1963.2;552.019;1.7
747;1990.36;577.654;1.7
748;2007.45;601.337;1.7
749;2007.45;542.009;1.7
750;1982.73;575.701;1.7
751;1948.24;577.654;1.7
752;1943.36;587.42;1.7
753;1970.52;569.842;1.7
754;1980.29;569.842;1.7
755;1980.29;563.738;1.71
756;1965.64;601.337;1.71
757;1928.41;575.701;1.71
758;1896.36;546.159;1.71
759;1916.2;593.524;1.71
760;1950.69;587.42;1.71
761;1963.2;585.467;1.71
762;1970.52;567.888;1.71
763;1955.57;589.618;1.71
764;1925.97;579.608;1.71
765;1916.2;603.29;1.71
766;1963.2;565.935;1.71
767;1992.8;569.842;1.71
768;2007.45;609.149;1.71
769;2007.45;557.878;1.71
770;1987.61;571.795;1.71
771;1950.69;569.842;1.72
772;1943.36;585.467;1.72
773;1970.52;565.935;1.72
774;1980.29;575.701;1.72
775;1980.29;552.019;1.72
776;1968.08;599.384;1.72
777;1928.41;583.514;1.72
778;1893.92;546.159;1.72
779;1913.76;597.43;1.72
780;1948.24;583.514;1.72
781;1960.45;585.467;1.72
782;1970.52;565.935;1.72
783;1955.57;587.42;1.72
784;1928.41;575.701;1.72
785;1918.64;605.243;1.72
786;1963.2;563.738;1.73
787;1995.24;573.748;1.73
788;2007.45;607.196;1.73
789;2009.89;553.972;1.73
790;1987.61;569.842;1.73
791;1950.69;569.842;1.73
792;1945.8;589.618;1.73
793;1970.52;563.738;1.73
794;1982.73;575.701;1.73
795;1985.17;557.878;1.73
796;1972.96;599.384;1.73
797;1933.29;579.608;1.73
798;1898.8;546.159;1.73
799;1918.64;603.29;1.73
800;1950.69;581.561;1.73
801;1965.64;581.561;1.73
802;1970.52;565.935;1.74001
803;1958.01;587.42;1.74001
804;1930.85;575.701;1.74001
805;1918.64;601.337;1.74001
806;1968.08;553.972;1.74001
807;1995.24;575.701;1.74001
808;2012.33;607.196;1.74001
809;2014.77;552.019;1.74001
810;1990.36;573.748;1.74001
811;1955.57;571.795;1.74001
812;1950.69;587.42;1.74001
813;1975.41;563.738;1.74001
814;1987.61;573.748;1.74001
815;1990.36;555.925;1.74001
816;1975.41;605.243;1.74001
817;1936.04;579.608;1.75
818;1901.25;546.159;1.75
819;1921.08;607.196;1.75
820;1955.57;581.561;1.75
821;1965.64;579.608;1.75
822;1975.41;565.935;1.75
823;1963.2;587.42;1.75
824;1936.04;575.701;1.75
825;1923.52;597.43;1.75
826;1968.08;550.066;1.75
827;1997.68;573.748;1.75
828;2014.77;607.196;1.75
829;2017.52;546.159;1.75
830;1995.24;573.748;1.75
831;1958.01;571.795;1.75
832;1948.24;585.467;1.76
833;1972.96;565.935;1.76
834;1985.17;571.795;1.76
835;1985.17;557.878;1.76
836;1972.96;603.29;1.76
837;1938.48;577.654;1.76
838;1901.25;550.066;1.76
839;1918.64;609.149;1.76
840;1950.69;579.608;1.76
841;1963.2;577.654;1.76
842;1972.96;567.888;1.76
843;1958.01;585.467;1.76
844;1930.85;577.654;1.76
845;1918.64;595.477;1.76
846;1960.45;550.066;1.76
847;1992.8;575.701;1.76
848;2007.45;601.337;1.77
849;2012.33;542.009;1.77
850;1990.36;575.701;1.77
851;1953.13;575.701;1.77
852;1943.36;585.467;1.77
853;1972.96;569.842;1.77
854;1982.73;569.842;1.77
855;1987.61;561.785;1.77
856;1958.01;603.29;1.77
857;1918.64;573.748;1.77
858;1901.25;552.019;1.77
859;1930.85;611.347;1.77
860;1958.01;581.561;1.77
861;1968.08;575.701;1.77
862;1968.08;569.842;1.77
863;1950.69;585.467;1.77
864;1918.64;579.608;1.78
865;1928.41;593.524;1.78
866;1977.85;552.019;1.78
867;1997.68;577.654;1.78
868;2012.33;597.43;1.78
869;2007.45;540.056;1.78
870;1977.85;575.701;1.78
871;1945.8;579.608;1.78
872;1955.57;585.467;1.78
873;1980.29;563.738;1.78
874;1985.17;573.748;1.78
875;1982.73;550.066;1.78
876;1960.45;595.477;1.78
877;1921.08;579.608;1.78
878;1896.36;544.206;1.78
879;1930.85;595.477;1.79
880;1958.01;585.467;1.79
881;1970.52;583.514;1.79
882;1972.96;565.935;1.79
883;1953.13;589.618;1.79
884;1923.52;575.701;1.79
885;1930.85;601.337;1.79
886;1975.41;561.785;1.79
887;2000.13;571.795;1.79
888;2012.33;609.149;1.79
889;2007.45;553.972;1.79
890;1975.41;571.795;1.79
891;1945.8;567.888;1.79
892;1950.69;585.467;1.79
893;1980.29;565.935;1.79
894;1985.17;573.748;1.79
895;1982.73;552.019;1.8
896;1960.45;599.384;1.8
897;1923.52;581.561;1.8
898;1901.25;546.159;1.8
899;1930.85;597.43;1.8
900;1955.57;579.608;1.8
901;1970.52;581.561;1.8
902;1968.08;565.935;1.8
903;1953.13;587.42;1.8
904;1918.64;575.701;1.8
905;1925.97;601.337;1.8
906;1977.85;553.972;1.8
907;2000.13;573.748;1.8
908;2012.33;607.196;1.8
909;2007.45;552.019;1.8
910;1982.73;569.842;1.81001
911;1948.24;569.842;1.81001
912;1953.13;585.467;1.81001
913;1980.29;563.738;1.81001
914;1985.17;571.795;1.81001
915;1985.17;553.972;1.81001
916;1963.2;603.29;1.81001
917;1921.08;579.608;1.81001
918;1898.8;546.159;1.81001
919;1933.29;603.29;1.81001
920;1958.01;579.608;1.81001
921;1972.96;579.608;1.81001
922;1972.96;565.935;1.81001
923;1955.57;585.467;1.81001
924;1925.97;575.701;1.81001
925;1928.41;597.43;1.81001
926;1977.85;550.066;1.82
927;2005.01;571.795;1.82
928;2017.52;605.243;1.82
929;2012.33;546.159;1.82
930;1985.17;573.748;1.82
931;1950.69;571.795;1.82
932;1955.57;583.514;1.82
933;1980.29;565.935;1.82
934;1987.61;571.795;1.82
935;1987.61;553.972;1.82
936;1965.64;605.243;1.82
937;1925.97;577.654;1.82
938;1901.25;548.112;1.82
939;1936.04;609.149;1.82
940;1960.45;577.654;1.82
941;1970.52;577.654;1.82
942;1975.41;565.935;1.83
943;1958.01;585.467;1.83
944;1928.41;575.701;1.83
945;1930.85;593.524;1.83
946;1980.29;550.066;1.83
947;2005.01;571.795;1.83
948;2019.96;601.337;1.83
949;2012.33;540.056;1.83
950;1985.17;569.842;1.83
951;1953.13;571.795;1.83
952;1955.57;585.467;1.83
953;1982.73;563.738;1.83
954;1987.61;571.795;1.83
955;1987.61;555.925;1.83
956;1968.08;601.337;1.83
957;1928.41;573.748;1.83
958;1901.25;550.066;1.84
959;1933.29;611.347;1.84
960;1958.01;577.654;1.84
961;1970.52;575.701;1.84
962;1972.96;565.935;1.84
963;1955.57;581.561;1.84
964;1923.52;577.654;1.84
965;1925.97;591.571;1.84
966;1977.85;548.112;1.84
967;2002.57;575.701;1.84
968;2017.52;599.384;1.84
969;2017.52;540.056;1.84
970;1990.36;571.795;1.84
971;1953.13;573.748;1.84
972;1955.57;583.514;1.84
973;1980.29;567.888;1.84
974;1985.17;567.888;1.85
975;1990.36;561.785;1.85
976;1965.64;597.43;1.85
977;1928.41;571.795;1.85
978;1901.25;553.972;1.85
979;1930.85;615.253;1.85
980;1958.01;577.654;1.85
981;1970.52;571.795;1.85
982;1975.41;567.888;1.85
983;1958.01;581.561;1.85
984;1925.97;579.608;1.85
985;1925.97;591.571;1.85
986;1977.85;550.066;1.85
987;2002.57;571.795;1.85
988;2017.52;603.29;1.85
989;2014.77;542.009;1.85
990;1987.61;571.795;1.86
991;1953.13;567.888;1.86
992;1950.69;585.467;1.86
993;1980.29;563.738;1.86
994;1987.61;571.795;1.86
995;1987.61;555.925;1.86
996;1968.08;601.337;1.86
997;1928.41;575.701;1.86
998;1901.25;548.112;1.86
999;1928.41;609.149;1.86
1000;1955.57;575.701;1.86
1001;1968.08;577.654;1.86
1002;1970.52;565.935;1.86
1003;1955.57;585.467;1.86
1004;1925.97;577.654;1.86
1005;1923.52;593.524;1.86
1006;1970.52;550.066;1.87
1007;2002.57;573.748;1.87
1008;2014.77;599.384;1.87
1009;2014.77;540.056;1.87
1010;1987.61;571.795;1.87
1011;1953.13;571.795;1.87
1012;1953.13;585.467;1.87
1013;1977.85;565.935;1.87
1014;1987.61;567.888;1.87
1015;1987.61;557.878;1.87
1016;1972.96;601.337;1.87
1017;1930.85;573.748;1.87
1018;1901.25;550.066;1.87
1019;1928.41;611.347;1.87
1020;1960.45;577.654;1.87
1021;1972.96;575.701;1.87
1022;1975.41;565.935;1.88
1023;1960.45;585.467;1.88
1024;1930.85;579.608;1.88
1025;1928.41;593.524;1.88
1026;1975.41;550.066;1.88
1027;2005.01;575.701;1.88
1028;2017.52;597.43;1.88
1029;2019.96;540.056;1.88
1030;1985.17;573.748;1.88
1031;1955.57;575.701;1.88
1032;1950.69;583.514;1.88
1033;1977.85;569.842;1.88
1034;1987.61;565.935;1.88
1035;1990.36;561.785;1.88
1036;1970.52;597.43;1.88
1037;1928.41;573.748;1.88
1038;1901.25;555.925;1.88
1039;1928.41;611.347;1.88
1040;1958.01;573.748;1.89
1041;1972.96;571.795;1.89
1042;1975.41;567.888;1.89
1043;1960.45;581.561;1.89
1044;1930.85;575.701;1.89
1045;1928.41;601.337;1.89
1046;1975.41;559.832;1.89
1047;2005.01;569.842;1.89
1048;2014.77;607.196;1.89
1049;2017.52;555.925;1.89
1050;1990.36;567.888;1.89
1051;1955.57;567.888;1.89
1052;1953.13;583.514;1.89
1053;1980.29;563.738;1.89
1054;1987.61;571.795;1.89
1055;1990.36;548.112;1.89
1056;1975.41;595.477;1.89
1057;1936.04;577.654;1.9
1058;1903.69;542.009;1.9
1059;1930.85;595.477;1.9
1060;1960.45;579.608;1.9
1061;1972.96;581.561;1.9
1062;1977.85;561.785;1.9
1063;1965.64;585.467;1.9
1064;1930.85;573.748;1.9
1065;1928.41;599.384;1.9
1066;1972.96;553.972;1.9
1067;2002.57;571.795;1.9
1068;2017.52;607.196;1.9
1069;2017.52;552.019;1.9
1070;1990.36;569.842;1.9
1071;1955.57;565.935;1.9
1072;1953.13;585.467;1.9
1073;1977.85;561.785;1.91
1074;1987.61;571.795;1.91
1075;1990.36;550.066;1.91
1076;1972.96;601.337;1.91
1077;1936.04;577.654;1.91
1078;1901.25;542.009;1.91
1079;1928.41;601.337;1.91
1080;1958.01;579.608;1.91
1081;1970.52;581.561;1.91
1082;1975.41;563.738;1.91
1083;1963.2;583.514;1.91
1084;1933.29;573.748;1.91
1085;1923.52;597.43;1.91
1086;1972.96;550.066;1.91
1087;2000.13;569.842;1.91
1088;2014.77;601.337;1.91
1089;2017.52;548.112;1.92001
1090;1990.36;569.842;1.92001
1091;1955.57;567.888;1.92001
1092;1948.24;585.467;1.92001
1093;1977.85;563.738;1.92001
1094;1987.61;569.842;1.92001
1095;1990.36;553.972;1.92001
1096;1975.41;603.29;1.92001
1097;1936.04;575.701;1.92001
1098;1903.69;544.206;1.92001
1099;1923.52;605.243;1.92001
1100;1955.57;577.654;1.92001
1101;1968.08;577.654;1.92001
1102;1975.41;563.738;1.92001
1103;1963.2;585.467;1.92001
1104;1933.29;573.748;1.92001
1105;1923.52;597.43;1.93
1106;1972.96;548.112;1.93
1107;2005.01;571.795;1.93
1108;2017.52;603.29;1.93
1109;2019.96;540.056;1.93
1110;1995.24;569.842;1.93
1111;1960.45;569.842;1.93
1112;1953.13;583.514;1.93
1113;1980.29;563.738;1.93
1114;1992.8;569.842;1.93
1115;1997.68;555.925;1.93
1116;1980.29;599.384;1.93
1117;1938.48;575.701;1.93
1118;1903.69;546.159;1.93
1119;1928.41;611.347;1.93
1120;1963.2;575.701;1.93
1121;1972.96;575.701;1.94
1122;1977.85;567.888;1.94
1123;1965.64;583.514;1.94
1124;1936.04;575.701;1.94
1125;1928.41;595.477;1.94
1126;1975.41;548.112;1.94
1127;2005.01;573.748;1.94
1128;2019.96;597.43;1.94
1129;2022.4;536.149;1.94
1130;2000.13;571.795;1.94
1131;1960.45;571.795;1.94
1132;1953.13;583.514;1.94
1133;1985.17;563.738;1.94
1134;1990.36;565.935;1.94
1135;1992.8;559.832;1.94
1136;1977.85;597.43;1.94
1137;1940.92;571.795;1.95
1138;1903.69;552.019;1.95
1139;1923.52;613.3;1.95
1140;1955.57;573.748;1.95
1141;1972.96;571.795;1.95
1142;1977.85;565.935;1.95
1143;1963.2;581.561;1.95
1144;1936.04;579.608;1.95
1145;1925.97;589.618;1.95
1146;1970.52;548.112;1.95
1147;2005.01;577.654;1.95
1148;2022.4;593.524;1.95
1149;2014.77;538.102;1.95
1150;1985.17;571.795;1.95
1151;1953.13;573.748;1.95
1152;1960.45;585.467;1.96
1153;1985.17;567.888;1.96
1154;1992.8;563.738;1.96
1155;1990.36;561.785;1.96
1156;1963.2;595.477;1.96
1157;1923.52;577.654;1.96
1158;1903.69;540.056;1.96
1159;1943.36;593.524;1.96
1160;1965.64;579.608;1.96
1161;1977.85;581.561;1.96
1162;1975.41;559.832;1.96
1163;1960.45;585.467;1.96
1164;1928.41;573.748;1.96
1165;1943.36;597.43;1.96
1166;1992.8;555.925;1.96
1167;2014.77;569.842;1.96
1168;2027.29;605.243;1.97
1169;2017.52;553.972;1.97
1170;1990.36;569.842;1.97
1171;1958.01;565.935;1.97
1172;1968.08;585.467;1.97
1173;1990.36;561.785;1.97
1174;1997.68;571.795;1.97
1175;1995.24;548.112;1.97
1176;1970.52;597.43;1.97
1177;1928.41;579.608;1.97
1178;1906.13;544.206;1.97
1179;1948.24;599.384;1.97
1180;1972.96;579.608;1.97
1181;1980.29;579.608;1.97
1182;1985.17;563.738;1.97
1183;1965.64;583.514;1.98
1184;1936.04;573.748;1.98
1185;1943.36;597.43;1.98
1186;1992.8;550.066;1.98
1187;2012.33;569.842;1.98
1188;2027.29;605.243;1.98
1189;2022.4;546.159;1.98
1190;1992.8;565.935;1.98
1191;1958.01;567.888;1.98
1192;1965.64;585.467;1.98
1193;1987.61;563.738;1.98
1194;1992.8;569.842;1.98
1195;1992.8;552.019;1.98
1196;1968.08;599.384;1.98
1197;1925.97;577.654;1.98
1198;1903.69;542.009;1.99001
1199;1940.92;601.337;1.99001
1200;1970.52;577.654;1.99001
1201;1980.29;577.654;1.99001
1202;1980.29;563.738;1.99001
1203;1963.2;585.467;1.99001
1204;1930.85;571.795;1.99001
1205;1938.48;595.477;1.99001
1206;1985.17;550.066;1.99001
1207;2009.89;571.795;1.99001
1208;2022.4;603.29;1.99001
1209;2017.52;542.009;1.99001
1210;1990.36;569.842;1.99001
1211;1955.57;569.842;1.99001
1212;1965.64;585.467;2
1213;1990.36;563.738;2
1214;1997.68;571.795;2
1215;1997.68;553.972;2
1216;1975.41;601.337;2
1217;1936.04;577.654;2
1218;1911.32;546.159;2
1219;1948.24;605.243;2
1220;1970.52;577.654;2
1221;1982.73;577.654;2
1222;1985.17;563.738;2
1223;1965.64;583.514;2
1224;1938.48;575.701;2
1225;1943.36;593.524;2
1226;1992.8;550.066;2
1227;2014.77;571.795;2.01
1228;2027.29;597.43;2.01
1229;2022.4;540.056;2.01
1230;1995.24;571.795;2.01
1231;1960.45;569.842;2.01
1232;1970.52;583.514;2.01
1233;1995.24;563.738;2.01
1234;2002.57;567.888;2.01
1235;2000.13;555.925;2.01
1236;1982.73;599.384;2.01
1237;1938.48;573.748;2.01
1238;1913.76;550.066;2.01
1239;1953.13;613.3;2.01
1240;1980.29;573.748;2.01
1241;1990.36;569.842;2.02
1242;1990.36;563.738;2.02
1243;1972.96;581.561;2.02
1244;1943.36;577.654;2.02
1245;1948.24;591.571;2.02
1246;1997.68;550.066;2.02
1247;2022.4;573.748;2.02
1248;2034.61;595.477;2.02
1249;2029.73;538.102;2.02
1250;2000.13;571.795;2.02
1251;1968.08;575.701;2.02
1252;1975.41;581.561;2.02
1253;1997.68;563.738;2.02
1254;2007.45;567.888;2.02
1255;2007.45;561.785;2.02
1256;1982.73;597.43;2.03
1257;1943.36;571.795;2.03
1258;1913.76;553.972;2.03
1259;1948.24;611.347;2.03
1260;1980.29;573.748;2.03
1261;1990.36;569.842;2.03
1262;1990.36;563.738;2.03
1263;1972.96;581.561;2.03
1264;1940.92;579.608;2.03
1265;1945.8;587.42;2.03
1266;1997.68;552.019;2.03
1267;2022.4;577.654;2.03
1268;2034.61;589.618;2.03
1269;2032.17;540.056;2.03
1270;2002.57;569.842;2.03
1271;1968.08;569.842;2.04
1272;1970.52;583.514;2.04
1273;1995.24;563.738;2.04
1274;2005.01;569.842;2.04
1275;2009.89;553.972;2.04
1276;1985.17;601.337;2.04
1277;1943.36;575.701;2.04
1278;1918.64;548.112;2.04
1279;1950.69;609.149;2.04
1280;1980.29;577.654;2.04
1281;1992.8;575.701;2.04
1282;1995.24;561.785;2.04
1283;1975.41;583.514;2.04
1284;1948.24;575.701;2.04
1285;1950.69;591.571;2.04
1286;1997.68;548.112;2.05
1287;2027.29;573.748;2.05
1288;2039.49;597.43;2.05
1289;2034.61;538.102;2.05
1290;2009.89;571.795;2.05
1291;1972.96;573.748;2.05
1292;1980.29;581.561;2.05
1293;2002.57;565.935;2.05
1294;2007.45;567.888;2.05
1295;2007.45;555.925;2.05
1296;1980.29;599.384;2.05
1297;1938.48;573.748;2.05
1298;1918.64;550.066;2.05
1299;1960.45;613.3;2.05
1300;1985.17;573.748;2.06001
1301;1995.24;569.842;2.06001
1302;1992.8;565.935;2.06001
1303;1972.96;577.654;2.06001
1304;1943.36;577.654;2.06001
1305;1958.01;589.618;2.06001
1306;2007.45;550.066;2.06001
1307;2029.73;575.701;2.06001
1308;2041.94;593.524;2.06001
1309;2032.17;538.102;2.06001
1310;2002.57;571.795;2.06001
1311;1968.08;575.701;2.06001
1312;1982.73;581.561;2.06001
1313;2007.45;565.935;2.06001
1314;2012.33;563.738;2.06001
1315;2012.33;561.785;2.07
1316;1982.73;597.43;2.07
1317;1945.8;567.888;2.07
1318;1925.97;555.925;2.07
1319;1963.2;609.149;2.07
1320;1987.61;571.795;2.07
1321;1997.68;569.842;2.07
1322;1997.68;563.738;2.07
1323;1977.85;579.608;2.07
1324;1948.24;581.561;2.07
1325;1960.45;587.42;2.07
1326;2012.33;552.019;2.07
1327;2034.61;565.935;2.07
1328;2049.57;605.243;2.07
1329;2041.94;553.972;2.08
1330;2007.45;567.888;2.08
1331;1977.85;563.738;2.08
1332;1985.17;585.467;2.08
1333;2012.33;561.785;2.08
1334;2019.96;571.795;2.08
1335;2017.52;546.159;2.08
1336;1995.24;595.477;2.08
1337;1950.69;577.654;2.08
1338;1928.41;540.056;2.08
1339;1968.08;595.477;2.08
1340;1992.8;577.654;2.08
1341;2002.57;577.654;2.08
1342;2007.45;559.832;2.08
1343;1985.17;585.467;2.08
1344;1953.13;573.748;2.09
1345;1965.64;597.43;2.09
1346;2014.77;552.019;2.09
1347;2039.49;567.888;2.09
1348;2049.57;603.29;2.09
1349;2044.68;548.112;2.09
1350;2014.77;565.935;2.09
1351;1980.29;563.738;2.09
1352;1990.36;583.514;2.09
1353;2012.33;559.832;2.09
1354;2019.96;569.842;2.09
1355;2017.52;550.066;2.09
1356;1995.24;601.337;2.09
1357;1955.57;573.748;2.09
1358;1930.85;540.056;2.09
1359;1970.52;601.337;2.1
1360;1995.24;575.701;2.1
1361;2007.45;575.701;2.1
1362;2009.89;563.738;2.1
1363;1990.36;583.514;2.1
1364;1960.45;571.795;2.1
1365;1965.64;595.477;2.1
1366;2017.52;546.159;2.1
1367;2039.49;569.842;2.1
1368;2052.01;603.29;2.1
1369;2044.68;544.206;2.1
1370;2012.33;569.842;2.1
1371;1980.29;565.935;2.1
1372;1987.61;583.514;2.1
1373;2014.77;563.738;2.1
1374;2022.4;571.795;2.11
1375;2024.85;553.972;2.11
1376;2002.57;601.337;2.11
1377;1958.01;573.748;2.11
1378;1936.04;544.206;2.11
1379;1972.96;607.196;2.11
1380;1997.68;577.654;2.11
1381;2009.89;575.701;2.11
1382;2012.33;561.785;2.11
1383;1990.36;581.561;2.11
1384;1960.45;571.795;2.11
1385;1970.52;595.477;2.11
1386;2022.4;546.159;2.11
1387;2044.68;571.795;2.11
1388;2061.77;599.384;2.11
1389;2056.89;538.102;2.12
1390;2024.85;569.842;2.12
1391;1990.36;569.842;2.12
1392;1997.68;583.514;2.12
1393;2024.85;563.738;2.12
1394;2032.17;567.888;2.12
1395;2034.61;555.925;2.12
1396;2009.89;599.384;2.12
1397;1970.52;571.795;2.12
1398;1943.36;546.159;2.12
1399;1980.29;611.347;2.12
1400;2007.45;575.701;2.12
1401;2017.52;573.748;2.12
1402;2017.52;563.738;2.12
1403;2000.13;581.561;2.12
1404;1968.08;577.654;2.13
1405;1975.41;589.618;2.13
1406;2024.85;548.112;2.13
1407;2049.57;573.748;2.13
1408;2064.21;595.477;2.13
1409;2059.33;536.149;2.13
1410;2029.73;567.888;2.13
1411;1995.24;571.795;2.13
1412;2005.01;581.561;2.13
1413;2029.73;563.738;2.13
1414;2039.49;565.935;2.13
1415;2039.49;557.878;2.13
1416;2017.52;595.477;2.13
1417;1975.41;571.795;2.13
1418;1948.24;552.019;2.13
1419;1985.17;611.347;2.14
1420;2012.33;571.795;2.14
1421;2022.4;569.842;2.14
1422;2024.85;563.738;2.14
1423;2007.45;581.561;2.14
1424;1975.41;577.654;2.14
1425;1982.73;587.42;2.14
1426;2034.61;550.066;2.14
1427;2061.77;577.654;2.14
1428;2071.84;589.618;2.14
1429;2071.84;538.102;2.14
1430;2039.49;569.842;2.14
1431;2005.01;575.701;2.14
1432;2009.89;581.561;2.14
1433;2037.05;565.935;2.14
1434;2044.68;561.785;2.15
1435;2047.12;559.832;2.15
1436;2024.85;591.571;2.15
1437;1982.73;565.935;2.15
1438;1955.57;555.925;2.15
1439;1987.61;607.196;2.15
1440;2019.96;573.748;2.15
1441;2029.73;577.654;2.15
1442;2034.61;559.832;2.15
1443;2014.77;583.514;2.15
1444;1985.17;569.842;2.15
1445;1987.61;597.43;2.15
1446;2034.61;552.019;2.15
1447;2061.77;567.888;2.15
1448;2076.73;603.29;2.15
1449;2071.84;548.112;2.16
1450;2041.94;569.842;2.16
1451;2007.45;563.738;2.16
1452;2014.77;583.514;2.16
1453;2039.49;559.832;2.16
1454;2049.57;569.842;2.16
1455;2049.57;548.112;2.16
1456;2027.29;597.43;2.16
1457;1987.61;575.701;2.16
1458;1958.01;540.056;2.16
1459;1990.36;597.43;2.16
1460;2022.4;577.654;2.16
1461;2032.17;579.608;2.16
1462;2034.61;561.785;2.16
1463;2017.52;585.467;2.17001
1464;1985.17;571.795;2.17001
1465;1987.61;595.477;2.17001
1466;2039.49;546.159;2.17001
1467;2064.21;571.795;2.17001
1468;2079.17;603.29;2.17001
1469;2076.73;544.206;2.17001
1470;2047.12;565.935;2.17001
1471;2012.33;565.935;2.17001
1472;2014.77;583.514;2.17001
1473;2041.94;559.832;2.17001
1474;2047.12;571.795;2.17001
1475;2049.57;552.019;2.17001
1476;2029.73;599.384;2.17001
1477;1992.8;575.701;2.18
1478;1960.45;540.056;2.18
1479;1992.8;605.243;2.18
1480;2024.85;573.748;2.18
1481;2037.05;573.748;2.18
1482;2039.49;561.785;2.18
1483;2022.4;583.514;2.18
1484;1990.36;571.795;2.18
1485;1990.36;593.524;2.18
1486;2041.94;546.159;2.18
1487;2069.1;569.842;2.18
1488;2084.05;597.43;2.18
1489;2081.61;538.102;2.18
1490;2054.45;571.795;2.18
1491;2014.77;565.935;2.19
1492;2019.96;579.608;2.19
1493;2047.12;563.738;2.19
1494;2052.01;569.842;2.19
1495;2054.45;553.972;2.19
1496;2034.61;599.384;2.19
1497;1992.8;573.748;2.19
1498;1960.45;544.206;2.19
1499;1990.36;609.149;2.19
1500;2024.85;571.795;2.19
1501;2039.49;571.795;2.19
1502;2039.49;563.738;2.19
1503;2024.85;577.654;2.19
1504;1992.8;573.748;2.2
1505;1990.36;589.618;2.2
1506;2039.49;548.112;2.2
1507;2069.1;571.795;2.2
1508;2084.05;597.43;2.2
1509;2081.61;534.196;2.2
1510;2056.89;569.842;2.2
1511;2017.52;569.842;2.2
1512;2019.96;579.608;2.2
1513;2047.12;561.785;2.2
1514;2056.89;567.888;2.2
1515;2056.89;555.925;2.2
1516;2037.05;597.43;2.2
1517;1997.68;571.795;2.21
1518;1965.64;546.159;2.21
1519;1992.8;611.347;2.21
1520;2027.29;571.795;2.21
1521;2037.05;567.888;2.21
1522;2041.94;561.785;2.21
1523;2027.29;579.608;2.21
1524;1995.24;577.654;2.21
1525;1990.36;585.467;2.21
1526;2044.68;546.159;2.21
1527;2071.84;573.748;2.21
1528;2084.05;591.571;2.21
1529;2084.05;534.196;2.21
1530;2059.33;569.842;2.21
1531;2022.4;571.795;2.22
1532;2017.52;579.608;2.22
1533;2049.57;563.738;2.22
1534;2061.77;559.832;2.22
1535;2061.77;559.832;2.22
1536;2044.68;593.524;2.22
1537;2005.01;567.888;2.22
1538;1968.08;553.972;2.22
1539;1997.68;609.149;2.22
1540;2032.17;569.842;2.22
1541;2044.68;569.842;2.22
1542;2047.12;563.738;2.22
1543;2034.61;577.654;2.22
1544;2005.01;579.608;2.23
1545;1997.68;583.514;2.23
1546;2047.12;552.019;2.23
1547;2079.17;577.654;2.23
1548;2091.38;585.467;2.23
1549;2091.38;536.149;2.23
1550;2064.21;569.842;2.23
1551;2024.85;577.654;2.23
1552;2027.29;577.654;2.23
1553;2054.45;559.832;2.23
1554;2066.66;567.888;2.23
1555;2069.1;553.972;2.23
1556;2049.57;597.43;2.24001
1557;2009.89;573.748;2.24001
1558;1975.41;546.159;2.24001
1559;2002.57;605.243;2.24001
1560;2037.05;571.795;2.24001
1561;2052.01;569.842;2.24001
1562;2054.45;559.832;2.24001
1563;2037.05;577.654;2.24001
1564;2007.45;575.701;2.24001
1565;2002.57;589.618;2.24001
1566;2052.01;546.159;2.24001
1567;2081.61;571.795;2.24001
1568;2096.26;595.477;2.24001
1569;2099.01;532.243;2.25
1570;2069.1;569.842;2.25
1571;2037.05;569.842;2.25
1572;2029.73;579.608;2.25
1573;2056.89;559.832;2.25
1574;2069.1;563.738;2.25
1575;2071.84;557.878;2.25
1576;2054.45;595.477;2.25
1577;2014.77;569.842;2.25
1578;1980.29;550.066;2.25
1579;2002.57;609.149;2.25
1580;2037.05;569.842;2.25
1581;2054.45;569.842;2.26
1582;2059.33;563.738;2.26
1583;2041.94;579.608;2.26
1584;2012.33;577.654;2.26
1585;2019.96;583.514;2.26
1586;2066.66;548.112;2.26
1587;2088.93;573.748;2.26
1588;2103.89;589.618;2.26
1589;2091.38;538.102;2.26
1590;2056.89;569.842;2.26
1591;2027.29;571.795;2.26
1592;2041.94;577.654;2.26
1593;2066.66;561.785;2.26
1594;2074.29;559.832;2.27
1595;2071.84;561.785;2.27
1596;2044.68;591.571;2.27
1597;2000.13;563.738;2.27
1598;1982.73;552.019;2.27
1599;2022.4;607.196;2.27
1600;2047.12;569.842;2.27
1601;2054.45;563.738;2.27
1602;2054.45;561.785;2.27
1603;2034.61;575.701;2.27
1604;2002.57;581.561;2.27
1605;2019.96;583.514;2.27
1606;2069.1;552.019;2.28
1607;2093.82;577.654;2.28
1608;2108.77;583.514;2.28
1609;2099.01;544.206;2.28
1610;2064.21;565.935;2.28
1611;2034.61;563.738;2.28
1612;2047.12;581.561;2.28
1613;2071.84;557.878;2.28
1614;2079.17;569.842;2.28
1615;2076.73;546.159;2.28
1616;2049.57;597.43;2.28
1617;2007.45;571.795;2.28
1618;1990.36;536.149;2.28
1619;2029.73;597.43;2.29
1620;2054.45;575.701;2.29
1621;2066.66;573.748;2.29
1622;2064.21;557.878;2.29
1623;2041.94;581.561;2.29
1624;2009.89;569.842;2.29
1625;2027.29;593.524;2.29
1626;2079.17;546.159;2.29
1627;2103.89;567.888;2.29
1628;2113.65;601.337;2.29
1629;2106.33;540.056;2.29
1630;2071.84;565.935;2.29
1631;2039.49;565.935;2.3
1632;2054.45;581.561;2.3
1633;2076.73;557.878;2.3
1634;2084.05;567.888;2.3
1635;2081.61;548.112;2.3
1636;2054.45;597.43;2.3
1637;2009.89;571.795;2.3
1638;1992.8;540.056;2.3
1639;2032.17;603.29;2.3
1640;2059.33;571.795;2.3
1641;2071.84;571.795;2.3
1642;2071.84;559.832;2.31001
1643;2047.12;579.608;2.31001
1644;2014.77;571.795;2.31001
1645;2029.73;589.618;2.31001
1646;2079.17;544.206;2.31001
1647;2103.89;565.935;2.31001
1648;2116.1;597.43;2.31001
1649;2111.21;538.102;2.31001
1650;2076.73;567.888;2.31001
1651;2047.12;561.785;2.31001
1652;2056.89;577.654;2.31001
1653;2081.61;557.878;2.31001
1654;2091.38;563.738;2.32
1655;2088.93;550.066;2.32
1656;2061.77;599.384;2.32
1657;2019.96;571.795;2.32
1658;1997.68;542.009;2.32
1659;2037.05;605.243;2.32
1660;2064.21;571.795;2.32
1661;2076.73;571.795;2.32
1662;2076.73;561.785;2.32
1663;2056.89;579.608;2.32
1664;2022.4;573.748;2.32
1665;2034.61;589.618;2.32
1666;2088.93;544.206;2.33
1667;2111.21;569.842;2.33
1668;2126.17;593.524;2.33
1669;2118.54;532.243;2.33
1670;2086.49;565.935;2.33
1671;2052.01;567.888;2.33
1672;2061.77;577.654;2.33
1673;2086.49;559.832;2.33
1674;2093.82;563.738;2.33
1675;2096.26;553.972;2.33
1676;2069.1;597.43;2.33
1677;2024.85;565.935;2.33
1678;2002.57;548.112;2.34
1679;2037.05;609.149;2.34
1680;2069.1;569.842;2.34
