<WeldAnalyseData xmlns:i="http:www.w3.org/2001/XMLSchema-instance">
<WeldParameter>
<TimeStamp>DT#2024-01-24-14:41:58</TimeStamp>
<Generator>SG-22-10000</Generator>
<GenFreq>20</GenFreq>
<MaxForce>8000</MaxForce>
<MaxPower>10000</MaxPower>
<RunupPressure>1.5</RunupPressure>
<RunupDist>10</RunupDist>
<RunPress>0.8</RunPress>
<ShakeDelay>0.03</ShakeDelay>
<ShakeTime>0.3</ShakeTime>
<RunBackPress1>6</RunBackPress1>
<RunBackPress2>2</RunBackPress2>
<RunBackDist>1</RunBackDist>
<TrigValue>500</TrigValue>
<TrigModeUnit>W</TrigModeUnit>
<WeldModeUnit>Ws</WeldModeUnit>
<PressNr>0</PressNr>
<MaxLoss>1500</MaxLoss>
</WeldParameter>
<WeldSets>
<WeldSet>
<PressRiseTime>0</PressRiseTime>
<RunPressure>1</RunPressure>
<Amplitude>86</Amplitude>
<WeldMode>3270</WeldMode>
</WeldSet>
</WeldSets>
<WeldValue>
<WeldNr>2962</WeldNr>
<RecipeName>RickStyle</RecipeName>
<WeldTime>1693</WeldTime>
<DistDiff>2.23</DistDiff>
<DistAbs>77.85</DistAbs>
<Energy>3271.94</Energy>
<MaxPower>2187.2</MaxPower>
<CycleTime>6030</CycleTime>
<TrigForce>500.748</TrigForce>
<TrigDist>75.62</TrigDist>
<RunSpeed>68.0648</RunSpeed>
<MaxForce>621.113</MaxForce>
<LossPower>323.859</LossPower>
</WeldValue>
</WeldAnalyseData>
#CSV-START#
ms;Power[W];Force[N];Distance[mm]
1;0;0;0
2;0;500.748;0
3;0;500.748;0
4;0;498.795;0
5;0;500.748;0
6;0;500.748;0
7;0;500.748;0
8;0;475.112;0
9;0;427.503;0.00999451
10;0;405.774;0.0299988
11;0;364.513;0.0599976
12;31.682;358.409;0.0999985
13;88.4464;334.727;0.129997
14;162.301;319.102;0.18
15;238.903;303.232;0.219994
16;298.109;297.372;0.259995
17;349.99;295.419;0.309998
18;416.826;297.372;0.349998
19;488.239;283.456;0.399994
20;557.516;303.232;0.439995
21;624.046;309.091;0.489998
22;683.252;291.269;0.519997
23;740.322;312.998;0.559998
24;801.969;324.961;0.579994
25;870.941;338.633;0.610001
26;940.218;336.68;0.629997
27;999.424;338.633;0.649994
28;1056.19;360.363;0.669998
29;1090.67;384.045;0.68
30;1112.95;370.373;0.689995
31;1147.44;390.149;0.689995
32;1204.51;415.784;0.699997
33;1248.76;403.821;0.699997
34;1280.8;409.925;0.709999
35;1313.15;397.961;0.709999
36;1330.24;415.784;0.719994
37;1340.32;411.878;0.719994
38;1379.68;431.654;0.729996
39;1438.89;396.008;0.739998
40;1476.12;415.784;0.739998
41;1513.05;441.42;0.75
42;1532.89;388.195;0.759995
43;1532.89;421.644;0.759995
44;1532.89;425.55;0.769997
45;1564.93;433.607;0.769997
46;1606.74;417.737;0.779999
47;1633.9;423.597;0.779999
48;1656.18;413.831;0.790001
49;1658.62;451.186;0.799995
50;1643.97;427.503;0.799995
51;1653.74;411.878;0.809998
52;1710.51;469.008;0.82
53;1744.99;435.56;0.829994
54;1772.15;435.56;0.829994
55;1794.43;429.456;0.839996
56;1791.99;445.326;0.849998
57;1787.11;447.279;0.860001
58;1819.15;459.243;0.860001
59;1878.36;427.503;0.869995
60;1913.15;455.336;0.869995
61;1937.56;470.962;0.879997
62;1940.31;421.644;0.889999
63;1920.47;455.336;0.889999
64;1903.08;459.243;0.899994
65;1927.8;467.055;0.899994
66;1962.28;453.383;0.909996
67;1987;455.336;0.919998
68;1991.89;453.383;0.919998
69;1974.8;488.784;0.93
70;1942.75;459.243;0.93
71;1937.56;457.289;0.939995
72;1987;506.607;0.939995
73;2019.05;472.915;0.939995
74;2038.88;469.008;0.949997
75;2046.21;467.055;0.949997
76;2029.12;484.878;0.959999
77;2006.84;488.784;0.959999
78;2026.68;492.691;0.969994
79;2081;461.196;0.969994
80;2108.16;494.644;0.979996
81;2125.25;494.644;0.979996
82;2115.49;455.336;0.989998
83;2085.88;484.878;0.989998
84;2056.28;492.691;1
85;2076.12;494.644;1
86;2103.28;482.925;1
87;2117.93;475.112;1.00999
88;2120.37;484.878;1.00999
89;2093.21;508.56;1.02
90;2056.28;479.019;1.02
91;2043.77;486.831;1.02
92;2090.77;528.336;1.03
93;2122.81;498.795;1.03
94;2137.76;490.738;1.03
95;2137.76;494.644;1.04
96;2113.04;506.607;1.04
97;2085.88;520.524;1.04
98;2100.53;510.514;1.05
99;2152.41;488.784;1.05
100;2177.13;526.383;1.05
101;2187.2;510.514;1.06
102;2174.69;480.972;1.06
103;2137.76;506.607;1.06
104;2105.72;514.42;1.07
105;2122.81;514.42;1.07
106;2149.97;502.701;1.07
107;2160.04;488.784;1.07999
108;2160.04;508.56;1.07999
109;2132.88;524.43;1.07999
110;2090.77;488.784;1.07999
111;2073.37;508.56;1.09
112;2120.37;536.149;1.09
113;2145.09;514.42;1.09
114;2157.6;500.748;1.1
115;2154.85;504.654;1.1
116;2127.69;522.477;1.1
117;2093.21;516.373;1.11
118;2105.72;534.196;1.11
119;2154.85;488.784;1.11
120;2177.13;516.373;1.11
121;2187.2;542.009;1.12
122;2172.25;479.019;1.12
123;2135.32;516.373;1.12
124;2100.53;516.373;1.12
125;2110.6;530.29;1.13
126;2135.32;510.514;1.13
127;2142.65;514.42;1.13
128;2142.65;504.654;1.13
129;2113.04;546.159;1.14
130;2068.49;520.524;1.14
131;2051.4;500.748;1.14
132;2095.65;561.785;1.14
133;2125.25;524.43;1.14999
134;2142.65;518.326;1.14999
135;2142.65;514.42;1.14999
136;2120.37;530.29;1.14999
137;2085.88;528.336;1.16
138;2098.09;540.056;1.16
139;2145.09;500.748;1.16
140;2164.93;528.336;1.16
141;2174.69;544.206;1.17
142;2157.6;488.784;1.17
143;2120.37;526.383;1.17
144;2081;528.336;1.17
145;2090.77;536.149;1.18
146;2115.49;518.326;1.18
147;2120.37;518.326;1.18
148;2117.93;516.373;1.18
149;2088.32;548.112;1.18999
150;2041.33;518.326;1.18999
151;2021.79;508.56;1.18999
152;2063.6;567.888;1.18999
153;2085.88;528.336;1.18999
154;2095.65;522.477;1.2
155;2093.21;522.477;1.2
156;2068.49;532.243;1.2
157;2036.44;540.056;1.2
158;2048.96;542.009;1.2
159;2090.77;512.467;1.21
160;2117.93;542.009;1.21
161;2127.69;546.159;1.21
162;2115.49;498.795;1.21
163;2078.56;530.29;1.21
164;2043.77;538.102;1.21999
165;2058.72;540.056;1.21999
166;2081;524.43;1.21999
167;2088.32;520.524;1.21999
168;2088.32;526.383;1.21999
169;2063.6;553.972;1.23
170;2016.61;522.477;1.23
171;2001.96;524.43;1.23
172;2038.88;567.888;1.23
173;2063.6;536.149;1.23
174;2073.37;530.29;1.23
175;2070.93;530.29;1.24
176;2046.21;542.009;1.24
177;2016.61;555.925;1.24
178;2026.68;548.112;1.24
179;2070.93;522.477;1.24
180;2090.77;553.972;1.24
181;2103.28;548.112;1.25
182;2095.65;510.514;1.25
183;2056.28;538.102;1.25
184;2024.24;548.112;1.25
185;2031.56;548.112;1.25
186;2056.28;530.29;1.25
187;2066.05;522.477;1.25999
188;2061.16;536.149;1.25999
189;2031.56;552.019;1.25999
190;1989.44;524.43;1.25999
191;1969.91;534.196;1.25999
192;2006.84;567.888;1.25999
193;2031.56;542.009;1.25999
194;2043.77;532.243;1.27
195;2043.77;536.149;1.27
196;2019.05;548.112;1.27
197;1989.44;559.832;1.27
198;1997.07;557.878;1.27
199;2041.33;522.477;1.27
200;2066.05;552.019;1.27
201;2073.37;563.738;1.28
202;2066.05;512.467;1.28
203;2031.56;544.206;1.28
204;1997.07;550.066;1.28
205;2009.28;553.972;1.28
206;2034;538.102;1.28
207;2038.88;534.196;1.28
208;2036.44;538.102;1.29
209;2011.72;565.935;1.29
210;1969.91;534.196;1.29
211;1952.52;534.196;1.29
212;1989.44;579.608;1.29
213;2014.16;550.066;1.29
214;2024.24;540.056;1.29
215;2024.24;542.009;1.3
216;2004.4;553.972;1.3
217;1972.35;561.785;1.3
218;1979.68;557.878;1.3
219;2026.68;532.243;1.3
220;2046.21;561.785;1.3
221;2058.72;561.785;1.3
222;2048.96;522.477;1.3
223;2011.72;550.066;1.31
224;1979.68;555.925;1.31
225;1989.44;555.925;1.31
226;2011.72;546.159;1.31
227;2019.05;536.149;1.31
228;2016.61;546.159;1.31
229;1991.89;565.935;1.31
230;1950.08;536.149;1.32
231;1932.68;544.206;1.32
232;1969.91;577.654;1.32
233;1991.89;552.019;1.32
234;2006.84;542.009;1.32
235;2004.4;548.112;1.32
236;1982.12;555.925;1.32
237;1952.52;569.842;1.32
238;1957.4;557.878;1.32999
239;2006.84;526.383;1.32999
240;2029.12;550.066;1.32999
241;2036.44;583.514;1.32999
242;2026.68;522.477;1.32999
243;1997.07;550.066;1.32999
244;1959.84;550.066;1.32999
245;1969.91;563.738;1.32999
246;1997.07;542.009;1.34
247;2001.96;550.066;1.34
248;1999.52;534.196;1.34
249;1974.8;581.561;1.34
250;1937.56;553.972;1.34
251;1913.15;530.29;1.34
252;1952.52;591.571;1.34
253;1977.24;557.878;1.34
254;1989.44;555.925;1.35
255;1989.44;548.112;1.35
256;1967.47;565.935;1.35
257;1940.31;561.785;1.35
258;1945.19;575.701;1.35
259;1991.89;532.243;1.35
260;2011.72;559.832;1.35
261;2021.79;579.608;1.35
262;2016.61;522.477;1.35
263;1982.12;555.925;1.36
264;1952.52;557.878;1.36
265;1959.84;567.888;1.36
266;1984.56;550.066;1.36
267;1989.44;552.019;1.36
268;1989.44;546.159;1.36
269;1969.91;581.561;1.36
270;1927.8;559.832;1.36
271;1907.96;538.102;1.37
272;1945.19;599.384;1.37
273;1969.91;561.785;1.37
274;1979.68;557.878;1.37
275;1982.12;555.925;1.37
276;1962.28;569.842;1.37
277;1930.24;569.842;1.37
278;1940.31;577.654;1.37
279;1984.56;540.056;1.37
280;2006.84;567.888;1.38
281;2016.61;583.514;1.38
282;2009.28;530.29;1.38
283;1977.24;561.785;1.38
284;1945.19;567.888;1.38
285;1950.08;571.795;1.38
286;1977.24;559.832;1.38
287;1982.12;555.925;1.38
288;1982.12;553.972;1.38
289;1962.28;585.467;1.38
290;1918.03;557.878;1.39
291;1903.08;552.019;1.39
292;1935.12;599.384;1.39
293;1962.28;567.888;1.39
294;1972.35;561.785;1.39
295;1972.35;557.878;1.39
296;1954.96;573.748;1.39
297;1925.36;577.654;1.39
298;1932.68;577.654;1.39
299;1979.68;550.066;1.39999
300;1999.52;579.608;1.39999
301;2014.16;583.514;1.39999
302;2006.84;538.102;1.39999
303;1974.8;567.888;1.39999
304;1942.75;575.701;1.39999
305;1950.08;579.608;1.39999
306;1974.8;563.738;1.39999
307;1979.68;555.925;1.39999
308;1982.12;563.738;1.41
309;1959.84;585.467;1.41
310;1920.47;559.832;1.41
311;1900.64;561.785;1.41
312;1935.12;603.29;1.41
313;1959.84;571.795;1.41
314;1972.35;565.935;1.41
315;1974.8;563.738;1.41
316;1957.4;577.654;1.41
317;1925.36;589.618;1.41
318;1930.24;581.561;1.42
319;1974.8;559.832;1.42
320;1999.52;591.571;1.42
321;2009.28;603.29;1.42
322;1999.52;542.009;1.42
323;1972.35;571.795;1.42
324;1937.56;571.795;1.42
325;1947.63;587.42;1.42
326;1964.72;565.935;1.42
327;1977.24;571.795;1.42
328;1977.24;557.878;1.43
329;1954.96;603.29;1.43
330;1915.59;579.608;1.43
331;1895.75;550.066;1.43
332;1930.24;611.347;1.43
333;1954.96;577.654;1.43
334;1967.47;577.654;1.43
335;1972.35;567.888;1.43
336;1950.08;585.467;1.43
337;1920.47;579.608;1.43
338;1925.36;597.43;1.43999
339;1972.35;553.972;1.43999
340;1991.89;575.701;1.43999
341;2001.96;605.243;1.43999
342;1997.07;540.056;1.43999
343;1967.47;575.701;1.43999
344;1935.12;577.654;1.43999
345;1942.75;587.42;1.43999
346;1967.47;567.888;1.43999
347;1977.24;573.748;1.43999
348;1977.24;563.738;1.45
349;1954.96;605.243;1.45
350;1915.59;577.654;1.45
351;1893.31;555.925;1.45
352;1927.8;617.206;1.45
353;1954.96;581.561;1.45
354;1964.72;577.654;1.45
355;1969.91;569.842;1.45
356;1950.08;587.42;1.45
357;1920.47;587.42;1.45
358;1922.91;599.384;1.45
359;1969.91;557.878;1.46
360;1991.89;583.514;1.46
361;2004.4;603.29;1.46
362;1999.52;544.206;1.46
363;1967.47;577.654;1.46
364;1935.12;579.608;1.46
365;1940.31;587.42;1.46
366;1964.72;573.748;1.46
367;1972.35;571.795;1.46
368;1977.24;569.842;1.46
369;1954.96;603.29;1.46
370;1913.15;575.701;1.46999
371;1893.31;561.785;1.46999
372;1927.8;619.16;1.46999
373;1952.52;579.608;1.46999
374;1964.72;577.654;1.46999
375;1969.91;573.748;1.46999
376;1950.08;587.42;1.46999
377;1918.03;591.571;1.46999
378;1925.36;595.477;1.46999
379;1969.91;561.785;1.46999
380;1989.44;591.571;1.46999
381;2004.4;599.384;1.48
382;1997.07;550.066;1.48
383;1967.47;579.608;1.48
384;1932.68;585.467;1.48
385;1937.56;591.571;1.48
386;1962.28;573.748;1.48
387;1969.91;567.888;1.48
388;1972.35;571.795;1.48
389;1952.52;601.337;1.48
390;1913.15;573.748;1.48
391;1890.87;567.888;1.48
392;1925.36;617.206;1.48
393;1950.08;583.514;1.49
394;1962.28;575.701;1.49
395;1964.72;575.701;1.49
396;1950.08;589.618;1.49
397;1920.47;597.43;1.49
398;1918.03;593.524;1.49
399;1964.72;567.888;1.49
400;1987;595.477;1.49
401;2001.96;593.524;1.49
402;1997.07;557.878;1.49
403;1967.47;583.514;1.49
404;1932.68;583.514;1.49
405;1937.56;591.571;1.5
406;1962.28;573.748;1.5
407;1967.47;575.701;1.5
408;1969.91;567.888;1.5
409;1952.52;607.196;1.5
410;1913.15;579.608;1.5
411;1890.87;563.738;1.5
412;1922.91;619.16;1.5
413;1947.63;585.467;1.5
414;1957.4;581.561;1.5
415;1962.28;575.701;1.5
416;1945.19;589.618;1.5
417;1918.03;591.571;1.50999
418;1922.91;597.43;1.50999
419;1964.72;559.832;1.50999
420;1987;589.618;1.50999
421;2001.96;601.337;1.50999
422;1994.63;550.066;1.50999
423;1964.72;581.561;1.50999
424;1930.24;583.514;1.50999
425;1935.12;591.571;1.50999
426;1959.84;575.701;1.50999
427;1969.91;569.842;1.50999
428;1969.91;573.748;1.50999
429;1952.52;603.29;1.50999
430;1910.4;577.654;1.52
431;1890.87;569.842;1.52
432;1920.47;619.16;1.52
433;1950.08;583.514;1.52
434;1959.84;577.654;1.52
435;1964.72;575.701;1.52
436;1947.63;585.467;1.52
437;1918.03;593.524;1.52
438;1915.59;593.524;1.52
439;1964.72;567.888;1.52
440;1987;595.477;1.52
441;2001.96;593.524;1.52
442;1994.63;553.972;1.53
443;1967.47;583.514;1.53
444;1932.68;589.618;1.53
445;1935.12;589.618;1.53
446;1962.28;571.795;1.53
447;1967.47;579.608;1.53
448;1969.91;559.832;1.53
449;1950.08;611.347;1.53
450;1913.15;585.467;1.53
451;1888.43;553.972;1.53
452;1920.47;615.253;1.53
453;1947.63;585.467;1.53
454;1957.4;585.467;1.53
455;1962.28;571.795;1.53
456;1950.08;593.524;1.54
457;1920.47;583.514;1.54
458;1918.03;603.29;1.54
459;1959.84;555.925;1.54
460;1984.56;579.608;1.54
461;1997.07;611.347;1.54
462;1994.63;550.066;1.54
463;1964.72;579.608;1.54
464;1930.24;577.654;1.54
465;1935.12;593.524;1.54
466;1959.84;573.748;1.54
467;1967.47;579.608;1.54
468;1972.35;563.738;1.54
469;1952.52;611.347;1.54
470;1913.15;583.514;1.55
471;1885.99;557.878;1.55
472;1918.03;619.16;1.55
473;1945.19;583.514;1.55
474;1957.4;583.514;1.55
475;1962.28;573.748;1.55
476;1945.19;591.571;1.55
477;1918.03;585.467;1.55
478;1915.59;601.337;1.55
479;1959.84;557.878;1.55
480;1984.56;583.514;1.55
481;1997.07;605.243;1.55
482;1991.89;546.159;1.55
483;1964.72;579.608;1.55
484;1932.68;579.608;1.56
485;1935.12;593.524;1.56
486;1959.84;575.701;1.56
487;1969.91;577.654;1.56
488;1969.91;567.888;1.56
489;1952.52;609.149;1.56
490;1913.15;579.608;1.56
491;1888.43;561.785;1.56
492;1918.03;621.113;1.56
493;1947.63;585.467;1.56
494;1959.84;581.561;1.56
495;1962.28;575.701;1.56
496;1950.08;587.42;1.56
497;1920.47;589.618;1.56
498;1918.03;599.384;1.57
499;1962.28;561.785;1.57
500;1987;587.42;1.57
501;1999.52;601.337;1.57
502;1997.07;550.066;1.57
503;1964.72;581.561;1.57
504;1932.68;583.514;1.57
505;1932.68;591.571;1.57
506;1957.4;575.701;1.57
507;1967.47;573.748;1.57
508;1969.91;569.842;1.57
509;1952.52;605.243;1.57
510;1913.15;577.654;1.57
511;1888.43;565.935;1.57
512;1918.03;617.206;1.57
513;1945.19;583.514;1.57999
514;1959.84;579.608;1.57999
515;1964.72;577.654;1.57999
516;1950.08;589.618;1.57999
517;1918.03;593.524;1.57999
518;1918.03;595.477;1.57999
519;1962.28;565.935;1.57999
520;1987;595.477;1.57999
521;1999.52;599.384;1.57999
522;1999.52;553.972;1.57999
523;1969.91;581.561;1.57999
524;1935.12;585.467;1.57999
525;1935.12;591.571;1.57999
526;1962.28;577.654;1.57999
527;1972.35;567.888;1.57999
528;1977.24;577.654;1.59
529;1957.4;609.149;1.59
530;1918.03;585.467;1.59
531;1890.87;550.066;1.59
532;1915.59;609.149;1.59
533;1947.63;587.42;1.59
534;1959.84;589.618;1.59
535;1964.72;573.748;1.59
536;1950.08;595.477;1.59
537;1920.47;585.467;1.59
538;1915.59;603.29;1.59
539;1957.4;557.878;1.59
540;1987;581.561;1.59
541;1997.07;611.347;1.59
542;1994.63;553.972;1.59
543;1969.91;581.561;1.6
544;1935.12;577.654;1.6
545;1935.12;595.477;1.6
546;1959.84;573.748;1.6
547;1969.91;581.561;1.6
548;1974.8;567.888;1.6
549;1957.4;609.149;1.6
550;1918.03;585.467;1.6
551;1890.87;555.925;1.6
552;1920.47;617.206;1.6
553;1950.08;585.467;1.6
554;1964.72;585.467;1.6
555;1969.91;571.795;1.6
556;1952.52;593.524;1.6
557;1920.47;583.514;1.6
558;1918.03;601.337;1.61
559;1962.28;557.878;1.61
560;1987;583.514;1.61
561;1999.52;609.149;1.61
562;1997.07;548.112;1.61
563;1969.91;581.561;1.61
564;1935.12;581.561;1.61
565;1935.12;593.524;1.61
566;1962.28;575.701;1.61
567;1972.35;579.608;1.61
568;1974.8;567.888;1.61
569;1957.4;609.149;1.61
570;1918.03;585.467;1.61
571;1890.87;559.832;1.61
572;1918.03;621.113;1.61
573;1952.52;585.467;1.61
574;1962.28;585.467;1.62
575;1969.91;577.654;1.62
576;1954.96;593.524;1.62
577;1925.36;587.42;1.62
578;1922.91;603.29;1.62
579;1964.72;561.785;1.62
580;1989.44;587.42;1.62
581;1999.52;605.243;1.62
582;2001.96;550.066;1.62
583;1974.8;583.514;1.62
584;1940.31;585.467;1.62
585;1940.31;595.477;1.62
586;1964.72;575.701;1.62
587;1974.8;575.701;1.62
588;1977.24;567.888;1.62
589;1962.28;607.196;1.63
590;1925.36;579.608;1.63
591;1893.31;563.738;1.63
592;1920.47;619.16;1.63
593;1952.52;585.467;1.63
594;1964.72;579.608;1.63
595;1969.91;575.701;1.63
596;1957.4;591.571;1.63
597;1925.36;591.571;1.63
598;1920.47;597.43;1.63
599;1962.28;565.935;1.63
600;1989.44;589.618;1.63
601;2001.96;599.384;1.63
602;1999.52;550.066;1.63
603;1972.35;581.561;1.63
604;1940.31;585.467;1.63
605;1940.31;593.524;1.64
606;1964.72;577.654;1.64
607;1969.91;571.795;1.64
608;1974.8;575.701;1.64
609;1962.28;601.337;1.64
610;1920.47;569.842;1.64
611;1890.87;559.832;1.64
612;1920.47;621.113;1.64
613;1952.52;583.514;1.64
614;1962.28;581.561;1.64
615;1969.91;575.701;1.64
616;1954.96;591.571;1.64
617;1927.8;587.42;1.64
618;1922.91;601.337;1.64
619;1967.47;559.832;1.64
620;1989.44;583.514;1.64999
621;2004.4;605.243;1.64999
622;2004.4;548.112;1.64999
623;1977.24;579.608;1.64999
624;1940.31;581.561;1.64999
625;1937.56;591.571;1.64999
626;1964.72;573.748;1.64999
627;1972.35;575.701;1.64999
628;1974.8;567.888;1.64999
629;1962.28;607.196;1.64999
630;1920.47;579.608;1.64999
631;1893.31;563.738;1.64999
632;1922.91;619.16;1.64999
633;1954.96;583.514;1.64999
634;1964.72;579.608;1.64999
635;1969.91;575.701;1.64999
636;1957.4;589.618;1.66
637;1927.8;589.618;1.66
638;1920.47;599.384;1.66
639;1964.72;559.832;1.66
640;1989.44;589.618;1.66
641;2004.4;601.337;1.66
642;2001.96;550.066;1.66
643;1974.8;581.561;1.66
644;1940.31;583.514;1.66
645;1935.12;591.571;1.66
646;1959.84;575.701;1.66
647;1969.91;569.842;1.66
648;1972.35;571.795;1.66
649;1957.4;603.29;1.66
650;1920.47;573.748;1.66
651;1890.87;565.935;1.66
652;1915.59;617.206;1.67
653;1947.63;585.467;1.67
654;1959.84;585.467;1.67
655;1969.91;571.795;1.67
656;1954.96;591.571;1.67
657;1925.36;583.514;1.67
658;1913.15;603.29;1.67
659;1959.84;559.832;1.67
660;1984.56;577.654;1.67
661;1999.52;611.347;1.67
662;1999.52;555.925;1.67
663;1974.8;577.654;1.67
664;1937.56;571.795;1.67
665;1935.12;591.571;1.67
666;1962.28;569.842;1.67
667;1972.35;579.608;1.68
668;1974.8;555.925;1.68
669;1962.28;609.149;1.68
670;1922.91;585.467;1.68
671;1893.31;553.972;1.68
672;1918.03;609.149;1.68
673;1950.08;583.514;1.68
674;1962.28;585.467;1.68
675;1969.91;569.842;1.68
676;1957.4;593.524;1.68
677;1927.8;579.608;1.68
678;1918.03;601.337;1.68
679;1957.4;555.925;1.68
680;1987;575.701;1.68
681;2001.96;609.149;1.68
682;1999.52;550.066;1.68
683;1974.8;577.654;1.68
684;1940.31;573.748;1.68999
685;1932.68;589.618;1.68999
686;1959.84;569.842;1.68999
687;1969.91;575.701;1.68999
688;1972.35;561.785;1.68999
689;1959.84;605.243;1.68999
690;1920.47;581.561;1.68999
691;1890.87;553.972;1.68999
692;1915.59;617.206;1.68999
693;1945.19;581.561;1.68999
694;1962.28;579.608;1.68999
695;1964.72;571.795;1.68999
696;1952.52;589.618;1.68999
697;1922.91;577.654;1.68999
698;1915.59;599.384;1.68999
699;1954.96;555.925;1.68999
700;1984.56;579.608;1.7
701;1994.63;605.243;1.7
702;1997.07;546.159;1.7
703;1972.35;577.654;1.7
704;1935.12;577.654;1.7
705;1930.24;589.618;1.7
706;1957.4;571.795;1.7
707;1967.47;573.748;1.7
708;1967.47;563.738;1.7
709;1954.96;603.29;1.7
710;1920.47;579.608;1.7
711;1888.43;557.878;1.7
712;1910.4;619.16;1.7
713;1945.19;581.561;1.7
714;1954.96;577.654;1.7
715;1962.28;571.795;1.7
716;1950.08;585.467;1.71
717;1922.91;585.467;1.71
718;1910.4;597.43;1.71
719;1952.52;557.878;1.71
720;1982.12;583.514;1.71
721;1997.07;599.384;1.71
722;1997.07;546.159;1.71
723;1969.91;577.654;1.71
724;1935.12;579.608;1.71
725;1930.24;587.42;1.71
726;1954.96;571.795;1.71
727;1967.47;569.842;1.71
728;1969.91;567.888;1.71
729;1959.84;599.384;1.71
730;1920.47;573.748;1.71
731;1888.43;559.832;1.71
732;1913.15;615.253;1.71
733;1942.75;577.654;1.71999
734;1957.4;575.701;1.71999
735;1964.72;571.795;1.71999
736;1952.52;593.524;1.71999
737;1922.91;579.608;1.71999
738;1910.4;603.29;1.71999
739;1957.4;557.878;1.71999
740;1982.12;575.701;1.71999
741;1997.07;609.149;1.71999
742;1999.52;553.972;1.71999
743;1972.35;575.701;1.71999
744;1937.56;569.842;1.71999
745;1942.75;589.618;1.71999
746;1962.28;565.935;1.71999
747;1969.91;579.608;1.71999
748;1967.47;553.972;1.71999
749;1945.19;603.29;1.71999
750;1905.52;583.514;1.73
751;1893.31;546.159;1.73
752;1930.24;603.29;1.73
753;1950.08;581.561;1.73
754;1959.84;585.467;1.73
755;1962.28;565.935;1.73
756;1942.75;589.618;1.73
757;1913.15;577.654;1.73
758;1922.91;601.337;1.73
759;1969.91;553.972;1.73
760;1989.44;573.748;1.73
761;2004.4;609.149;1.73
762;1989.44;552.019;1.73
763;1959.84;575.701;1.73
764;1927.8;573.748;1.73
765;1940.31;589.618;1.73
766;1964.72;565.935;1.73
767;1972.35;573.748;1.73
768;1969.91;557.878;1.74
769;1947.63;605.243;1.74
770;1907.96;581.561;1.74
771;1893.31;550.066;1.74
772;1930.24;609.149;1.74
773;1952.52;577.654;1.74
774;1962.28;581.561;1.74
775;1962.28;567.888;1.74
776;1945.19;587.42;1.74
777;1918.03;579.608;1.74
778;1927.8;599.384;1.74
779;1972.35;553.972;1.74
780;1991.89;579.608;1.74
781;2001.96;601.337;1.74
782;1991.89;544.206;1.74
783;1959.84;577.654;1.74
784;1927.8;575.701;1.74
785;1942.75;583.514;1.75
786;1964.72;569.842;1.75
787;1972.35;575.701;1.75
788;1972.35;561.785;1.75
789;1947.63;601.337;1.75
790;1907.96;577.654;1.75
791;1893.31;553.972;1.75
792;1927.8;615.253;1.75
793;1950.08;577.654;1.75
794;1962.28;577.654;1.75
795;1964.72;569.842;1.75
796;1945.19;585.467;1.75
797;1915.59;581.561;1.75
798;1925.36;597.43;1.75
799;1969.91;557.878;1.75
800;1991.89;579.608;1.75
801;2001.96;601.337;1.75
802;1994.63;544.206;1.75
803;1962.28;575.701;1.75999
804;1930.24;577.654;1.75999
805;1940.31;585.467;1.75999
806;1962.28;571.795;1.75999
807;1969.91;571.795;1.75999
808;1972.35;565.935;1.75999
809;1947.63;603.29;1.75999
810;1907.96;573.748;1.75999
811;1890.87;561.785;1.75999
812;1927.8;615.253;1.75999
813;1950.08;577.654;1.75999
814;1964.72;573.748;1.75999
815;1964.72;569.842;1.75999
816;1945.19;583.514;1.75999
817;1915.59;587.42;1.75999
818;1925.36;595.477;1.75999
819;1969.91;553.972;1.75999
820;1989.44;577.654;1.75999
821;1999.52;603.29;1.75999
822;1994.63;544.206;1.77
823;1957.4;575.701;1.77
824;1930.24;573.748;1.77
825;1940.31;587.42;1.77
826;1962.28;569.842;1.77
827;1969.91;575.701;1.77
828;1972.35;559.832;1.77
829;1945.19;603.29;1.77
830;1907.96;577.654;1.77
831;1888.43;553.972;1.77
832;1925.36;615.253;1.77
833;1947.63;579.608;1.77
834;1957.4;577.654;1.77
835;1959.84;569.842;1.77
836;1942.75;585.467;1.77
837;1915.59;579.608;1.77
838;1920.47;597.43;1.77
839;1964.72;553.972;1.77
840;1987;579.608;1.77
841;1999.52;599.384;1.78
842;1989.44;544.206;1.78
843;1962.28;575.701;1.78
844;1927.8;577.654;1.78
845;1937.56;585.467;1.78
846;1962.28;565.935;1.78
847;1972.35;567.888;1.78
848;1967.47;561.785;1.78
849;1947.63;599.384;1.78
850;1907.96;573.748;1.78
851;1890.87;557.878;1.78
852;1925.36;617.206;1.78
853;1950.08;577.654;1.78
854;1959.84;573.748;1.78
855;1959.84;569.842;1.78
856;1945.19;583.514;1.78
857;1913.15;581.561;1.78
858;1920.47;591.571;1.78
859;1967.47;561.785;1.78
860;1989.44;573.748;1.79
861;2001.96;609.149;1.79
862;1991.89;555.925;1.79
863;1959.84;571.795;1.79
864;1927.8;569.842;1.79
865;1937.56;587.42;1.79
866;1962.28;565.935;1.79
867;1967.47;573.748;1.79
868;1969.91;550.066;1.79
869;1947.63;597.43;1.79
870;1907.96;579.608;1.79
871;1888.43;546.159;1.79
872;1925.36;601.337;1.79
873;1947.63;583.514;1.79
874;1957.4;581.561;1.79
875;1959.84;563.738;1.79
876;1942.75;587.42;1.79
877;1913.15;577.654;1.79
878;1920.47;599.384;1.8
879;1964.72;555.925;1.8
880;1984.56;571.795;1.8
881;1994.63;605.243;1.8
882;1989.44;550.066;1.8
883;1957.4;571.795;1.8
884;1927.8;567.888;1.8
885;1935.12;585.467;1.8
886;1957.4;563.738;1.8
887;1964.72;575.701;1.8
888;1967.47;555.925;1.8
889;1947.63;601.337;1.8
890;1907.96;579.608;1.8
891;1888.43;546.159;1.8
892;1920.47;605.243;1.8
893;1945.19;577.654;1.8
894;1957.4;579.608;1.8
895;1959.84;563.738;1.8
896;1940.31;589.618;1.81
897;1910.4;577.654;1.81
898;1918.03;597.43;1.81
899;1964.72;552.019;1.81
900;1984.56;573.748;1.81
901;1994.63;605.243;1.81
902;1987;544.206;1.81
903;1957.4;571.795;1.81
904;1925.36;571.795;1.81
905;1932.68;587.42;1.81
906;1957.4;565.935;1.81
907;1964.72;573.748;1.81
908;1962.28;555.925;1.81
909;1945.19;605.243;1.81
910;1905.52;577.654;1.81
911;1885.99;550.066;1.81
912;1920.47;611.347;1.81
913;1945.19;577.654;1.81
914;1957.4;575.701;1.81
915;1962.28;565.935;1.82
916;1942.75;583.514;1.82
917;1913.15;577.654;1.82
918;1920.47;595.477;1.82
919;1964.72;552.019;1.82
920;1987;575.701;1.82
921;1997.07;601.337;1.82
922;1991.89;540.056;1.82
923;1957.4;575.701;1.82
924;1930.24;575.701;1.82
925;1935.12;583.514;1.82
926;1959.84;569.842;1.82
927;1967.47;573.748;1.82
928;1967.47;557.878;1.82
929;1947.63;601.337;1.82
930;1907.96;577.654;1.82
931;1890.87;552.019;1.82
932;1920.47;615.253;1.82
933;1947.63;575.701;1.82
934;1957.4;575.701;1.82999
935;1959.84;565.935;1.82999
936;1940.31;585.467;1.82999
937;1913.15;581.561;1.82999
938;1918.03;591.571;1.82999
939;1962.28;553.972;1.82999
940;1984.56;579.608;1.82999
941;1994.63;595.477;1.82999
942;1989.44;555.925;1.82999
943;1962.28;569.842;1.82999
944;1927.8;565.935;1.82999
945;1932.68;585.467;1.82999
946;1957.4;561.785;1.82999
947;1964.72;571.795;1.82999
948;1967.47;550.066;1.82999
949;1945.19;593.524;1.82999
950;1905.52;579.608;1.82999
951;1885.99;544.206;1.82999
952;1918.03;599.384;1.82999
953;1945.19;585.467;1.84
954;1954.96;577.654;1.84
955;1959.84;565.935;1.84
956;1940.31;587.42;1.84
957;1913.15;577.654;1.84
958;1918.03;599.384;1.84
959;1962.28;557.878;1.84
960;1982.12;571.795;1.84
961;1994.63;607.196;1.84
962;1987;552.019;1.84
963;1959.84;569.842;1.84
964;1925.36;567.888;1.84
965;1932.68;587.42;1.84
966;1957.4;561.785;1.84
967;1962.28;571.795;1.84
968;1967.47;553.972;1.84
969;1947.63;601.337;1.84
970;1905.52;577.654;1.84
971;1885.99;542.009;1.84
972;1918.03;603.29;1.85
973;1945.19;579.608;1.85
974;1954.96;579.608;1.85
975;1962.28;565.935;1.85
976;1940.31;587.42;1.85
977;1915.59;575.701;1.85
978;1915.59;597.43;1.85
979;1962.28;552.019;1.85
980;1982.12;571.795;1.85
981;1997.07;605.243;1.85
982;1989.44;546.159;1.85
983;1962.28;573.748;1.85
984;1927.8;571.795;1.85
985;1935.12;585.467;1.85
986;1957.4;563.738;1.85
987;1964.72;573.748;1.85
988;1967.47;555.925;1.85
989;1947.63;605.243;1.85
990;1907.96;577.654;1.85
991;1885.99;546.159;1.85
992;1915.59;607.196;1.86
993;1942.75;575.701;1.86
994;1954.96;577.654;1.86
995;1957.4;563.738;1.86
996;1940.31;583.514;1.86
997;1910.4;577.654;1.86
998;1913.15;595.477;1.86
999;1957.4;550.066;1.86
1000;1979.68;571.795;1.86
1001;1987;605.243;1.86
1002;1984.56;542.009;1.86
1003;1954.96;573.748;1.86
1004;1920.47;573.748;1.86
1005;1925.36;583.514;1.86
1006;1950.08;565.935;1.86
1007;1957.4;571.795;1.86
1008;1957.4;557.878;1.86
1009;1940.31;601.337;1.86
1010;1903.08;575.701;1.86
1011;1880.8;552.019;1.87
1012;1910.4;613.3;1.87
1013;1937.56;577.654;1.87
1014;1947.63;573.748;1.87
1015;1952.52;565.935;1.87
1016;1935.12;583.514;1.87
1017;1905.52;579.608;1.87
1018;1907.96;593.524;1.87
1019;1952.52;552.019;1.87
1020;1974.8;573.748;1.87
1021;1987;595.477;1.87
1022;1982.12;540.056;1.87
1023;1950.08;573.748;1.87
1024;1920.47;569.842;1.87
1025;1922.91;585.467;1.87
1026;1950.08;563.738;1.87
1027;1957.4;571.795;1.87
1028;1957.4;553.972;1.87
1029;1937.56;601.337;1.87
1030;1903.08;577.654;1.87
1031;1875.92;548.112;1.88
1032;1907.96;605.243;1.88
1033;1935.12;577.654;1.88
1034;1947.63;577.654;1.88
1035;1952.52;563.738;1.88
1036;1935.12;585.467;1.88
1037;1905.52;575.701;1.88
1038;1905.52;597.43;1.88
1039;1952.52;550.066;1.88
1040;1972.35;571.795;1.88
1041;1987;603.29;1.88
1042;1984.56;542.009;1.88
1043;1954.96;571.795;1.88
1044;1918.03;571.795;1.88
1045;1922.91;585.467;1.88
1046;1947.63;563.738;1.88
1047;1957.4;571.795;1.88
1048;1957.4;555.925;1.88
1049;1940.31;601.337;1.88
1050;1903.08;573.748;1.88
1051;1878.36;550.066;1.88
1052;1910.4;611.347;1.89
1053;1932.68;577.654;1.89
1054;1947.63;573.748;1.89
1055;1950.08;563.738;1.89
1056;1937.56;583.514;1.89
1057;1907.96;577.654;1.89
1058;1907.96;593.524;1.89
1059;1952.52;552.019;1.89
1060;1972.35;575.701;1.89
1061;1982.12;597.43;1.89
1062;1979.68;538.102;1.89
1063;1950.08;573.748;1.89
1064;1918.03;571.795;1.89
1065;1922.91;583.514;1.89
1066;1947.63;563.738;1.89
1067;1957.4;571.795;1.89
1068;1957.4;552.019;1.89
1069;1942.75;589.618;1.89
1070;1905.52;579.608;1.89
1071;1880.8;544.206;1.89
1072;1907.96;593.524;1.89999
1073;1935.12;583.514;1.89999
1074;1945.19;579.608;1.89999
1075;1950.08;563.738;1.89999
1076;1935.12;587.42;1.89999
1077;1905.52;573.748;1.89999
1078;1905.52;599.384;1.89999
1079;1950.08;559.832;1.89999
1080;1972.35;569.842;1.89999
1081;1987;607.196;1.89999
1082;1984.56;553.972;1.89999
1083;1952.52;567.888;1.89999
1084;1920.47;565.935;1.89999
1085;1922.91;585.467;1.89999
1086;1947.63;561.785;1.89999
1087;1954.96;569.842;1.89999
1088;1957.4;552.019;1.89999
1089;1940.31;595.477;1.89999
1090;1900.64;577.654;1.89999
1091;1878.36;544.206;1.89999
1092;1907.96;599.384;1.89999
1093;1937.56;579.608;1.91
1094;1947.63;579.608;1.91
1095;1952.52;563.738;1.91
1096;1937.56;585.467;1.91
1097;1910.4;573.748;1.91
1098;1907.96;597.43;1.91
1099;1950.08;553.972;1.91
1100;1974.8;567.888;1.91
1101;1987;605.243;1.91
1102;1984.56;546.159;1.91
1103;1954.96;571.795;1.91
1104;1922.91;567.888;1.91
1105;1922.91;585.467;1.91
1106;1950.08;561.785;1.91
1107;1954.96;571.795;1.91
1108;1957.4;552.019;1.91
1109;1940.31;601.337;1.91
1110;1905.52;577.654;1.91
1111;1878.36;544.206;1.91
1112;1907.96;603.29;1.91
1113;1937.56;577.654;1.92
1114;1947.63;577.654;1.92
1115;1952.52;561.785;1.92
1116;1937.56;587.42;1.92
1117;1907.96;573.748;1.92
1118;1907.96;597.43;1.92
1119;1952.52;548.112;1.92
1120;1972.35;571.795;1.92
1121;1984.56;603.29;1.92
1122;1984.56;544.206;1.92
1123;1954.96;571.795;1.92
1124;1920.47;569.842;1.92
1125;1925.36;585.467;1.92
1126;1950.08;561.785;1.92
1127;1957.4;569.842;1.92
1128;1959.84;553.972;1.92
1129;1942.75;603.29;1.92
1130;1907.96;575.701;1.92
1131;1880.8;548.112;1.92
1132;1907.96;609.149;1.92
1133;1940.31;577.654;1.93
1134;1950.08;575.701;1.93
1135;1952.52;563.738;1.93
1136;1940.31;583.514;1.93
1137;1910.4;575.701;1.93
1138;1907.96;595.477;1.93
1139;1952.52;548.112;1.93
1140;1977.24;573.748;1.93
1141;1989.44;599.384;1.93
1142;1987;540.056;1.93
1143;1959.84;571.795;1.93
1144;1927.8;571.795;1.93
1145;1925.36;585.467;1.93
1146;1950.08;565.935;1.93
1147;1959.84;569.842;1.93
1148;1962.28;550.066;1.93
1149;1942.75;587.42;1.93
1150;1907.96;579.608;1.93
1151;1880.8;542.009;1.93
1152;1913.15;587.42;1.93999
1153;1937.56;583.514;1.93999
1154;1950.08;579.608;1.93999
1155;1957.4;563.738;1.93999
1156;1942.75;587.42;1.93999
1157;1915.59;575.701;1.93999
1158;1907.96;601.337;1.93999
1159;1952.52;563.738;1.93999
1160;1974.8;567.888;1.93999
1161;1989.44;605.243;1.93999
1162;1989.44;555.925;1.93999
1163;1959.84;567.888;1.93999
1164;1925.36;565.935;1.93999
1165;1925.36;585.467;1.93999
1166;1950.08;561.785;1.93999
1167;1959.84;571.795;1.93999
1168;1962.28;550.066;1.93999
1169;1945.19;593.524;1.93999
1170;1907.96;577.654;1.93999
1171;1880.8;542.009;1.93999
1172;1910.4;593.524;1.95
1173;1937.56;579.608;1.95
1174;1952.52;579.608;1.95
1175;1954.96;563.738;1.95
1176;1942.75;583.514;1.95
1177;1915.59;573.748;1.95
1178;1910.4;597.43;1.95
1179;1952.52;555.925;1.95
1180;1977.24;569.842;1.95
1181;1989.44;603.29;1.95
1182;1987;550.066;1.95
1183;1962.28;569.842;1.95
1184;1927.8;563.738;1.95
1185;1927.8;583.514;1.95
1186;1950.08;561.785;1.95
1187;1959.84;571.795;1.95
1188;1962.28;552.019;1.95
1189;1947.63;599.384;1.95
1190;1907.96;575.701;1.95
1191;1880.8;544.206;1.95
1192;1907.96;601.337;1.96
1193;1940.31;577.654;1.96
1194;1950.08;577.654;1.96
1195;1957.4;561.785;1.96
1196;1942.75;585.467;1.96
1197;1915.59;571.795;1.96
1198;1910.4;597.43;1.96
1199;1952.52;548.112;1.96
1200;1979.68;571.795;1.96
1201;1991.89;607.196;1.96
1202;1991.89;546.159;1.96
1203;1962.28;569.842;1.96
1204;1930.24;567.888;1.96
1205;1927.8;581.561;1.96
1206;1950.08;561.785;1.96
1207;1959.84;571.795;1.96
1208;1964.72;553.972;1.96
1209;1947.63;601.337;1.96
1210;1907.96;575.701;1.96
1211;1883.24;544.206;1.96999
1212;1907.96;607.196;1.96999
1213;1940.31;577.654;1.96999
1214;1952.52;575.701;1.96999
1215;1957.4;561.785;1.96999
1216;1945.19;583.514;1.96999
1217;1920.47;571.795;1.96999
1218;1910.4;597.43;1.96999
1219;1954.96;550.066;1.96999
1220;1977.24;573.748;1.96999
1221;1991.89;601.337;1.96999
1222;1991.89;540.056;1.96999
1223;1964.72;569.842;1.96999
1224;1932.68;569.842;1.96999
1225;1927.8;581.561;1.96999
1226;1954.96;563.738;1.96999
1227;1962.28;569.842;1.96999
1228;1964.72;555.925;1.96999
1229;1950.08;599.384;1.96999
1230;1910.4;573.748;1.98
1231;1883.24;542.009;1.98
1232;1910.4;599.384;1.98
1233;1940.31;579.608;1.98
1234;1952.52;579.608;1.98
1235;1957.4;561.785;1.98
1236;1942.75;585.467;1.98
1237;1915.59;573.748;1.98
1238;1907.96;597.43;1.98
1239;1952.52;550.066;1.98
1240;1979.68;569.842;1.98
1241;1991.89;603.29;1.98
1242;1994.63;548.112;1.98
1243;1967.47;571.795;1.98
1244;1930.24;565.935;1.98
1245;1927.8;583.514;1.98
1246;1954.96;563.738;1.98
1247;1964.72;569.842;1.98
1248;1967.47;550.066;1.98
1249;1950.08;599.384;1.98
1250;1915.59;575.701;1.99
1251;1885.99;544.206;1.99
1252;1910.4;603.29;1.99
1253;1942.75;575.701;1.99
1254;1952.52;575.701;1.99
1255;1959.84;559.832;1.99
1256;1947.63;583.514;1.99
1257;1918.03;573.748;1.99
1258;1910.4;595.477;1.99
1259;1954.96;546.159;1.99
1260;1982.12;569.842;1.99
1261;1997.07;603.29;1.99
1262;1994.63;538.102;1.99
1263;1969.91;569.842;1.99
1264;1937.56;569.842;1.99
1265;1930.24;581.561;1.99
1266;1954.96;563.738;1.99
1267;1967.47;569.842;1.99
1268;1967.47;553.972;1.99
1269;1950.08;601.337;1.99
1270;1915.59;571.795;2
1271;1888.43;548.112;2
1272;1913.15;587.42;2
1273;1945.19;585.467;2
1274;1962.28;579.608;2
1275;1962.28;561.785;2
1276;1950.08;583.514;2
1277;1920.47;573.748;2
1278;1913.15;597.43;2
1279;1959.84;563.738;2
1280;1987;567.888;2
1281;1999.52;603.29;2
1282;1997.07;557.878;2
1283;1969.91;561.785;2
1284;1937.56;565.935;2
1285;1932.68;581.561;2
1286;1959.84;563.738;2
1287;1967.47;567.888;2
1288;1972.35;548.112;2
1289;1954.96;585.467;2
1290;1918.03;577.654;2
1291;1893.31;538.102;2.00999
1292;1913.15;589.618;2.00999
1293;1947.63;581.561;2.00999
1294;1959.84;577.654;2.00999
1295;1967.47;561.785;2.00999
1296;1952.52;583.514;2.00999
1297;1925.36;573.748;2.00999
1298;1915.59;597.43;2.00999
1299;1959.84;561.785;2.00999
1300;1987;569.842;2.00999
1301;1999.52;605.243;2.00999
1302;2001.96;552.019;2.00999
1303;1974.8;565.935;2.00999
1304;1937.56;565.935;2.00999
1305;1932.68;581.561;2.00999
1306;1959.84;561.785;2.00999
1307;1969.91;573.748;2.00999
1308;1972.35;548.112;2.00999
1309;1957.4;595.477;2.00999
1310;1920.47;575.701;2.00999
1311;1893.31;542.009;2.00999
1312;1915.59;595.477;2.02
1313;1947.63;579.608;2.02
1314;1959.84;579.608;2.02
1315;1967.47;561.785;2.02
1316;1954.96;585.467;2.02
1317;1925.36;571.795;2.02
1318;1915.59;599.384;2.02
1319;1959.84;552.019;2.02
1320;1989.44;569.842;2.02
1321;2001.96;605.243;2.02
1322;1999.52;548.112;2.02
1323;1977.24;567.888;2.02
1324;1940.31;565.935;2.02
1325;1932.68;583.514;2.02
1326;1962.28;559.832;2.02
1327;1969.91;571.795;2.02
1328;1974.8;550.066;2.02
1329;1959.84;597.43;2.02
1330;1922.91;575.701;2.02
1331;1893.31;542.009;2.02
1332;1918.03;601.337;2.03
1333;1950.08;575.701;2.03
1334;1964.72;575.701;2.03
1335;1969.91;561.785;2.03
1336;1954.96;583.514;2.03
1337;1927.8;571.795;2.03
1338;1920.47;595.477;2.03
1339;1962.28;548.112;2.03
1340;1987;571.795;2.03
1341;2001.96;603.29;2.03
1342;2004.4;542.009;2.03
1343;1977.24;565.935;2.03
1344;1942.75;567.888;2.03
1345;1935.12;583.514;2.03
1346;1962.28;561.785;2.03
1347;1972.35;571.795;2.03
1348;1977.24;552.019;2.03
1349;1962.28;599.384;2.03
1350;1925.36;573.748;2.03
1351;1895.75;546.159;2.03
1352;1918.03;605.243;2.04
1353;1952.52;573.748;2.04
1354;1964.72;577.654;2.04
1355;1972.35;561.785;2.04
1356;1959.84;577.654;2.04
1357;1927.8;573.748;2.04
1358;1918.03;599.384;2.04
1359;1962.28;567.888;2.04
1360;1991.89;565.935;2.04
1361;2006.84;601.337;2.04
1362;2004.4;561.785;2.04
1363;1979.68;561.785;2.04
1364;1945.19;563.738;2.04
1365;1942.75;581.561;2.04
1366;1964.72;567.888;2.04
1367;1974.8;569.842;2.04
1368;1977.24;548.112;2.04
1369;1964.72;583.514;2.04
1370;1925.36;577.654;2.04
1371;1898.19;540.056;2.05
1372;1918.03;587.42;2.05
1373;1952.52;583.514;2.05
1374;1967.47;579.608;2.05
1375;1974.8;561.785;2.05
1376;1962.28;583.514;2.05
1377;1932.68;573.748;2.05
1378;1922.91;599.384;2.05
1379;1964.72;563.738;2.05
1380;1991.89;567.888;2.05
1381;2006.84;605.243;2.05
1382;2006.84;555.925;2.05
1383;1984.56;565.935;2.05
1384;1947.63;563.738;2.05
1385;1937.56;581.561;2.05
1386;1967.47;561.785;2.05
1387;1974.8;567.888;2.05
1388;1977.24;548.112;2.05
1389;1967.47;589.618;2.05
1390;1930.24;577.654;2.06
1391;1900.64;538.102;2.06
1392;1920.47;593.524;2.06
1393;1954.96;577.654;2.06
1394;1967.47;579.608;2.06
1395;1977.24;561.785;2.06
1396;1964.72;585.467;2.06
1397;1935.12;571.795;2.06
1398;1922.91;597.43;2.06
1399;1964.72;557.878;2.06
1400;1994.63;567.888;2.06
1401;2006.84;605.243;2.06
1402;2009.28;550.066;2.06
1403;1984.56;567.888;2.06
1404;1947.63;563.738;2.06
1405;1942.75;581.561;2.06
1406;1969.91;561.785;2.06
1407;1979.68;569.842;2.06
1408;1984.56;550.066;2.06
1409;1969.91;597.43;2.06
1410;1935.12;577.654;2.07
1411;1900.64;540.056;2.07
1412;1922.91;597.43;2.07
1413;1957.4;575.701;2.07
1414;1969.91;577.654;2.07
1415;1974.8;559.832;2.07
1416;1967.47;585.467;2.07
1417;1937.56;569.842;2.07
1418;1925.36;595.477;2.07
1419;1967.47;550.066;2.07
1420;1997.07;569.842;2.07
1421;2011.72;603.29;2.07
1422;2009.28;542.009;2.07
1423;1984.56;567.888;2.07
1424;1950.08;565.935;2.07
1425;1940.31;581.561;2.07
1426;1969.91;561.785;2.07
1427;1979.68;569.842;2.07
1428;1982.12;552.019;2.07999
1429;1969.91;599.384;2.07999
1430;1932.68;575.701;2.07999
1431;1900.64;540.056;2.07999
1432;1920.47;603.29;2.07999
1433;1959.84;575.701;2.07999
1434;1969.91;575.701;2.07999
1435;1977.24;563.738;2.07999
1436;1967.47;583.514;2.07999
1437;1937.56;573.748;2.07999
1438;1927.8;599.384;2.07999
1439;1967.47;557.878;2.07999
1440;1997.07;565.935;2.07999
1441;2009.28;603.29;2.07999
1442;2011.72;550.066;2.07999
1443;1987;565.935;2.07999
1444;1950.08;565.935;2.07999
1445;1942.75;581.561;2.07999
1446;1969.91;559.832;2.07999
1447;1982.12;573.748;2.09
1448;1982.12;548.112;2.09
1449;1972.35;595.477;2.09
1450;1935.12;575.701;2.09
1451;1903.08;540.056;2.09
1452;1925.36;597.43;2.09
1453;1959.84;577.654;2.09
1454;1972.35;577.654;2.09
1455;1979.68;563.738;2.09
1456;1967.47;585.467;2.09
1457;1940.31;573.748;2.09
1458;1925.36;597.43;2.09
1459;1964.72;550.066;2.09
1460;1997.07;569.842;2.09
1461;2009.28;603.29;2.09
1462;2011.72;546.159;2.09
1463;1987;567.888;2.09
1464;1952.52;565.935;2.09
1465;1942.75;583.514;2.1
1466;1969.91;559.832;2.1
1467;1982.12;573.748;2.1
1468;1987;552.019;2.1
1469;1972.35;601.337;2.1
1470;1937.56;575.701;2.1
1471;1903.08;542.009;2.1
1472;1925.36;601.337;2.1
1473;1957.4;573.748;2.1
1474;1969.91;575.701;2.1
1475;1977.24;561.785;2.1
1476;1967.47;583.514;2.1
1477;1937.56;573.748;2.1
1478;1925.36;597.43;2.1
1479;1964.72;565.935;2.1
1480;1997.07;563.738;2.1
1481;2009.28;599.384;2.1
1482;2014.16;563.738;2.1
1483;1991.89;559.832;2.1
1484;1954.96;565.935;2.11
1485;1942.75;579.608;2.11
1486;1972.35;567.888;2.11
1487;1982.12;567.888;2.11
1488;1984.56;548.112;2.11
1489;1974.8;579.608;2.11
1490;1940.31;575.701;2.11
1491;1905.52;540.056;2.11
1492;1920.47;581.561;2.11
1493;1959.84;585.467;2.11
1494;1972.35;579.608;2.11
1495;1982.12;561.785;2.11
1496;1969.91;583.514;2.11
1497;1945.19;571.795;2.11
1498;1927.8;597.43;2.11
1499;1969.91;565.935;2.11
1500;1999.52;563.738;2.11
1501;2011.72;601.337;2.12
1502;2014.16;557.878;2.12
1503;1991.89;565.935;2.12
1504;1954.96;565.935;2.12
1505;1947.63;581.561;2.12
1506;1972.35;561.785;2.12
1507;1987;567.888;2.12
1508;1989.44;548.112;2.12
1509;1977.24;583.514;2.12
1510;1940.31;579.608;2.12
1511;1907.96;540.056;2.12
1512;1925.36;589.618;2.12
1513;1962.28;581.561;2.12
1514;1974.8;579.608;2.12
1515;1984.56;561.785;2.12
1516;1972.35;585.467;2.12
1517;1945.19;573.748;2.12
1518;1932.68;597.43;2.12
1519;1969.91;561.785;2.13
1520;2001.96;567.888;2.13
1521;2016.61;605.243;2.13
1522;2019.05;553.972;2.13
1523;1997.07;565.935;2.13
1524;1959.84;563.738;2.13
1525;1945.19;581.561;2.13
1526;1974.8;559.832;2.13
1527;1984.56;567.888;2.13
1528;1989.44;546.159;2.13
1529;1979.68;593.524;2.13
1530;1940.31;575.701;2.13
1531;1907.96;540.056;2.13
1532;1922.91;595.477;2.13
1533;1959.84;575.701;2.13
1534;1974.8;577.654;2.13
1535;1982.12;561.785;2.13
1536;1974.8;587.42;2.13
1537;1947.63;571.795;2.13
1538;1930.24;595.477;2.14
1539;1967.47;555.925;2.14
1540;1999.52;571.795;2.14
1541;2016.61;603.29;2.14
1542;2019.05;548.112;2.14
1543;1997.07;569.842;2.14
1544;1959.84;563.738;2.14
1545;1945.19;583.514;2.14
1546;1974.8;559.832;2.14
1547;1987;569.842;2.14
1548;1991.89;550.066;2.14
1549;1982.12;599.384;2.14
1550;1947.63;575.701;2.14
1551;1910.4;542.009;2.14
1552;1930.24;597.43;2.14
1553;1964.72;575.701;2.14
1554;1977.24;575.701;2.14
1555;1984.56;561.785;2.14999
1556;1977.24;583.514;2.14999
1557;1950.08;571.795;2.14999
1558;1932.68;595.477;2.14999
1559;1972.35;569.842;2.14999
1560;2004.4;563.738;2.14999
1561;2016.61;597.43;2.14999
1562;2021.79;563.738;2.14999
1563;1997.07;559.832;2.14999
1564;1964.72;567.888;2.14999
1565;1952.52;579.608;2.14999
1566;1977.24;571.795;2.14999
1567;1987;569.842;2.14999
1568;1991.89;548.112;2.14999
1569;1979.68;579.608;2.14999
1570;1945.19;579.608;2.14999
1571;1910.4;540.056;2.14999
1572;1927.8;581.561;2.14999
1573;1967.47;585.467;2.14999
1574;1982.12;575.701;2.16
1575;1987;561.785;2.16
1576;1979.68;581.561;2.16
1577;1954.96;573.748;2.16
1578;1935.12;597.43;2.16
1579;1972.35;567.888;2.16
1580;2004.4;565.935;2.16
1581;2016.61;603.29;2.16
1582;2024.24;559.832;2.16
1583;1999.52;561.785;2.16
1584;1964.72;563.738;2.16
1585;1952.52;581.561;2.16
1586;1977.24;563.738;2.16
1587;1989.44;571.795;2.16
1588;1994.63;546.159;2.16
1589;1982.12;583.514;2.16
1590;1947.63;577.654;2.16
1591;1913.15;542.009;2.16
1592;1927.8;587.42;2.17
1593;1964.72;579.608;2.17
1594;1979.68;577.654;2.17
1595;1987;559.832;2.17
1596;1979.68;581.561;2.17
1597;1952.52;573.748;2.17
1598;1935.12;595.477;2.17
1599;1972.35;563.738;2.17
1600;2006.84;565.935;2.17
1601;2019.05;603.29;2.17
1602;2024.24;553.972;2.17
1603;2001.96;563.738;2.17
1604;1964.72;563.738;2.17
1605;1952.52;579.608;2.17
1606;1977.24;559.832;2.17
1607;1991.89;569.842;2.17
1608;1994.63;548.112;2.17
1609;1984.56;589.618;2.18
1610;1952.52;577.654;2.18
1611;1918.03;542.009;2.18
1612;1927.8;591.571;2.18
1613;1967.47;577.654;2.18
1614;1984.56;579.608;2.18
1615;1991.89;559.832;2.18
1616;1984.56;585.467;2.18
1617;1957.4;573.748;2.18
1618;1937.56;597.43;2.18
1619;1974.8;555.925;2.18
1620;2009.28;567.888;2.18
1621;2021.79;601.337;2.18
1622;2026.68;550.066;2.18
1623;2004.4;567.888;2.18
1624;1972.35;563.738;2.18
1625;1957.4;583.514;2.18
1626;1982.12;559.832;2.18
1627;1994.63;569.842;2.18999
1628;2001.96;548.112;2.18999
1629;1989.44;595.477;2.18999
1630;1952.52;577.654;2.18999
1631;1918.03;538.102;2.18999
1632;1932.68;599.384;2.18999
1633;1969.91;573.748;2.18999
1634;1984.56;577.654;2.18999
1635;1989.44;559.832;2.18999
1636;1987;583.514;2.18999
1637;1957.4;571.795;2.18999
1638;1942.75;595.477;2.18999
1639;1977.24;550.066;2.18999
1640;2011.72;567.888;2.18999
1641;2024.24;603.29;2.18999
1642;2034;553.972;2.18999
1643;2011.72;563.738;2.18999
1644;1974.8;563.738;2.18999
1645;1957.4;583.514;2.2
1646;1984.56;559.832;2.2
1647;1999.52;569.842;2.2
1648;2001.96;546.159;2.2
1649;1991.89;587.42;2.2
1650;1957.4;577.654;2.2
1651;1922.91;538.102;2.2
1652;1932.68;591.571;2.2
1653;1974.8;579.608;2.2
1654;1987;577.654;2.2
1655;1997.07;561.785;2.2
1656;1989.44;585.467;2.2
1657;1962.28;571.795;2.2
1658;1942.75;597.43;2.2
1659;1979.68;557.878;2.2
1660;2016.61;565.935;2.2
1661;2029.12;603.29;2.2
1662;2034;548.112;2.2
1663;2014.16;563.738;2.21
1664;1977.24;563.738;2.21
1665;1962.28;583.514;2.21
1666;1987;559.832;2.21
1667;2001.96;567.888;2.21
1668;2006.84;546.159;2.21
1669;1997.07;593.524;2.21
1670;1964.72;575.701;2.21
1671;1927.8;540.056;2.21
1672;1940.31;595.477;2.21
1673;1979.68;575.701;2.21
1674;1989.44;575.701;2.21
1675;1999.52;561.785;2.21
1676;1991.89;583.514;2.21
1677;1964.72;571.795;2.21
1678;1947.63;597.43;2.21
1679;1982.12;548.112;2.21
1680;2019.05;569.842;2.21
1681;2034;603.29;2.21999
1682;2041.33;544.206;2.21999
1683;2019.05;552.019;2.21999
1684;1984.56;567.888;2.21999
1685;1967.47;579.608;2.21999
1686;1991.89;577.654;2.21999
1687;2006.84;567.888;2.21999
1688;2011.72;548.112;2.21999
1689;2004.4;577.654;2.21999
1690;1969.91;579.608;2.21999
1691;1930.24;542.009;2.21999
1692;1942.75;573.748;2.21999
1693;1982.12;589.618;2.21999
