<WeldAnalyseData xmlns:i="http:www.w3.org/2001/XMLSchema-instance">
<WeldParameter>
<TimeStamp>DT#2024-01-24-14:46:39</TimeStamp>
<Generator>SG-22-10000</Generator>
<GenFreq>20</GenFreq>
<MaxForce>8000</MaxForce>
<MaxPower>10000</MaxPower>
<RunupPressure>1.5</RunupPressure>
<RunupDist>10</RunupDist>
<RunPress>0.8</RunPress>
<ShakeDelay>0.03</ShakeDelay>
<ShakeTime>0.3</ShakeTime>
<RunBackPress1>6</RunBackPress1>
<RunBackPress2>2</RunBackPress2>
<RunBackDist>1</RunBackDist>
<TrigValue>500</TrigValue>
<TrigModeUnit>W</TrigModeUnit>
<WeldModeUnit>Ws</WeldModeUnit>
<PressNr>0</PressNr>
<MaxLoss>1500</MaxLoss>
</WeldParameter>
<WeldSets>
<WeldSet>
<PressRiseTime>0</PressRiseTime>
<RunPressure>1</RunPressure>
<Amplitude>86</Amplitude>
<WeldMode>3270</WeldMode>
</WeldSet>
</WeldSets>
<WeldValue>
<WeldNr>2968</WeldNr>
<RecipeName>RickStyle</RecipeName>
<WeldTime>1691</WeldTime>
<DistDiff>2.35</DistDiff>
<DistAbs>78</DistAbs>
<Energy>3271.88</Energy>
<MaxPower>2129.14</MaxPower>
<CycleTime>6130</CycleTime>
<TrigForce>500.748</TrigForce>
<TrigDist>75.65</TrigDist>
<RunSpeed>67.7867</RunSpeed>
<MaxForce>623.066</MaxForce>
<LossPower>325.156</LossPower>
</WeldValue>
</WeldAnalyseData>
#CSV-START#
ms;Power[W];Force[N];Distance[mm]
1;0;0;0
2;0;500.748;0
3;0;498.795;0
4;0;500.748;0
5;0;502.701;0
6;0;502.701;0
7;0;498.795;0
8;0;484.878;0
9;0;427.503;0.0100021
10;0;411.878;0.0299988
11;0;368.419;0.0599976
12;22.7554;364.513;0.0999985
13;77.0783;342.784;0.139999
14;153.68;311.045;0.18
15;230.281;324.961;0.220001
16;289.487;295.419;0.260002
17;343.81;287.362;0.299995
18;400.575;275.643;0.349998
19;457.339;283.456;0.400002
20;511.662;287.362;0.449997
21;576.056;299.326;0.489998
22;645.028;283.456;0.529999
23;711.863;303.232;0.559998
24;775.952;319.102;0.589996
25;840.041;293.222;0.619995
26;884.598;323.008;0.639999
27;929.155;334.727;0.659996
28;985.92;354.503;0.68
29;1042.68;358.409;0.689995
30;1086.94;364.513;0.699997
31;1126.61;376.232;0.709999
32;1146.14;401.868;0.709999
33;1151.33;390.149;0.709999
34;1173.3;392.102;0.720001
35;1217.86;427.503;0.720001
36;1257.53;405.774;0.729996
37;1287.14;405.774;0.729996
38;1314.3;405.774;0.739998
39;1328.95;415.784;0.739998
40;1339.02;423.597;0.75
41;1375.95;423.597;0.75
42;1427.83;407.971;0.760002
43;1459.87;433.607;0.760002
44;1491.92;429.456;0.769997
45;1506.87;399.915;0.779999
46;1499.24;421.644;0.779999
47;1499.24;431.654;0.790001
48;1531.59;435.56;0.790001
49;1568.52;423.597;0.799995
50;1593.24;415.784;0.809998
51;1610.63;427.503;0.809998
52;1607.89;443.373;0.82
53;1590.8;415.784;0.830002
54;1600.56;429.456;0.839996
55;1654.89;457.289;0.839996
56;1689.37;437.513;0.849998
57;1718.97;431.654;0.860001
58;1733.93;437.513;0.860001
59;1731.49;447.279;0.869995
60;1718.97;465.102;0.879997
61;1751.32;453.383;0.879997
62;1800.46;441.42;0.889999
63;1830.37;477.065;0.900002
64;1852.34;459.243;0.900002
65;1852.34;439.467;0.909996
66;1827.62;457.289;0.909996
67;1810.53;470.962;0.919998
68;1832.81;469.008;0.919998
69;1862.41;461.196;0.93
70;1877.06;445.326;0.93
71;1879.5;470.962;0.939995
72;1864.85;477.065;0.939995
73;1832.81;469.008;0.949997
74;1830.37;447.279;0.949997
75;1877.06;506.607;0.959999
76;1906.66;472.915;0.959999
77;1926.5;472.915;0.970001
78;1928.94;465.102;0.970001
79;1916.73;484.878;0.979996
80;1899.34;486.831;0.979996
81;1921.62;496.597;0.989998
82;1973.5;459.243;0.989998
83;1998.22;486.831;0.989998
84;2017.75;504.654;1
85;2010.43;451.186;1
86;1980.82;488.784;1.01
87;1956.1;490.738;1.01
88;1980.82;500.748;1.01
89;2007.98;484.878;1.02
90;2020.5;482.925;1.02
91;2022.94;482.925;1.03
92;2000.66;518.326;1.03
93;1960.99;490.738;1.03
94;1951.22;479.019;1.04
95;1995.78;534.196;1.04
96;2027.82;500.748;1.04
97;2042.47;496.597;1.05
98;2037.59;494.644;1.05
99;2017.75;508.56;1.05
100;1990.59;512.467;1.06
101;2010.43;518.326;1.06
102;2057.42;484.878;1.06
103;2082.14;518.326;1.07
104;2091.91;518.326;1.07
105;2077.26;475.112;1.07
106;2042.47;504.654;1.08
107;2010.43;510.514;1.08
108;2027.82;514.42;1.08
109;2052.54;502.701;1.09
110;2059.87;492.691;1.09
111;2057.42;500.748;1.09
112;2027.82;526.383;1.1
113;1988.15;494.644;1.1
114;1973.5;496.597;1.1
115;2012.87;544.206;1.11
116;2040.03;510.514;1.11
117;2050.1;504.654;1.11
118;2050.1;506.607;1.12
119;2025.38;518.326;1.12
120;1995.78;528.336;1.12
121;2010.43;522.477;1.12
122;2057.42;500.748;1.13
123;2077.26;532.243;1.13
124;2087.03;524.43;1.13
125;2074.82;488.784;1.14
126;2037.59;514.42;1.14
127;2003.1;522.477;1.14
128;2022.94;524.43;1.14
129;2044.91;510.514;1.15
130;2047.66;502.701;1.15
131;2044.91;516.373;1.15
132;2017.75;532.243;1.15
133;1971.06;502.701;1.16
134;1958.54;514.42;1.16
135;1993.34;548.112;1.16
136;2020.5;520.524;1.17
137;2030.26;510.514;1.17
138;2030.26;516.373;1.17
139;2003.1;522.477;1.17
140;1975.94;542.009;1.18
141;1988.15;526.383;1.18
142;2032.7;508.56;1.18
143;2052.54;542.009;1.18
144;2062.31;528.336;1.18999
145;2047.66;502.701;1.18999
146;2010.43;524.43;1.18999
147;1983.26;532.243;1.18999
148;1995.78;534.196;1.18999
149;2017.75;524.43;1.2
150;2027.82;504.654;1.2
151;2022.94;526.383;1.2
152;1993.34;538.102;1.2
153;1951.22;504.654;1.2
154;1939.01;524.43;1.21
155;1980.82;559.832;1.21
156;2005.54;528.336;1.21
157;2017.75;522.477;1.21
158;2015.31;522.477;1.21
159;1995.78;534.196;1.22
160;1963.43;542.009;1.22
161;1975.94;540.056;1.22
162;2020.5;514.42;1.22
163;2042.47;544.206;1.22
164;2052.54;542.009;1.23
165;2037.59;504.654;1.23
166;2005.54;532.243;1.23
167;1971.06;540.056;1.23
168;1985.71;542.009;1.23
169;2005.54;526.383;1.23
170;2012.87;518.326;1.24
171;2010.43;528.336;1.24
172;1983.26;552.019;1.24
173;1939.01;520.524;1.24
174;1924.06;528.336;1.24
175;1960.99;565.935;1.25
176;1988.15;536.149;1.25
177;1998.22;530.29;1.25
178;1995.78;530.29;1.25
179;1973.5;540.056;1.25
180;1946.34;555.925;1.25
181;1953.66;546.159;1.26
182;2000.66;524.43;1.26
183;2020.5;555.925;1.26
184;2030.26;544.206;1.26
185;2020.5;514.42;1.26
186;1985.71;538.102;1.26
187;1953.66;546.159;1.27
188;1966.17;550.066;1.27
189;1990.59;536.149;1.27
190;1995.78;522.477;1.27
191;1995.78;538.102;1.27
192;1968.62;552.019;1.27
193;1928.94;518.326;1.28
194;1909.1;536.149;1.28
195;1948.78;575.701;1.28
196;1975.94;542.009;1.28
197;1983.26;544.206;1.28
198;1983.26;532.243;1.28
199;1960.99;550.066;1.29
200;1933.82;544.206;1.29
201;1946.34;561.785;1.29
202;1988.15;516.373;1.29
203;2010.43;544.206;1.29
204;2017.75;567.888;1.29
205;2005.54;506.607;1.3
206;1975.94;540.056;1.3
207;1943.9;542.009;1.3
208;1953.66;552.019;1.3
209;1975.94;536.149;1.3
210;1985.71;540.056;1.3
211;1980.82;530.29;1.3
212;1958.54;569.842;1.31
213;1919.18;544.206;1.31
214;1899.34;526.383;1.31
215;1939.01;583.514;1.31
216;1960.99;546.159;1.31
217;1971.06;546.159;1.31
218;1973.5;536.149;1.31
219;1951.22;555.925;1.32
220;1924.06;553.972;1.32
221;1933.82;563.738;1.32
222;1978.38;526.383;1.32
223;1998.22;552.019;1.32
224;2007.98;567.888;1.32
225;1998.22;512.467;1.33
226;1966.17;546.159;1.33
227;1939.01;550.066;1.33
228;1948.78;555.925;1.33
229;1968.62;542.009;1.33
230;1975.94;540.056;1.33
231;1975.94;538.102;1.33
232;1951.22;569.842;1.34
233;1909.1;542.009;1.34
234;1894.46;534.196;1.34
235;1931.38;585.467;1.34
236;1956.1;548.112;1.34
237;1966.17;546.159;1.34
238;1968.62;542.009;1.34
239;1948.78;555.925;1.34
240;1916.73;561.785;1.35
241;1926.5;563.738;1.35
242;1968.62;532.243;1.35
243;1990.59;559.832;1.35
244;2003.1;565.935;1.35
245;1995.78;522.477;1.35
246;1960.99;552.019;1.35
247;1928.94;555.925;1.36
248;1939.01;557.878;1.36
249;1960.99;546.159;1.36
250;1966.17;540.056;1.36
251;1966.17;544.206;1.36
252;1943.9;569.842;1.36
253;1904.22;542.009;1.36
254;1884.69;542.009;1.37
255;1921.62;587.42;1.37
256;1946.34;555.925;1.37
257;1958.54;548.112;1.37
258;1958.54;548.112;1.37
259;1941.45;559.832;1.37
260;1906.66;567.888;1.37
261;1916.73;565.935;1.37
262;1960.99;540.056;1.38
263;1980.82;569.842;1.38
264;1990.59;567.888;1.38
265;1985.71;530.29;1.38
266;1951.22;557.878;1.38
267;1921.62;565.935;1.38
268;1928.94;563.738;1.38
269;1951.22;552.019;1.38
270;1958.54;542.009;1.39
271;1960.99;557.878;1.39
272;1933.82;573.748;1.39
273;1899.34;542.009;1.39
274;1879.5;553.972;1.39
275;1914.29;585.467;1.39
276;1936.27;561.785;1.39
277;1951.22;563.738;1.4
278;1953.66;550.066;1.4
279;1933.82;569.842;1.4
280;1901.78;561.785;1.4
281;1909.1;583.514;1.4
282;1953.66;534.196;1.4
283;1975.94;561.785;1.4
284;1988.15;591.571;1.4
285;1978.38;530.29;1.4
286;1948.78;557.878;1.41
287;1914.29;559.832;1.41
288;1924.06;575.701;1.41
289;1946.34;553.972;1.41
290;1956.1;559.832;1.41
291;1956.1;548.112;1.41
292;1928.94;589.618;1.41
293;1892.01;565.935;1.41
294;1872.18;542.009;1.42
295;1906.66;601.337;1.42
296;1931.38;565.935;1.42
297;1943.9;565.935;1.42
298;1943.9;557.878;1.42
299;1926.5;573.748;1.42
300;1899.34;571.795;1.42
301;1904.22;585.467;1.42
302;1943.9;540.056;1.43
303;1968.62;569.842;1.43
304;1978.38;589.618;1.43
305;1971.06;530.29;1.43
306;1941.45;565.935;1.43
307;1909.1;569.842;1.43
308;1914.29;577.654;1.43
309;1939.01;559.832;1.43
310;1946.34;563.738;1.43
311;1948.78;555.925;1.43999
312;1926.5;595.477;1.43999
313;1887.13;565.935;1.43999
314;1864.85;548.112;1.43999
315;1901.78;609.149;1.43999
316;1926.5;571.795;1.43999
317;1939.01;569.842;1.43999
318;1943.9;565.935;1.43999
319;1924.06;579.608;1.45
320;1896.9;579.608;1.45
321;1899.34;587.42;1.45
322;1939.01;550.066;1.45
323;1966.17;575.701;1.45
324;1975.94;593.524;1.45
325;1973.5;538.102;1.45
326;1939.01;573.748;1.45
327;1909.1;575.701;1.45
328;1911.85;583.514;1.46
329;1939.01;565.935;1.46
330;1946.34;563.738;1.46
331;1943.9;559.832;1.46
332;1924.06;595.477;1.46
333;1887.13;565.935;1.46
334;1864.85;557.878;1.46
335;1899.34;609.149;1.46
336;1926.5;573.748;1.46
337;1936.27;571.795;1.47
338;1941.45;567.888;1.47
339;1924.06;579.608;1.47
340;1896.9;587.42;1.47
341;1899.34;589.618;1.47
342;1941.45;555.925;1.47
343;1963.43;585.467;1.47
344;1975.94;589.618;1.47
345;1973.5;544.206;1.47
346;1941.45;571.795;1.47
347;1906.66;581.561;1.48
348;1911.85;583.514;1.48
349;1939.01;569.842;1.48
350;1946.34;563.738;1.48
351;1943.9;571.795;1.48
352;1926.5;593.524;1.48
353;1889.57;561.785;1.48
354;1864.85;565.935;1.48
355;1901.78;607.196;1.48
356;1926.5;575.701;1.49
357;1939.01;571.795;1.49
358;1939.01;567.888;1.49
359;1924.06;583.514;1.49
360;1899.34;583.514;1.49
361;1901.78;595.477;1.49
362;1943.9;553.972;1.49
363;1960.99;581.561;1.49
364;1978.38;599.384;1.49
365;1971.06;542.009;1.49
366;1943.9;577.654;1.5
367;1909.1;579.608;1.5
368;1914.29;585.467;1.5
369;1941.45;569.842;1.5
370;1946.34;571.795;1.5
371;1948.78;565.935;1.5
372;1928.94;601.337;1.5
373;1889.57;573.748;1.5
374;1867.29;561.785;1.5
375;1899.34;617.206;1.5
376;1924.06;577.654;1.51
377;1939.01;573.748;1.51
378;1941.45;571.795;1.51
379;1924.06;585.467;1.51
380;1894.46;585.467;1.51
381;1894.46;591.571;1.51
382;1939.01;561.785;1.51
383;1960.99;585.467;1.51
384;1973.5;593.524;1.51
385;1968.62;546.159;1.51
386;1939.01;577.654;1.52
387;1906.66;583.514;1.52
388;1909.1;585.467;1.52
389;1936.27;573.748;1.52
390;1941.45;563.738;1.52
391;1943.9;569.842;1.52
392;1924.06;597.43;1.52
393;1889.57;569.842;1.52
394;1859.97;565.935;1.52
395;1894.46;611.347;1.52
396;1921.62;579.608;1.52
397;1933.82;573.748;1.53
398;1939.01;573.748;1.53
399;1921.62;591.571;1.53
400;1894.46;577.654;1.53
401;1892.01;601.337;1.53
402;1936.27;557.878;1.53
403;1956.1;573.748;1.53
404;1968.62;611.347;1.53
405;1968.62;552.019;1.53
406;1939.01;575.701;1.53
407;1904.22;575.701;1.53
408;1906.66;589.618;1.54
409;1931.38;569.842;1.54
410;1939.01;577.654;1.54
411;1939.01;559.832;1.54
412;1926.5;607.196;1.54
413;1887.13;583.514;1.54
414;1859.97;552.019;1.54
415;1889.57;611.347;1.54
416;1919.18;583.514;1.54
417;1933.82;581.561;1.54
418;1939.01;569.842;1.54
419;1919.18;589.618;1.54
420;1892.01;581.561;1.54
421;1889.57;601.337;1.55
422;1933.82;553.972;1.55
423;1958.54;577.654;1.55
424;1971.06;607.196;1.55
425;1968.62;548.112;1.55
426;1939.01;577.654;1.55
427;1904.22;577.654;1.55
428;1906.66;591.571;1.55
429;1928.94;569.842;1.55
430;1939.01;573.748;1.55
431;1943.9;561.785;1.55
432;1924.06;605.243;1.55
433;1887.13;579.608;1.56
434;1859.97;555.925;1.56
435;1892.01;617.206;1.56
436;1916.73;579.608;1.56
437;1931.38;581.561;1.56
438;1936.27;571.795;1.56
439;1919.18;589.618;1.56
440;1896.9;583.514;1.56
441;1892.01;601.337;1.56
442;1933.82;555.925;1.56
443;1958.54;581.561;1.56
444;1971.06;605.243;1.56
445;1968.62;544.206;1.57
446;1941.45;579.608;1.57
447;1909.1;579.608;1.57
448;1906.66;589.618;1.57
449;1933.82;573.748;1.57
450;1941.45;575.701;1.57
451;1946.34;565.935;1.57
452;1926.5;603.29;1.57
453;1892.01;575.701;1.57
454;1862.41;559.832;1.57
455;1894.46;619.16;1.57
456;1921.62;581.561;1.57
457;1933.82;581.561;1.57
458;1939.01;571.795;1.58
459;1924.06;587.42;1.58
460;1896.9;585.467;1.58
461;1894.46;599.384;1.58
462;1936.27;559.832;1.58
463;1963.43;587.42;1.58
464;1975.94;601.337;1.58
465;1973.5;548.112;1.58
466;1943.9;581.561;1.58
467;1909.1;581.561;1.58
468;1909.1;587.42;1.58
469;1936.27;573.748;1.58
470;1946.34;569.842;1.58
471;1946.34;571.795;1.58
472;1933.82;601.337;1.59
473;1896.9;573.748;1.59
474;1867.29;565.935;1.59
475;1894.46;619.16;1.59
476;1924.06;579.608;1.59
477;1936.27;575.701;1.59
478;1939.01;573.748;1.59
479;1926.5;585.467;1.59
480;1899.34;581.561;1.59
481;1894.46;607.196;1.59
482;1936.27;563.738;1.59
483;1963.43;577.654;1.59
484;1975.94;613.3;1.59
485;1975.94;557.878;1.6
486;1946.34;575.701;1.6
487;1914.29;575.701;1.6
488;1909.1;589.618;1.6
489;1939.01;571.795;1.6
490;1943.9;579.608;1.6
491;1948.78;559.832;1.6
492;1933.82;607.196;1.6
493;1896.9;583.514;1.6
494;1869.74;552.019;1.6
495;1896.9;609.149;1.6
496;1926.5;585.467;1.6
497;1939.01;587.42;1.6
498;1943.9;571.795;1.6
499;1928.94;591.571;1.61
500;1901.78;583.514;1.61
501;1894.46;605.243;1.61
502;1939.01;557.878;1.61
503;1963.43;579.608;1.61
504;1978.38;613.3;1.61
505;1975.94;553.972;1.61
506;1948.78;579.608;1.61
507;1911.85;577.654;1.61
508;1911.85;591.571;1.61
509;1939.01;573.748;1.61
510;1946.34;583.514;1.61
511;1951.22;563.738;1.61
512;1936.27;611.347;1.61
513;1896.9;583.514;1.62
514;1869.74;555.925;1.62
515;1894.46;617.206;1.62
516;1926.5;585.467;1.62
517;1939.01;583.514;1.62
518;1946.34;571.795;1.62
519;1931.38;593.524;1.62
520;1904.22;585.467;1.62
521;1896.9;605.243;1.62
522;1939.01;559.832;1.62
523;1966.17;581.561;1.62
524;1978.38;609.149;1.62
525;1975.94;550.066;1.62
526;1951.22;583.514;1.62
527;1914.29;581.561;1.63
528;1914.29;593.524;1.63
529;1939.01;575.701;1.63
530;1948.78;579.608;1.63
531;1951.22;565.935;1.63
532;1936.27;609.149;1.63
533;1901.78;583.514;1.63
534;1872.18;557.878;1.63
535;1896.9;621.113;1.63
536;1928.94;583.514;1.63
537;1939.01;583.514;1.63
538;1948.78;575.701;1.63
539;1936.27;591.571;1.63
540;1906.66;587.42;1.63
541;1899.34;603.29;1.64
542;1939.01;559.832;1.64
543;1966.17;585.467;1.64
544;1978.38;607.196;1.64
545;1980.82;550.066;1.64
546;1953.66;585.467;1.64
547;1916.73;583.514;1.64
548;1914.29;591.571;1.64
549;1943.9;577.654;1.64
550;1953.66;577.654;1.64
551;1953.66;571.795;1.64
552;1939.01;607.196;1.64
553;1906.66;581.561;1.64
554;1874.62;563.738;1.64
555;1901.78;621.113;1.65
556;1931.38;581.561;1.65
557;1943.9;583.514;1.65
558;1951.22;575.701;1.65
559;1939.01;589.618;1.65
560;1906.66;593.524;1.65
561;1899.34;607.196;1.65
562;1941.45;559.832;1.65
563;1971.06;583.514;1.65
564;1983.26;611.347;1.65
565;1985.71;552.019;1.65
566;1958.54;579.608;1.65
567;1921.62;581.561;1.65
568;1916.73;593.524;1.65
569;1946.34;575.701;1.66
570;1953.66;583.514;1.66
571;1956.1;567.888;1.66
572;1943.9;611.347;1.66
573;1906.66;587.42;1.66
574;1877.06;559.832;1.66
575;1901.78;621.113;1.66
576;1931.38;585.467;1.66
577;1946.34;585.467;1.66
578;1953.66;573.748;1.66
579;1941.45;593.524;1.66
580;1909.1;587.42;1.66
581;1901.78;603.29;1.66
582;1943.9;559.832;1.66
583;1971.06;587.42;1.66
584;1983.26;607.196;1.67
585;1985.71;552.019;1.67
586;1958.54;581.561;1.67
587;1924.06;585.467;1.67
588;1919.18;593.524;1.67
589;1943.9;575.701;1.67
590;1956.1;577.654;1.67
591;1958.54;569.842;1.67
592;1943.9;607.196;1.67
593;1909.1;581.561;1.67
594;1874.62;563.738;1.67
595;1899.34;623.066;1.67
596;1931.38;583.514;1.67
597;1946.34;581.561;1.67
598;1953.66;575.701;1.67
599;1941.45;591.571;1.68
600;1911.85;589.618;1.68
601;1901.78;601.337;1.68
602;1943.9;571.795;1.68
603;1971.06;579.608;1.68
604;1985.71;615.253;1.68
605;1985.71;563.738;1.68
606;1958.54;575.701;1.68
607;1926.5;575.701;1.68
608;1919.18;593.524;1.68
609;1943.9;571.795;1.68
610;1956.1;583.514;1.68
611;1958.54;559.832;1.68
612;1946.34;605.243;1.68
613;1911.85;587.42;1.68
614;1879.5;553.972;1.68999
615;1901.78;603.29;1.68999
616;1933.82;587.42;1.68999
617;1946.34;589.618;1.68999
618;1953.66;571.795;1.68999
619;1943.9;593.524;1.68999
620;1914.29;585.467;1.68999
621;1901.78;607.196;1.68999
622;1943.9;565.935;1.68999
623;1973.5;579.608;1.68999
624;1983.26;615.253;1.68999
625;1985.71;559.832;1.68999
626;1963.43;577.654;1.68999
627;1928.94;573.748;1.68999
628;1916.73;593.524;1.68999
629;1948.78;571.795;1.7
630;1958.54;579.608;1.7
631;1960.99;559.832;1.7
632;1946.34;605.243;1.7
633;1911.85;585.467;1.7
634;1879.5;552.019;1.7
635;1899.34;607.196;1.7
636;1936.27;585.467;1.7
637;1948.78;585.467;1.7
638;1956.1;571.795;1.7
639;1946.34;595.477;1.7
640;1914.29;583.514;1.7
641;1901.78;609.149;1.7
642;1943.9;557.878;1.7
643;1973.5;579.608;1.7
644;1988.15;611.347;1.7
645;1988.15;552.019;1.71
646;1966.17;579.608;1.71
647;1928.94;575.701;1.71
648;1919.18;593.524;1.71
649;1948.78;569.842;1.71
650;1956.1;579.608;1.71
651;1963.43;561.785;1.71
652;1948.78;609.149;1.71
653;1916.73;583.514;1.71
654;1879.5;552.019;1.71
655;1901.78;615.253;1.71
656;1933.82;585.467;1.71
657;1948.78;583.514;1.71
658;1956.1;571.795;1.71
659;1946.34;591.571;1.71
660;1916.73;581.561;1.71
661;1901.78;603.29;1.72
662;1941.45;557.878;1.72
663;1973.5;581.561;1.72
664;1983.26;605.243;1.72
665;1988.15;548.112;1.72
666;1966.17;579.608;1.72
667;1931.38;579.608;1.72
668;1921.62;589.618;1.72
669;1948.78;573.748;1.72
670;1956.1;575.701;1.72
671;1963.43;565.935;1.72
672;1951.22;605.243;1.72
673;1914.29;581.561;1.72
674;1879.5;557.878;1.72
675;1899.34;619.16;1.72
676;1936.27;581.561;1.72
677;1946.34;581.561;1.72
678;1953.66;571.795;1.73
679;1943.9;587.42;1.73
680;1914.29;583.514;1.73
681;1904.22;599.384;1.73
682;1943.9;555.925;1.73
683;1973.5;575.701;1.73
684;1988.15;611.347;1.73
685;1988.15;565.935;1.73
686;1966.17;573.748;1.73
687;1931.38;571.795;1.73
688;1921.62;591.571;1.73
689;1946.34;569.842;1.73
690;1960.99;575.701;1.73
691;1960.99;553.972;1.73
692;1951.22;595.477;1.73
693;1914.29;585.467;1.73
694;1879.5;550.066;1.73
695;1899.34;597.43;1.74
696;1933.82;585.467;1.74
697;1948.78;587.42;1.74
698;1956.1;567.888;1.74
699;1946.34;591.571;1.74
700;1919.18;581.561;1.74
701;1904.22;603.29;1.74
702;1941.45;567.888;1.74
703;1975.94;577.654;1.74
704;1988.15;611.347;1.74
705;1990.59;559.832;1.74
706;1966.17;577.654;1.74
707;1931.38;571.795;1.74
708;1919.18;593.524;1.74
709;1946.34;569.842;1.74
710;1956.1;575.701;1.74
711;1960.99;553.972;1.74
712;1948.78;601.337;1.75
713;1916.73;585.467;1.75
714;1881.94;548.112;1.75
715;1899.34;603.29;1.75
716;1933.82;583.514;1.75
717;1948.78;585.467;1.75
718;1958.54;569.842;1.75
719;1948.78;593.524;1.75
720;1919.18;577.654;1.75
721;1906.66;603.29;1.75
722;1943.9;557.878;1.75
723;1973.5;575.701;1.75
724;1985.71;609.149;1.75
725;1993.34;553.972;1.75
726;1968.62;575.701;1.75
727;1933.82;573.748;1.75
728;1921.62;589.618;1.75
729;1946.34;567.888;1.76
730;1958.54;577.654;1.76
731;1963.43;557.878;1.76
732;1951.22;605.243;1.76
733;1919.18;583.514;1.76
734;1881.94;548.112;1.76
735;1899.34;605.243;1.76
736;1933.82;581.561;1.76
737;1948.78;585.467;1.76
738;1956.1;567.888;1.76
739;1948.78;591.571;1.76
740;1921.62;577.654;1.76
741;1906.66;601.337;1.76
742;1939.01;555.925;1.76
743;1971.06;575.701;1.76
744;1985.71;607.196;1.76
745;1990.59;548.112;1.76
746;1968.62;575.701;1.77
747;1933.82;571.795;1.77
748;1924.06;589.618;1.77
749;1948.78;567.888;1.77
750;1958.54;575.701;1.77
751;1966.17;557.878;1.77
752;1951.22;605.243;1.77
753;1921.62;579.608;1.77
754;1884.69;550.066;1.77
755;1899.34;611.347;1.77
756;1933.82;579.608;1.77
757;1951.22;581.561;1.77
758;1956.1;569.842;1.77
759;1948.78;587.42;1.77
760;1924.06;579.608;1.77
761;1904.22;599.384;1.77
762;1941.45;552.019;1.78
763;1973.5;579.608;1.78
764;1988.15;609.149;1.78
765;1990.59;553.972;1.78
766;1971.06;573.748;1.78
767;1939.01;571.795;1.78
768;1921.62;589.618;1.78
769;1948.78;565.935;1.78
770;1960.99;577.654;1.78
771;1963.43;553.972;1.78
772;1956.1;601.337;1.78
773;1921.62;581.561;1.78
774;1887.13;548.112;1.78
775;1899.34;603.29;1.78
776;1936.27;579.608;1.78
777;1951.22;581.561;1.78
778;1958.54;567.888;1.79
779;1951.22;589.618;1.79
780;1924.06;579.608;1.79
781;1906.66;601.337;1.79
782;1939.01;555.925;1.79
783;1971.06;575.701;1.79
784;1988.15;609.149;1.79
785;1988.15;550.066;1.79
786;1971.06;573.748;1.79
787;1924.06;573.748;1.79
788;1926.5;587.42;1.79
789;1951.22;563.738;1.79
790;1958.54;575.701;1.79
791;1960.99;555.925;1.79
792;1941.45;603.29;1.79
793;1904.22;579.608;1.79
794;1879.5;548.112;1.79
795;1911.85;609.149;1.8
796;1941.45;579.608;1.8
797;1953.66;579.608;1.8
798;1958.54;565.935;1.8
799;1939.01;585.467;1.8
800;1909.1;579.608;1.8
801;1914.29;599.384;1.8
802;1956.1;550.066;1.8
803;1978.38;577.654;1.8
804;1990.59;607.196;1.8
805;1985.71;567.888;1.8
806;1958.54;567.888;1.8
807;1924.06;571.795;1.8
808;1931.38;585.467;1.8
809;1956.1;571.795;1.8
810;1963.43;573.748;1.8
811;1963.43;553.972;1.8
812;1943.9;587.42;1.81
813;1906.66;583.514;1.81
814;1879.5;544.206;1.81
815;1914.29;589.618;1.81
816;1939.01;587.42;1.81
817;1953.66;583.514;1.81
818;1956.1;565.935;1.81
819;1941.45;587.42;1.81
820;1911.85;575.701;1.81
821;1911.85;601.337;1.81
822;1956.1;567.888;1.81
823;1978.38;571.795;1.81
824;1993.34;605.243;1.81
825;1988.15;559.832;1.81
826;1958.54;567.888;1.81
827;1926.5;567.888;1.81
828;1926.5;585.467;1.81
829;1951.22;565.935;1.82
830;1958.54;571.795;1.82
831;1963.43;550.066;1.82
832;1943.9;593.524;1.82
833;1906.66;579.608;1.82
834;1881.94;546.159;1.82
835;1914.29;593.524;1.82
836;1941.45;587.42;1.82
837;1956.1;583.514;1.82
838;1956.1;563.738;1.82
839;1943.9;587.42;1.82
840;1914.29;577.654;1.82
841;1911.85;601.337;1.82
842;1958.54;561.785;1.82
843;1980.82;571.795;1.82
844;1990.59;607.196;1.82
845;1990.59;555.925;1.82
846;1960.99;569.842;1.83
847;1926.5;569.842;1.83
848;1928.94;587.42;1.83
849;1956.1;563.738;1.83
850;1963.43;573.748;1.83
851;1963.43;552.019;1.83
852;1946.34;599.384;1.83
853;1911.85;579.608;1.83
854;1884.69;542.009;1.83
855;1911.85;599.384;1.83
856;1943.9;581.561;1.83
857;1951.22;581.561;1.83
858;1958.54;565.935;1.83
859;1943.9;589.618;1.83
860;1914.29;575.701;1.83
861;1911.85;599.384;1.83
862;1956.1;555.925;1.84
863;1980.82;573.748;1.84
864;1990.59;605.243;1.84
865;1990.59;550.066;1.84
866;1960.99;571.795;1.84
867;1926.5;567.888;1.84
868;1928.94;583.514;1.84
869;1953.66;563.738;1.84
870;1963.43;573.748;1.84
871;1963.43;553.972;1.84
872;1946.34;603.29;1.84
873;1909.1;577.654;1.84
874;1881.94;546.159;1.84
875;1911.85;605.243;1.84
876;1941.45;577.654;1.84
877;1953.66;579.608;1.84
878;1956.1;565.935;1.84
879;1941.45;587.42;1.85
880;1914.29;575.701;1.85
881;1911.85;599.384;1.85
882;1956.1;550.066;1.85
883;1980.82;573.748;1.85
884;1993.34;603.29;1.85
885;1990.59;544.206;1.85
886;1963.43;561.785;1.85
887;1926.5;569.842;1.85
888;1924.06;585.467;1.85
889;1951.22;571.795;1.85
890;1960.99;571.795;1.85
891;1963.43;550.066;1.85
892;1946.34;581.561;1.85
893;1909.1;579.608;1.85
894;1881.94;546.159;1.85
895;1909.1;583.514;1.85
896;1941.45;589.618;1.86
897;1951.22;579.608;1.86
898;1958.54;563.738;1.86
899;1946.34;583.514;1.86
900;1914.29;577.654;1.86
901;1906.66;601.337;1.86
902;1953.66;567.888;1.86
903;1978.38;569.842;1.86
904;1990.59;603.29;1.86
905;1990.59;563.738;1.86
906;1963.43;563.738;1.86
907;1931.38;569.842;1.86
908;1928.94;583.514;1.86
909;1956.1;567.888;1.86
910;1963.43;571.795;1.86
911;1966.17;550.066;1.86
912;1948.78;583.514;1.86
913;1914.29;579.608;1.87
914;1881.94;546.159;1.87
915;1911.85;589.618;1.87
916;1943.9;585.467;1.87
917;1956.1;581.561;1.87
918;1960.99;563.738;1.87
919;1946.34;585.467;1.87
920;1916.73;577.654;1.87
921;1911.85;601.337;1.87
922;1956.1;567.888;1.87
923;1980.82;569.842;1.87
924;1995.78;605.243;1.87
925;1990.59;557.878;1.87
926;1966.17;565.935;1.87
927;1931.38;565.935;1.87
928;1926.5;581.561;1.87
929;1953.66;563.738;1.87
930;1963.43;569.842;1.88
931;1966.17;550.066;1.88
932;1948.78;593.524;1.88
933;1914.29;575.701;1.88
934;1884.69;542.009;1.88
935;1909.1;593.524;1.88
936;1943.9;579.608;1.88
937;1956.1;577.654;1.88
938;1960.99;563.738;1.88
939;1946.34;585.467;1.88
940;1919.18;573.748;1.88
941;1911.85;597.43;1.88
942;1956.1;559.832;1.88
943;1983.26;569.842;1.88
944;1993.34;605.243;1.88
945;1993.34;552.019;1.88
946;1966.17;569.842;1.88
947;1933.82;565.935;1.89
948;1928.94;583.514;1.89
949;1953.66;561.785;1.89
950;1963.43;571.795;1.89
951;1968.62;548.112;1.89
952;1951.22;597.43;1.89
953;1916.73;579.608;1.89
954;1887.13;542.009;1.89
955;1909.1;599.384;1.89
956;1941.45;577.654;1.89
957;1956.1;577.654;1.89
958;1960.99;563.738;1.89
959;1951.22;583.514;1.89
960;1919.18;571.795;1.89
961;1911.85;597.43;1.89
962;1956.1;552.019;1.89
963;1983.26;567.888;1.89
964;1998.22;603.29;1.9
965;1995.78;546.159;1.9
966;1971.06;573.748;1.9
967;1936.27;565.935;1.9
968;1933.82;583.514;1.9
969;1958.54;561.785;1.9
970;1968.62;569.842;1.9
971;1971.06;548.112;1.9
972;1956.1;587.42;1.9
973;1916.73;577.654;1.9
974;1887.13;542.009;1.9
975;1914.29;591.571;1.9
976;1946.34;579.608;1.9
977;1960.99;581.561;1.9
978;1966.17;563.738;1.9
979;1951.22;585.467;1.9
980;1924.06;573.748;1.9
981;1914.29;599.384;1.91
982;1956.1;557.878;1.91
983;1983.26;571.795;1.91
984;1995.78;603.29;1.91
985;1998.22;553.972;1.91
986;1973.5;569.842;1.91
987;1939.01;565.935;1.91
988;1931.38;583.514;1.91
989;1960.99;559.832;1.91
990;1968.62;569.842;1.91
991;1971.06;552.019;1.91
992;1958.54;591.571;1.91
993;1921.62;575.701;1.91
994;1892.01;542.009;1.91
995;1916.73;595.477;1.91
996;1946.34;579.608;1.91
997;1958.54;579.608;1.91
998;1966.17;561.785;1.92
999;1951.22;583.514;1.92
1000;1926.5;575.701;1.92
1001;1914.29;595.477;1.92
1002;1958.54;552.019;1.92
1003;1983.26;569.842;1.92
1004;2000.66;603.29;1.92
1005;1998.22;548.112;1.92
1006;1975.94;569.842;1.92
1007;1939.01;569.842;1.92
1008;1931.38;581.561;1.92
1009;1958.54;577.654;1.92
1010;1971.06;567.888;1.92
1011;1973.5;552.019;1.92
1012;1958.54;577.654;1.92
1013;1921.62;577.654;1.92
1014;1892.01;548.112;1.92
1015;1916.73;573.748;1.93
1016;1948.78;589.618;1.93
1017;1960.99;575.701;1.93
1018;1966.17;561.785;1.93
1019;1953.66;575.701;1.93
1020;1926.5;575.701;1.93
1021;1916.73;597.43;1.93
1022;1956.1;571.795;1.93
1023;1988.15;563.738;1.93
1024;2000.66;599.384;1.93
1025;2000.66;565.935;1.93
1026;1975.94;557.878;1.93
1027;1941.45;567.888;1.93
1028;1933.82;581.561;1.93
1029;1960.99;569.842;1.93
1030;1973.5;567.888;1.93
1031;1978.38;548.112;1.93999
1032;1963.43;579.608;1.93999
1033;1926.5;579.608;1.93999
1034;1894.46;544.206;1.93999
1035;1914.29;581.561;1.93999
1036;1948.78;583.514;1.93999
1037;1963.43;579.608;1.93999
1038;1968.62;561.785;1.93999
1039;1960.99;583.514;1.93999
1040;1928.94;573.748;1.93999
1041;1916.73;595.477;1.93999
1042;1960.99;565.935;1.93999
1043;1990.59;567.888;1.93999
1044;2003.1;603.29;1.93999
1045;2005.54;561.785;1.93999
1046;1980.82;561.785;1.93999
1047;1943.9;567.888;1.93999
1048;1936.27;579.608;1.95
1049;1963.43;561.785;1.95
1050;1971.06;569.842;1.95
1051;1975.94;548.112;1.95
1052;1963.43;583.514;1.95
1053;1926.5;575.701;1.95
1054;1896.9;542.009;1.95
1055;1916.73;587.42;1.95
1056;1951.22;581.561;1.95
1057;1966.17;577.654;1.95
1058;1971.06;561.785;1.95
1059;1958.54;583.514;1.95
1060;1931.38;571.795;1.95
1061;1919.18;599.384;1.95
1062;1960.99;561.785;1.95
1063;1990.59;565.935;1.95
1064;2005.54;605.243;1.95
1065;2007.98;553.972;1.95
1066;1983.26;563.738;1.96
1067;1943.9;563.738;1.96
1068;1939.01;583.514;1.96
1069;1963.43;559.832;1.96
1070;1973.5;567.888;1.96
1071;1980.82;548.112;1.96
1072;1966.17;591.571;1.96
1073;1931.38;575.701;1.96
1074;1899.34;540.056;1.96
1075;1916.73;593.524;1.96
1076;1953.66;577.654;1.96
1077;1968.62;577.654;1.96
1078;1975.94;561.785;1.96
1079;1966.17;583.514;1.96
1080;1936.27;571.795;1.96
1081;1921.62;595.477;1.96
1082;1960.99;555.925;1.96
1083;1993.34;565.935;1.96
1084;2005.54;603.29;1.97
1085;2007.98;548.112;1.97
1086;1985.71;565.935;1.97
1087;1951.22;563.738;1.97
1088;1941.45;579.608;1.97
1089;1968.62;579.608;1.97
1090;1980.82;567.888;1.97
1091;1980.82;552.019;1.97
1092;1971.06;573.748;1.97
1093;1933.82;579.608;1.97
1094;1899.34;548.112;1.97
1095;1919.18;571.795;1.97
1096;1958.54;591.571;1.97
1097;1968.62;573.748;1.97
1098;1973.5;561.785;1.97
1099;1966.17;567.888;1.97
1100;1939.01;575.701;1.97
1101;1924.06;593.524;1.97
1102;1963.43;571.795;1.98
1103;1993.34;563.738;1.98
1104;2010.43;595.477;1.98
1105;2012.87;567.888;1.98
1106;1988.15;555.925;1.98
1107;1953.66;567.888;1.98
1108;1941.45;579.608;1.98
1109;1971.06;573.748;1.98
1110;1980.82;567.888;1.98
1111;1985.71;550.066;1.98
1112;1973.5;577.654;1.98
1113;1939.01;579.608;1.98
1114;1904.22;544.206;1.98
1115;1919.18;577.654;1.98
1116;1958.54;587.42;1.98
1117;1971.06;575.701;1.98
1118;1978.38;559.832;1.98
1119;1968.62;577.654;1.98
1120;1939.01;571.795;1.98
1121;1924.06;595.477;1.99
1122;1963.43;567.888;1.99
1123;1995.78;563.738;1.99
1124;2010.43;599.384;1.99
1125;2015.31;561.785;1.99
1126;1990.59;559.832;1.99
1127;1953.66;563.738;1.99
1128;1943.9;579.608;1.99
1129;1975.94;565.935;1.99
1130;1985.71;567.888;1.99
1131;1985.71;548.112;1.99
1132;1975.94;579.608;1.99
1133;1941.45;579.608;1.99
1134;1906.66;540.056;1.99
1135;1921.62;585.467;1.99
1136;1960.99;583.514;1.99
1137;1975.94;575.701;1.99
1138;1980.82;559.832;1.99
1139;1971.06;581.561;2
1140;1943.9;575.701;2
1141;1928.94;595.477;2
1142;1966.17;563.738;2
1143;2000.66;565.935;2
1144;2015.31;601.337;2
1145;2017.75;553.972;2
1146;1995.78;561.785;2
1147;1960.99;561.785;2
1148;1943.9;583.514;2
1149;1971.06;561.785;2
1150;1983.26;567.888;2
1151;1988.15;546.159;2
1152;1975.94;585.467;2
1153;1941.45;575.701;2
1154;1909.1;538.102;2
1155;1921.62;587.42;2
1156;1963.43;577.654;2
1157;1975.94;577.654;2.01
1158;1985.71;561.785;2.01
1159;1975.94;581.561;2.01
1160;1946.34;569.842;2.01
1161;1928.94;595.477;2.01
1162;1968.62;559.832;2.01
1163;2000.66;567.888;2.01
1164;2015.31;603.29;2.01
1165;2017.75;552.019;2.01
1166;2000.66;565.935;2.01
1167;1960.99;565.935;2.01
1168;1948.78;581.561;2.01
1169;1975.94;567.888;2.01
1170;1988.15;567.888;2.01
1171;1990.59;548.112;2.01
1172;1978.38;579.608;2.01
1173;1946.34;577.654;2.01
1174;1909.1;542.009;2.02
1175;1921.62;577.654;2.02
1176;1960.99;587.42;2.02
1177;1978.38;575.701;2.02
1178;1983.26;559.832;2.02
1179;1975.94;579.608;2.02
1180;1946.34;571.795;2.02
1181;1931.38;595.477;2.02
1182;1966.17;565.935;2.02
1183;2000.66;563.738;2.02
1184;2017.75;601.337;2.02
1185;2022.94;557.878;2.02
1186;2000.66;561.785;2.02
1187;1966.17;561.785;2.02
1188;1951.22;581.561;2.02
1189;1978.38;561.785;2.02
1190;1990.59;565.935;2.02
1191;1995.78;546.159;2.02
1192;1985.71;583.514;2.03
1193;1948.78;575.701;2.03
1194;1911.85;536.149;2.03
1195;1928.94;585.467;2.03
1196;1963.43;579.608;2.03
1197;1983.26;575.701;2.03
1198;1988.15;557.878;2.03
1199;1980.82;583.514;2.03
1200;1951.22;569.842;2.03
1201;1933.82;595.477;2.03
1202;1973.5;561.785;2.03
1203;2005.54;565.935;2.03
1204;2020.5;603.29;2.03
1205;2025.38;553.972;2.03
1206;2003.1;563.738;2.03
1207;1968.62;561.785;2.03
1208;1953.66;579.608;2.03
1209;1980.82;559.832;2.04
1210;1993.34;565.935;2.04
1211;1998.22;552.019;2.04
1212;1988.15;567.888;2.04
1213;1953.66;585.467;2.04
1214;1916.73;552.019;2.04
1215;1928.94;563.738;2.04
1216;1968.62;599.384;2.04
1217;1983.26;569.842;2.04
1218;1990.59;559.832;2.04
1219;1983.26;563.738;2.04
1220;1958.54;573.748;2.04
1221;1939.01;589.618;2.04
1222;1973.5;573.748;2.04
1223;2007.98;557.878;2.04
1224;2025.38;591.571;2.04
1225;2030.26;571.795;2.04
1226;2005.54;548.112;2.04
1227;1971.06;569.842;2.05
1228;1956.1;579.608;2.05
1229;1980.82;579.608;2.05
1230;1995.78;563.738;2.05
1231;2000.66;552.019;2.05
1232;1988.15;571.795;2.05
1233;1958.54;581.561;2.05
1234;1919.18;546.159;2.05
1235;1931.38;571.795;2.05
1236;1968.62;593.524;2.05
1237;1985.71;571.795;2.05
1238;1993.34;561.785;2.05
1239;1985.71;565.935;2.05
1240;1956.1;571.795;2.05
1241;1941.45;593.524;2.05
1242;1973.5;569.842;2.05
1243;2007.98;559.832;2.06
1244;2025.38;595.477;2.06
1245;2030.26;567.888;2.06
1246;2012.87;550.066;2.06
1247;1975.94;565.935;2.06
1248;1960.99;577.654;2.06
1249;1983.26;571.795;2.06
1250;1998.22;563.738;2.06
1251;2003.1;546.159;2.06
1252;1990.59;575.701;2.06
1253;1958.54;577.654;2.06
1254;1921.62;540.056;2.06
1255;1931.38;575.701;2.06
1256;1971.06;589.618;2.06
1257;1985.71;571.795;2.06
1258;1995.78;557.878;2.06
1259;1988.15;575.701;2.06
1260;1963.43;571.795;2.07
1261;1941.45;595.477;2.07
1262;1978.38;563.738;2.07
1263;2010.43;561.785;2.07
1264;2027.82;597.43;2.07
1265;2035.15;559.832;2.07
1266;2012.87;555.925;2.07
1267;1978.38;563.738;2.07
1268;1960.99;579.608;2.07
1269;1988.15;565.935;2.07
1270;2003.1;565.935;2.07
1271;2007.98;544.206;2.07
1272;1998.22;579.608;2.07
1273;1963.43;575.701;2.07
1274;1926.5;540.056;2.07
1275;1933.82;579.608;2.07
1276;1975.94;583.514;2.07
1277;1990.59;573.748;2.08
1278;2003.1;557.878;2.08
1279;1993.34;579.608;2.08
1280;1966.17;571.795;2.08
1281;1946.34;593.524;2.08
1282;1978.38;559.832;2.08
1283;2015.31;563.738;2.08
1284;2035.15;599.384;2.08
1285;2037.59;555.925;2.08
1286;2017.75;557.878;2.08
1287;1985.71;561.785;2.08
1288;1966.17;581.561;2.08
1289;1990.59;559.832;2.08
1290;2005.54;565.935;2.08
1291;2010.43;553.972;2.08
1292;2003.1;565.935;2.08
1293;1971.06;587.42;2.09
1294;1928.94;553.972;2.09
1295;1936.27;561.785;2.09
1296;1978.38;599.384;2.09
1297;1995.78;569.842;2.09
1298;2005.54;561.785;2.09
1299;1998.22;565.935;2.09
1300;1973.5;573.748;2.09
1301;1951.22;585.467;2.09
1302;1985.71;575.701;2.09
1303;2022.94;555.925;2.09
1304;2037.59;585.467;2.09
1305;2044.91;577.654;2.09
1306;2025.38;544.206;2.09
1307;1988.15;569.842;2.09
1308;1968.62;577.654;2.09
1309;1995.78;577.654;2.1
1310;2010.43;563.738;2.1
1311;2017.75;550.066;2.1
1312;2007.98;567.888;2.1
1313;1975.94;581.561;2.1
1314;1936.27;550.066;2.1
1315;1946.34;563.738;2.1
1316;1983.26;597.43;2.1
1317;2003.1;569.842;2.1
1318;2012.87;559.832;2.1
1319;2005.54;563.738;2.1
1320;1980.82;571.795;2.1
1321;1956.1;589.618;2.1
1322;1988.15;573.748;2.1
1323;2027.82;557.878;2.1
1324;2044.91;591.571;2.1
1325;2050.1;571.795;2.1
1326;2032.7;548.112;2.11
1327;1995.78;565.935;2.11
1328;1975.94;577.654;2.11
1329;1998.22;575.701;2.11
1330;2017.75;563.738;2.11
1331;2022.94;546.159;2.11
1332;2015.31;569.842;2.11
1333;1983.26;581.561;2.11
1334;1943.9;544.206;2.11
1335;1946.34;567.888;2.11
1336;1990.59;589.618;2.11
1337;2007.98;573.748;2.11
1338;2015.31;557.878;2.11
1339;2010.43;567.888;2.11
1340;1985.71;569.842;2.11
1341;1963.43;591.571;2.11
1342;1993.34;567.888;2.12
1343;2032.7;559.832;2.12
1344;2050.1;595.477;2.12
1345;2054.98;563.738;2.12
1346;2035.15;553.972;2.12
1347;2000.66;563.738;2.12
1348;1975.94;577.654;2.12
1349;2003.1;569.842;2.12
1350;2020.5;563.738;2.12
1351;2025.38;544.206;2.12
1352;2017.75;573.748;2.12
1353;1985.71;577.654;2.12
1354;1948.78;538.102;2.12
1355;1951.22;573.748;2.12
1356;1993.34;583.514;2.12
1357;2010.43;573.748;2.12
1358;2020.5;557.878;2.12
1359;2015.31;571.795;2.13
1360;1990.59;571.795;2.13
1361;1966.17;595.477;2.13
1362;1995.78;563.738;2.13
1363;2037.59;561.785;2.13
1364;2052.54;597.43;2.13
1365;2057.42;555.925;2.13
1366;2040.03;557.878;2.13
1367;2003.1;559.832;2.13
1368;1980.82;579.608;2.13
1369;2003.1;561.785;2.13
1370;2022.94;563.738;2.13
1371;2027.82;542.009;2.13
1372;2022.94;579.608;2.13
1373;1988.15;577.654;2.13
1374;1948.78;546.159;2.13
1375;1951.22;567.888;2.14
1376;1995.78;591.571;2.14
1377;2015.31;569.842;2.14
1378;2025.38;559.832;2.14
1379;2017.75;561.785;2.14
1380;1993.34;569.842;2.14
1381;1968.62;591.571;2.14
1382;1995.78;565.935;2.14
1383;2037.59;555.925;2.14
1384;2054.98;593.524;2.14
1385;2062.31;565.935;2.14
1386;2042.47;550.066;2.14
1387;2007.98;565.935;2.14
1388;1985.71;579.608;2.14
1389;2010.43;571.795;2.14
1390;2025.38;561.785;2.14
1391;2032.7;546.159;2.15
1392;2025.38;575.701;2.15
1393;1993.34;577.654;2.15
1394;1956.1;540.056;2.15
1395;1956.1;575.701;2.15
1396;1998.22;585.467;2.15
1397;2015.31;571.795;2.15
1398;2025.38;557.878;2.15
1399;2022.94;571.795;2.15
1400;1998.22;569.842;2.15
1401;1971.06;593.524;2.15
1402;1998.22;565.935;2.15
1403;2040.03;561.785;2.15
1404;2057.42;597.43;2.15
1405;2064.75;559.832;2.15
1406;2050.1;555.925;2.15
1407;2012.87;561.785;2.16
1408;1988.15;577.654;2.16
1409;2010.43;565.935;2.16
1410;2030.26;563.738;2.16
1411;2035.15;544.206;2.16
1412;2027.82;579.608;2.16
1413;1998.22;589.618;2.16
1414;1960.99;557.878;2.16
1415;1958.54;552.019;2.16
1416;2000.66;605.243;2.16
1417;2020.5;569.842;2.16
1418;2030.26;561.785;2.16
1419;2027.82;561.785;2.16
1420;2000.66;573.748;2.16
1421;1975.94;579.608;2.16
1422;2003.1;579.608;2.16
1423;2044.91;548.112;2.17
1424;2062.31;581.561;2.17
1425;2067.19;581.561;2.17
1426;2050.1;538.102;2.17
1427;2017.75;565.935;2.17
1428;1990.59;573.748;2.17
1429;2012.87;575.701;2.17
1430;2032.7;563.738;2.17
1431;2040.03;552.019;2.17
1432;2032.7;561.785;2.17
1433;2005.54;581.561;2.17
1434;1963.43;553.972;2.17
1435;1960.99;557.878;2.17
1436;2003.1;599.384;2.17
1437;2027.82;569.842;2.17
1438;2032.7;555.925;2.17
1439;2032.7;561.785;2.18
1440;2005.54;571.795;2.18
1441;1978.38;585.467;2.18
1442;2007.98;575.701;2.18
1443;2047.66;553.972;2.18
1444;2064.75;583.514;2.18
1445;2074.82;575.701;2.18
1446;2059.87;544.206;2.18
1447;2025.38;565.935;2.18
1448;1995.78;575.701;2.18
1449;2020.5;575.701;2.18
1450;2037.59;561.785;2.18
1451;2047.66;550.066;2.18
1452;2040.03;563.738;2.18
1453;2010.43;579.608;2.18
1454;1966.17;546.159;2.18
1455;1968.62;563.738;2.18999
1456;2007.98;595.477;2.18999
1457;2032.7;569.842;2.18999
1458;2040.03;555.925;2.18999
1459;2037.59;559.832;2.18999
1460;2012.87;571.795;2.18999
1461;1983.26;587.42;2.18999
1462;2007.98;569.842;2.18999
1463;2052.54;555.925;2.18999
1464;2069.63;587.42;2.18999
1465;2077.26;569.842;2.18999
1466;2059.87;548.112;2.18999
1467;2025.38;565.935;2.18999
1468;2000.66;575.701;2.18999
1469;2022.94;573.748;2.18999
1470;2044.91;563.738;2.18999
1471;2050.1;546.159;2.2
1472;2044.91;569.842;2.2
1473;2015.31;577.654;2.2
1474;1973.5;542.009;2.2
1475;1971.06;569.842;2.2
1476;2012.87;589.618;2.2
1477;2035.15;569.842;2.2
1478;2044.91;555.925;2.2
1479;2040.03;565.935;2.2
1480;2015.31;569.842;2.2
1481;1988.15;591.571;2.2
1482;2012.87;567.888;2.2
1483;2054.98;557.878;2.2
1484;2074.82;593.524;2.2
1485;2082.14;561.785;2.2
1486;2064.75;552.019;2.2
1487;2030.26;561.785;2.21
1488;2005.54;577.654;2.21
1489;2025.38;567.888;2.21
1490;2044.91;563.738;2.21
1491;2052.54;542.009;2.21
1492;2044.91;571.795;2.21
1493;2017.75;575.701;2.21
1494;1975.94;561.785;2.21
1495;1971.06;546.159;2.21
1496;2015.31;603.29;2.21
1497;2037.59;567.888;2.21
1498;2047.66;561.785;2.21
1499;2044.91;559.832;2.21
1500;2020.5;573.748;2.21
1501;1990.59;575.701;2.21
1502;2015.31;579.608;2.21
1503;2059.87;546.159;2.22
1504;2079.7;575.701;2.22
1505;2087.03;585.467;2.22
1506;2072.07;532.243;2.22
1507;2037.59;565.935;2.22
1508;2007.98;569.842;2.22
1509;2030.26;575.701;2.22
1510;2047.66;561.785;2.22
1511;2054.98;553.972;2.22
1512;2050.1;559.832;2.22
1513;2022.94;587.42;2.22
1514;1980.82;553.972;2.22
1515;1975.94;553.972;2.22
1516;2017.75;601.337;2.22
1517;2042.47;565.935;2.22
1518;2050.1;559.832;2.22
1519;2050.1;559.832;2.23
1520;2022.94;571.795;2.23
1521;1995.78;583.514;2.23
1522;2015.31;577.654;2.23
1523;2064.75;548.112;2.23
1524;2079.7;579.608;2.23
1525;2089.47;579.608;2.23
1526;2077.26;540.056;2.23
1527;2040.03;567.888;2.23
1528;2012.87;573.748;2.23
1529;2032.7;573.748;2.23
1530;2054.98;561.785;2.23
1531;2059.87;550.066;2.23
1532;2057.42;561.785;2.23
1533;2027.82;581.561;2.23
1534;1988.15;550.066;2.23
1535;1978.38;557.878;2.23
1536;2025.38;595.477;2.24
1537;2047.66;565.935;2.24
1538;2057.42;559.832;2.24
1539;2052.54;559.832;2.24
1540;2030.26;569.842;2.24
1541;2000.66;583.514;2.24
1542;2025.38;573.748;2.24
1543;2069.63;552.019;2.24
1544;2084.59;587.42;2.24
1545;2094.35;571.795;2.24
1546;2082.14;542.009;2.24
1547;2047.66;565.935;2.24
1548;2017.75;573.748;2.24
1549;2037.59;575.701;2.24
1550;2059.87;561.785;2.24
1551;2064.75;546.159;2.25
1552;2059.87;565.935;2.25
1553;2035.15;579.608;2.25
1554;1990.59;544.206;2.25
1555;1983.26;563.738;2.25
1556;2027.82;589.618;2.25
1557;2052.54;567.888;2.25
1558;2062.31;555.925;2.25
1559;2057.42;559.832;2.25
1560;2037.59;569.842;2.25
1561;2007.98;589.618;2.25
1562;2025.38;569.842;2.25
1563;2074.82;555.925;2.25
1564;2091.91;589.618;2.25
1565;2099.23;565.935;2.25
1566;2087.03;548.112;2.26
1567;2050.1;563.738;2.26
1568;2025.38;575.701;2.26
1569;2042.47;571.795;2.26
1570;2064.75;565.935;2.26
1571;2069.63;544.206;2.26
1572;2067.19;569.842;2.26
1573;2040.03;577.654;2.26
1574;1995.78;540.056;2.26
1575;1988.15;569.842;2.26
1576;2032.7;597.43;2.26
1577;2057.42;567.888;2.26
1578;2067.19;557.878;2.26
1579;2064.75;561.785;2.26
1580;2042.47;569.842;2.26
1581;2012.87;583.514;2.27
1582;2030.26;571.795;2.27
1583;2077.26;552.019;2.27
1584;2096.79;585.467;2.27
1585;2104.42;573.748;2.27
1586;2089.47;542.009;2.27
1587;2057.42;565.935;2.27
1588;2027.82;573.748;2.27
1589;2044.91;575.701;2.27
1590;2069.63;561.785;2.27
1591;2074.82;544.206;2.27
1592;2072.07;563.738;2.27
1593;2042.47;581.561;2.27
1594;2003.1;546.159;2.27
1595;1990.59;561.785;2.28
1596;2035.15;593.524;2.28
1597;2059.87;567.888;2.28
1598;2069.63;555.925;2.28
1599;2067.19;557.878;2.28
1600;2047.66;567.888;2.28
1601;2015.31;587.42;2.28
1602;2032.7;569.842;2.28
1603;2079.7;553.972;2.28
1604;2099.23;587.42;2.28
1605;2109.31;567.888;2.28
1606;2096.79;548.112;2.28
1607;2059.87;561.785;2.28
1608;2032.7;573.748;2.28
1609;2047.66;571.795;2.28
1610;2072.07;561.785;2.29
1611;2077.26;542.009;2.29
1612;2074.82;567.888;2.29
1613;2050.1;573.748;2.29
1614;2005.54;540.056;2.29
1615;1993.34;567.888;2.29
1616;2037.59;607.196;2.29
1617;2062.31;567.888;2.29
1618;2077.26;565.935;2.29
1619;2074.82;557.878;2.29
1620;2052.54;571.795;2.29
1621;2022.94;571.795;2.29
1622;2037.59;583.514;2.29
1623;2084.59;542.009;2.29
1624;2106.86;569.842;2.3
1625;2116.63;587.42;2.3
1626;2104.42;530.29;2.3
1627;2069.63;563.738;2.3
1628;2037.59;565.935;2.3
1629;2054.98;575.701;2.3
1630;2077.26;557.878;2.3
1631;2084.59;555.925;2.3
1632;2082.14;550.066;2.3
1633;2057.42;587.42;2.3
1634;2012.87;559.832;2.3
1635;1998.22;546.159;2.3
1636;2044.91;605.243;2.3
1637;2067.19;565.935;2.3
1638;2077.26;561.785;2.31
1639;2079.7;555.925;2.31
1640;2057.42;571.795;2.31
1641;2025.38;573.748;2.31
1642;2042.47;579.608;2.31
1643;2087.03;544.206;2.31
1644;2109.31;573.748;2.31
1645;2119.07;581.561;2.31
1646;2106.86;532.243;2.31
1647;2077.26;563.738;2.31
1648;2042.47;567.888;2.31
1649;2057.42;575.701;2.31
1650;2084.59;559.832;2.31
1651;2091.91;552.019;2.31
1652;2089.47;557.878;2.32
1653;2059.87;583.514;2.32
1654;2017.75;552.019;2.32
1655;2005.54;550.066;2.32
1656;2047.66;599.384;2.32
1657;2074.82;565.935;2.32
1658;2087.03;559.832;2.32
1659;2084.59;557.878;2.32
1660;2062.31;569.842;2.32
1661;2035.15;579.608;2.32
1662;2044.91;575.701;2.32
1663;2091.91;546.159;2.32
1664;2111.75;575.701;2.32
1665;2123.95;575.701;2.33
1666;2111.75;538.102;2.33
1667;2079.7;563.738;2.33
1668;2044.91;569.842;2.33
1669;2062.31;573.748;2.33
1670;2084.59;559.832;2.33
1671;2094.35;546.159;2.33
1672;2091.91;561.785;2.33
1673;2062.31;579.608;2.33
1674;2025.38;548.112;2.33
1675;2005.54;555.925;2.33
1676;2052.54;593.524;2.33
1677;2077.26;561.785;2.33
1678;2089.47;557.878;2.34
1679;2089.47;555.925;2.34
1680;2064.75;567.888;2.34
1681;2035.15;583.514;2.34
1682;2047.66;571.795;2.34
1683;2096.79;550.066;2.34
1684;2116.63;587.42;2.34
1685;2129.14;569.842;2.34
1686;2116.63;542.009;2.34
1687;2082.14;561.785;2.34
1688;2050.1;571.795;2.34
1689;2064.75;573.748;2.34
1690;2091.91;559.832;2.34
1691;2096.79;544.206;2.35
