<WeldAnalyseData xmlns:i="http:www.w3.org/2001/XMLSchema-instance">
<WeldParameter>
<TimeStamp>DT#2024-01-25-11:44:44</TimeStamp>
<Generator>SG-22-10000</Generator>
<GenFreq>20</GenFreq>
<MaxForce>8000</MaxForce>
<MaxPower>10000</MaxPower>
<RunupPressure>1.5</RunupPressure>
<RunupDist>10</RunupDist>
<RunPress>0.8</RunPress>
<ShakeDelay>0.03</ShakeDelay>
<ShakeTime>0.3</ShakeTime>
<RunBackPress1>6</RunBackPress1>
<RunBackPress2>2</RunBackPress2>
<RunBackDist>1</RunBackDist>
<TrigValue>500</TrigValue>
<TrigModeUnit>W</TrigModeUnit>
<WeldModeUnit>Ws</WeldModeUnit>
<PressNr>0</PressNr>
<MaxLoss>1500</MaxLoss>
</WeldParameter>
<WeldSets>
<WeldSet>
<PressRiseTime>0</PressRiseTime>
<RunPressure>1</RunPressure>
<Amplitude>86</Amplitude>
<WeldMode>3270</WeldMode>
</WeldSet>
</WeldSets>
<WeldValue>
<WeldNr>3001</WeldNr>
<RecipeName>RickStyle</RecipeName>
<WeldTime>1669</WeldTime>
<DistDiff>2.26</DistDiff>
<DistAbs>78.05</DistAbs>
<Energy>3271.2</Energy>
<MaxPower>2156.69</MaxPower>
<CycleTime>5960</CycleTime>
<TrigForce>502.701</TrigForce>
<TrigDist>75.79</TrigDist>
<RunSpeed>68.9627</RunSpeed>
<MaxForce>625.019</MaxForce>
<LossPower>319.586</LossPower>
</WeldValue>
</WeldAnalyseData>
#CSV-START#
ms;Power[W];Force[N];Distance[mm]
1;0;0;0
2;0;504.654;0
3;0;504.654;0
4;0;502.701;0
5;0;502.701;0
6;0;506.607;0
7;0;504.654;0
8;0;484.878;0.0100021
9;0;429.456;0.0199966
10;0;409.925;0.0400009
11;0;384.045;0.0699997
12;33.208;366.466;0.110001
13;97.602;342.784;0.139999
14;181.528;342.784;0.18
15;253.246;326.914;0.220001
16;314.894;312.998;0.260002
17;376.541;311.045;0.299995
18;435.747;307.138;0.349998
19;492.512;321.055;0.379997
20;566.672;311.045;0.419998
21;640.831;309.091;0.449997
22;707.362;336.68;0.479996
23;781.522;323.008;0.510002
24;845.611;323.008;0.540001
25;895.051;344.737;0.559998
26;946.932;354.503;0.57
27;1008.58;360.363;0.589996
28;1065.34;372.326;0.599998
29;1117.23;370.373;0.610001
30;1154.46;403.821;0.620003
31;1171.55;411.878;0.620003
32;1178.87;390.149;0.620003
33;1216.11;421.644;0.629997
34;1263.1;431.654;0.629997
35;1300.03;423.597;0.629997
36;1334.52;411.878;0.639999
37;1359.24;431.654;0.639999
38;1369;427.503;0.650002
39;1383.96;449.232;0.659996
40;1440.72;423.597;0.659996
41;1490.16;425.55;0.669998
42;1524.65;461.196;0.669998
43;1556.69;421.644;0.68
44;1564.32;423.597;0.68
45;1554.25;427.503;0.690002
46;1559.13;443.373;0.690002
47;1596.37;425.55;0.699997
48;1628.41;435.56;0.709999
49;1653.13;411.878;0.709999
50;1665.34;447.279;0.720001
51;1650.69;445.326;0.729996
52;1638.18;407.971;0.729996
53;1670.53;453.383;0.739998
54;1724.54;449.232;0.75
55;1761.78;449.232;0.760002
56;1786.5;435.56;0.760002
57;1798.7;447.279;0.769997
58;1791.38;451.186;0.779999
59;1791.38;475.112;0.790001
60;1843.26;451.186;0.790001
61;1892.7;449.232;0.799995
62;1924.75;488.784;0.799995
63;1941.84;459.243;0.809998
64;1932.07;451.186;0.809998
65;1907.35;459.243;0.82
66;1900.03;477.065;0.82
67;1932.07;467.055;0.830002
68;1956.79;469.008;0.830002
69;1971.74;447.279;0.839996
70;1969;482.925;0.839996
71;1939.39;484.878;0.839996
72;1909.79;449.232;0.849998
73;1927.19;488.784;0.849998
74;1981.51;496.597;0.860001
75;2006.23;488.784;0.860001
76;2023.32;472.915;0.860001
77;2020.88;490.738;0.870003
78;1996.16;490.738;0.870003
79;1983.95;512.467;0.879997
80;2028.51;480.972;0.879997
81;2075.2;480.972;0.889999
82;2097.48;524.43;0.889999
83;2104.8;480.972;0.889999
84;2082.83;482.925;0.900002
85;2048.04;486.831;0.900002
86;2033.39;508.56;0.909996
87;2062.99;486.831;0.909996
88;2082.83;494.644;0.909996
89;2095.04;472.915;0.919998
90;2082.83;516.373;0.919998
91;2048.04;520.524;0.93
92;2008.67;486.831;0.93
93;2026.07;492.691;0.93
94;2070.32;538.102;0.940002
95;2097.48;508.56;0.940002
96;2107.55;500.748;0.940002
97;2099.92;500.748;0.949997
98;2070.32;512.467;0.949997
99;2053.23;528.336;0.949997
100;2095.04;516.373;0.959999
101;2131.97;492.691;0.959999
102;2154.24;530.29;0.959999
103;2156.69;522.477;0.970001
104;2131.97;484.878;0.970001
105;2092.6;512.467;0.970001
106;2072.76;520.524;0.979996
107;2099.92;522.477;0.979996
108;2114.88;508.56;0.979996
109;2122.2;492.691;0.989998
110;2109.99;514.42;0.989998
111;2070.32;528.336;0.989998
112;2028.51;494.644;0.989998
113;2040.72;510.514;1
114;2087.71;542.009;1
115;2109.99;518.326;1
116;2117.32;508.56;1.01
117;2107.55;514.42;1.01
118;2077.64;522.477;1.01
119;2055.67;542.009;1.01
120;2092.6;522.477;1.02
121;2131.97;508.56;1.02
122;2146.92;548.112;1.02
123;2151.8;522.477;1.02
124;2122.2;504.654;1.03
125;2080.39;520.524;1.03
126;2060.55;534.196;1.03
127;2085.27;534.196;1.03
128;2097.48;522.477;1.04
129;2102.36;504.654;1.04
130;2090.16;530.29;1.04
131;2048.04;536.149;1.04
132;2006.23;500.748;1.05
133;2016;528.336;1.05
134;2060.55;548.112;1.05
135;2077.64;532.243;1.05
136;2087.71;518.326;1.06
137;2075.2;526.383;1.06
138;2048.04;530.29;1.06
139;2023.32;552.019;1.06
140;2060.55;528.336;1.07
141;2097.48;520.524;1.07
142;2114.88;559.832;1.07
143;2119.76;526.383;1.07
144;2092.6;516.373;1.07
145;2050.48;528.336;1.08
146;2033.39;542.009;1.08
147;2053.23;530.29;1.08
148;2067.88;528.336;1.08
149;2070.32;508.56;1.08
150;2055.67;542.009;1.09
151;2016;542.009;1.09
152;1976.63;504.654;1.09
153;1988.83;542.009;1.09
154;2033.39;550.066;1.09
155;2053.23;540.056;1.09
156;2062.99;524.43;1.1
157;2053.23;542.009;1.1
158;2023.32;538.102;1.1
159;2001.35;563.738;1.1
160;2035.83;548.112;1.1
161;2077.64;516.373;1.11
162;2092.6;548.112;1.11
163;2099.92;552.019;1.11
164;2075.2;506.607;1.11
165;2035.83;538.102;1.11
166;2016;542.009;1.11
167;2038.27;550.066;1.12
168;2053.23;534.196;1.12
169;2058.11;524.43;1.12
170;2043.16;534.196;1.12
171;2003.79;559.832;1.12
172;1961.67;526.383;1.12
173;1971.74;532.243;1.13
174;2018.44;573.748;1.13
175;2038.27;544.206;1.13
176;2048.04;536.149;1.13
177;2040.72;538.102;1.13
178;2008.67;548.112;1.13
179;1986.39;561.785;1.14
180;2026.07;550.066;1.14
181;2065.44;530.29;1.14
182;2080.39;561.785;1.14
183;2085.27;553.972;1.14
184;2060.55;518.326;1.14
185;2020.88;544.206;1.15
186;1998.91;552.019;1.15
187;2023.32;553.972;1.15
188;2038.27;540.056;1.15
189;2040.72;526.383;1.15
190;2030.95;542.009;1.15
191;1993.72;559.832;1.15
192;1954.35;526.383;1.16
193;1959.23;540.056;1.16
194;2003.79;571.795;1.16
195;2020.88;546.159;1.16
196;2033.39;538.102;1.16
197;2020.88;540.056;1.16
198;1991.28;550.066;1.17
199;1969;567.888;1.17
200;2006.23;552.019;1.17
201;2048.04;536.149;1.17
202;2065.44;571.795;1.17
203;2070.32;550.066;1.17
204;2062.99;528.336;1.17
205;2020.88;548.112;1.18
206;1986.39;557.878;1.18
207;1996.16;559.832;1.18
208;2016;546.159;1.18
209;2020.88;526.383;1.18
210;2018.44;553.972;1.18
211;1991.28;561.785;1.18
212;1947.02;526.383;1.19
213;1932.07;553.972;1.19
214;1971.74;573.748;1.19
215;2001.35;553.972;1.19
216;2016;542.009;1.19
217;2016;552.019;1.19
218;1993.72;555.925;1.19
219;1961.67;577.654;1.2
220;1976.63;552.019;1.2
221;2020.88;544.206;1.2
222;2048.04;581.561;1.2
223;2060.55;552.019;1.2
224;2048.04;536.149;1.2
225;2011.11;550.066;1.2
226;1976.63;563.738;1.21
227;1986.39;555.925;1.21
228;2008.67;552.019;1.21
229;2016;536.149;1.21
230;2013.55;553.972;1.21
231;1986.39;569.842;1.21
232;1944.58;538.102;1.21
233;1924.75;548.112;1.21
234;1964.11;583.514;1.22
235;1996.16;555.925;1.22
236;2006.23;548.112;1.22
237;2008.67;548.112;1.22
238;1988.83;561.785;1.22
239;1954.35;575.701;1.22
240;1969;559.832;1.22
241;2016;544.206;1.23
242;2038.27;579.608;1.23
243;2050.48;559.832;1.23
244;2040.72;536.149;1.23
245;2003.79;555.925;1.23
246;1971.74;565.935;1.23
247;1979.07;567.888;1.23
248;2003.79;553.972;1.23
249;2008.67;538.102;1.24
250;2006.23;563.738;1.24
251;1976.63;569.842;1.24
252;1936.95;536.149;1.24
253;1917.42;561.785;1.24
254;1959.23;583.514;1.24
255;1988.83;561.785;1.24
256;2001.35;552.019;1.24
257;2001.35;557.878;1.25
258;1979.07;561.785;1.25
259;1949.47;583.514;1.25
260;1959.23;561.785;1.25
261;2008.67;553.972;1.25
262;2030.95;591.571;1.25
263;2040.72;581.561;1.25
264;2030.95;526.383;1.25
265;1998.91;559.832;1.26
266;1961.67;563.738;1.26
267;1971.74;573.748;1.26
268;1991.28;553.972;1.26
269;1998.91;553.972;1.26
270;1996.16;553.972;1.26
271;1971.74;585.467;1.26
272;1927.19;557.878;1.26
273;1909.79;548.112;1.26
274;1949.47;603.29;1.27
275;1979.07;567.888;1.27
276;1991.28;563.738;1.27
277;1991.28;559.832;1.27
278;1969;571.795;1.27
279;1941.84;579.608;1.27
280;1951.91;583.514;1.27
281;1996.16;548.112;1.27
282;2020.88;575.701;1.28
283;2030.95;583.514;1.28
284;2020.88;538.102;1.28
285;1988.83;567.888;1.28
286;1954.35;573.748;1.28
287;1959.23;577.654;1.28
288;1986.39;563.738;1.28
289;1991.28;559.832;1.28
290;1988.83;561.785;1.28
291;1961.67;589.618;1.29
292;1919.86;559.832;1.29
293;1902.47;557.878;1.29
294;1941.84;605.243;1.29
295;1969;571.795;1.29
296;1981.51;565.935;1.29
297;1981.51;561.785;1.29
298;1961.67;577.654;1.29
299;1932.07;587.42;1.29
300;1941.84;583.514;1.3
301;1991.28;557.878;1.3
302;2013.55;589.618;1.3
303;2028.51;583.514;1.3
304;2018.44;546.159;1.3
305;1983.95;573.748;1.3
306;1949.47;579.608;1.3
307;1951.91;581.561;1.3
308;1976.63;569.842;1.3
309;1983.95;559.832;1.31
310;1981.51;571.795;1.31
311;1956.79;589.618;1.31
312;1914.67;557.878;1.31
313;1895.14;569.842;1.31
314;1934.51;603.29;1.31
315;1961.67;573.748;1.31
316;1974.19;569.842;1.31
317;1971.74;569.842;1.31
318;1954.35;579.608;1.32
319;1924.75;595.477;1.32
320;1934.51;581.561;1.32
321;1983.95;565.935;1.32
322;2008.67;601.337;1.32
323;2020.88;579.608;1.32
324;2011.11;555.925;1.32
325;1976.63;577.654;1.32
326;1941.84;585.467;1.32
327;1949.47;587.42;1.33
328;1974.19;575.701;1.33
329;1981.51;555.925;1.33
330;1976.63;579.608;1.33
331;1951.91;589.618;1.33
332;1909.79;579.608;1.33
333;1892.7;557.878;1.33
334;1932.07;615.253;1.33
335;1959.23;579.608;1.33
336;1969;579.608;1.33
337;1971.74;571.795;1.34
338;1951.91;587.42;1.34
339;1922.3;585.467;1.34
340;1932.07;597.43;1.34
341;1979.07;555.925;1.34
342;2003.79;583.514;1.34
343;2013.55;601.337;1.34
344;2006.23;546.159;1.34
345;1971.74;579.608;1.34
346;1936.95;577.654;1.35
347;1944.58;589.618;1.35
348;1966.56;573.748;1.35
349;1974.19;573.748;1.35
350;1971.74;567.888;1.35
351;1949.47;603.29;1.35
352;1907.35;575.701;1.35
353;1890.26;561.785;1.35
354;1924.75;619.16;1.35
355;1954.35;581.561;1.35
356;1964.11;579.608;1.36
357;1969;571.795;1.36
358;1949.47;585.467;1.36
359;1922.3;591.571;1.36
360;1927.19;595.477;1.36
361;1976.63;561.785;1.36
362;2001.35;591.571;1.36
363;2013.55;601.337;1.36
364;2003.79;548.112;1.36
365;1971.74;579.608;1.36
366;1934.51;581.561;1.37
367;1944.58;593.524;1.37
368;1969;575.701;1.37
369;1971.74;567.888;1.37
370;1971.74;573.748;1.37
371;1947.02;599.384;1.37
372;1907.35;569.842;1.37
373;1885.07;569.842;1.37
374;1927.19;615.253;1.37
375;1954.35;583.514;1.37
376;1966.56;575.701;1.38
377;1969;575.701;1.38
378;1949.47;585.467;1.38
379;1922.3;597.43;1.38
380;1929.63;591.571;1.38
381;1979.07;567.888;1.38
382;2001.35;597.43;1.38
383;2013.55;593.524;1.38
384;2006.23;553.972;1.38
385;1969;581.561;1.38
386;1939.39;585.467;1.38
387;1944.58;589.618;1.39
388;1969;575.701;1.39
389;1974.19;565.935;1.39
390;1974.19;579.608;1.39
391;1951.91;599.384;1.39
392;1909.79;563.738;1.39
393;1887.51;577.654;1.39
394;1924.75;611.347;1.39
395;1954.35;581.561;1.39
396;1969;573.748;1.39
397;1969;577.654;1.39
398;1954.35;587.42;1.4
399;1922.3;603.29;1.4
400;1929.63;587.42;1.4
401;1979.07;563.738;1.4
402;2001.35;593.524;1.4
403;2013.55;599.384;1.4
404;2006.23;555.925;1.4
405;1971.74;581.561;1.4
406;1934.51;587.42;1.4
407;1944.58;591.571;1.4
408;1969;577.654;1.4
409;1974.19;569.842;1.4
410;1971.74;573.748;1.41
411;1949.47;605.243;1.41
412;1907.35;571.795;1.41
413;1885.07;569.842;1.41
414;1922.3;619.16;1.41
415;1949.47;581.561;1.41
416;1966.56;579.608;1.41
417;1964.11;575.701;1.41
418;1949.47;589.618;1.41
419;1919.86;597.43;1.41
420;1927.19;593.524;1.41
421;1974.19;565.935;1.42
422;1998.91;599.384;1.42
423;2013.55;593.524;1.42
424;2003.79;557.878;1.42
425;1971.74;583.514;1.42
426;1936.95;591.571;1.42
427;1941.84;591.571;1.42
428;1966.56;579.608;1.42
429;1971.74;569.842;1.42
430;1971.74;579.608;1.42
431;1949.47;597.43;1.42
432;1912.23;565.935;1.42
433;1890.26;577.654;1.43
434;1927.19;611.347;1.43
435;1954.35;585.467;1.43
436;1966.56;585.467;1.43
437;1974.19;571.795;1.43
438;1951.91;591.571;1.43
439;1924.75;585.467;1.43
440;1932.07;605.243;1.43
441;1979.07;557.878;1.43
442;2008.67;581.561;1.43
443;2016;611.347;1.43
444;2011.11;550.066;1.43
445;1979.07;581.561;1.43
446;1941.84;581.561;1.44
447;1949.47;593.524;1.44
448;1974.19;575.701;1.44
449;1979.07;577.654;1.44
450;1981.51;565.935;1.44
451;1956.79;611.347;1.44
452;1912.23;581.561;1.44
453;1895.14;559.832;1.44
454;1927.19;619.16;1.44
455;1959.23;585.467;1.44
456;1971.74;583.514;1.44
457;1976.63;575.701;1.44
458;1959.23;591.571;1.44
459;1929.63;587.42;1.45
460;1934.51;603.29;1.45
461;1983.95;559.832;1.45
462;2006.23;585.467;1.45
463;2020.88;605.243;1.45
464;2013.55;546.159;1.45
465;1981.51;583.514;1.45
466;1944.58;583.514;1.45
467;1951.91;593.524;1.45
468;1974.19;577.654;1.45
469;1981.51;577.654;1.45
470;1981.51;569.842;1.45
471;1956.79;609.149;1.45
472;1914.67;579.608;1.46
473;1895.14;567.888;1.46
474;1932.07;625.019;1.46
475;1961.67;585.467;1.46
476;1976.63;583.514;1.46
477;1979.07;577.654;1.46
478;1961.67;591.571;1.46
479;1934.51;595.477;1.46
480;1936.95;599.384;1.46
481;1983.95;565.935;1.46
482;2008.67;591.571;1.46
483;2020.88;601.337;1.46
484;2011.11;552.019;1.46
485;1981.51;583.514;1.47
486;1944.58;587.42;1.47
487;1949.47;593.524;1.47
488;1974.19;579.608;1.47
489;1981.51;573.748;1.47
490;1981.51;575.701;1.47
491;1956.79;603.29;1.47
492;1914.67;575.701;1.47
493;1895.14;569.842;1.47
494;1929.63;619.16;1.47
495;1956.79;583.514;1.47
496;1971.74;583.514;1.47
497;1974.19;575.701;1.47
498;1956.79;585.467;1.48
499;1927.19;597.43;1.48
500;1934.51;595.477;1.48
501;1981.51;567.888;1.48
502;2006.23;603.29;1.48
503;2018.44;595.477;1.48
504;2011.11;557.878;1.48
505;1979.07;579.608;1.48
506;1944.58;579.608;1.48
507;1949.47;595.477;1.48
508;1974.19;573.748;1.48
509;1981.51;583.514;1.48
510;1979.07;563.738;1.48
511;1959.23;613.3;1.49
512;1917.42;587.42;1.49
513;1895.14;553.972;1.49
514;1929.63;617.206;1.49
515;1959.23;587.42;1.49
516;1971.74;593.524;1.49
517;1976.63;575.701;1.49
518;1956.79;595.477;1.49
519;1927.19;585.467;1.49
520;1934.51;605.243;1.49
521;1983.95;561.785;1.49
522;2006.23;585.467;1.49
523;2018.44;613.3;1.49
524;2016;553.972;1.49
525;1981.51;585.467;1.5
526;1947.02;583.514;1.5
527;1951.91;593.524;1.5
528;1976.63;579.608;1.5
529;1981.51;581.561;1.5
530;1981.51;569.842;1.5
531;1956.79;613.3;1.5
532;1914.67;585.467;1.5
533;1892.7;559.832;1.5
534;1927.19;625.019;1.5
535;1959.23;585.467;1.5
536;1976.63;589.618;1.5
537;1979.07;577.654;1.5
538;1959.23;595.477;1.51
539;1932.07;589.618;1.51
540;1934.51;603.29;1.51
541;1981.51;561.785;1.51
542;2008.67;589.618;1.51
543;2020.88;607.196;1.51
544;2013.55;548.112;1.51
545;1981.51;581.561;1.51
546;1944.58;585.467;1.51
547;1951.91;595.477;1.51
548;1974.19;579.608;1.51
549;1983.95;579.608;1.51
550;1983.95;571.795;1.51
551;1961.67;609.149;1.51
552;1919.86;581.561;1.52
553;1897.58;565.935;1.52
554;1932.07;625.019;1.52
555;1961.67;587.42;1.52
556;1976.63;583.514;1.52
557;1979.07;579.608;1.52
558;1961.67;591.571;1.52
559;1929.63;593.524;1.52
560;1934.51;599.384;1.52
561;1983.95;563.738;1.52
562;2011.11;593.524;1.52
563;2020.88;603.29;1.52
564;2016;552.019;1.52
565;1986.39;585.467;1.52
566;1947.02;589.618;1.53
567;1951.91;595.477;1.53
568;1974.19;579.608;1.53
569;1983.95;575.701;1.53
570;1981.51;577.654;1.53
571;1959.23;605.243;1.53
572;1914.67;575.701;1.53
573;1895.14;573.748;1.53
574;1929.63;623.066;1.53
575;1961.67;587.42;1.53
576;1976.63;587.42;1.53
577;1981.51;575.701;1.53
578;1964.11;597.43;1.53
579;1932.07;591.571;1.53
580;1934.51;607.196;1.54
581;1983.95;563.738;1.54
582;2006.23;587.42;1.54
583;2020.88;607.196;1.54
584;2016;548.112;1.54
585;1983.95;587.42;1.54
586;1949.47;583.514;1.54
587;1951.91;595.477;1.54
588;1976.63;577.654;1.54
589;1983.95;577.654;1.54
590;1983.95;573.748;1.54
591;1964.11;609.149;1.54
592;1917.42;579.608;1.54
593;1895.14;565.935;1.54
594;1932.07;623.066;1.55
595;1961.67;585.467;1.55
596;1974.19;585.467;1.55
597;1981.51;577.654;1.55
598;1959.23;591.571;1.55
599;1934.51;593.524;1.55
600;1934.51;599.384;1.55
601;1986.39;563.738;1.55
602;2011.11;591.571;1.55
603;2023.32;601.337;1.55
604;2016;550.066;1.55
605;1983.95;585.467;1.55
606;1949.47;587.42;1.55
607;1951.91;593.524;1.55
608;1974.19;573.748;1.55
609;1983.95;583.514;1.56
610;1983.95;559.832;1.56
611;1961.67;605.243;1.56
612;1922.3;589.618;1.56
613;1897.58;553.972;1.56
614;1929.63;607.196;1.56
615;1961.67;589.618;1.56
616;1976.63;589.618;1.56
617;1976.63;575.701;1.56
618;1959.23;595.477;1.56
619;1929.63;585.467;1.56
620;1932.07;611.347;1.56
621;1983.95;565.935;1.56
622;2008.67;581.561;1.56
623;2018.44;615.253;1.56
624;2013.55;557.878;1.57
625;1983.95;579.608;1.57
626;1947.02;579.608;1.57
627;1949.47;595.477;1.57
628;1974.19;573.748;1.57
629;1979.07;583.514;1.57
630;1976.63;561.785;1.57
631;1956.79;611.347;1.57
632;1914.67;589.618;1.57
633;1892.7;555.925;1.57
634;1927.19;615.253;1.57
635;1956.79;589.618;1.57
636;1974.19;589.618;1.57
637;1976.63;571.795;1.57
638;1959.23;595.477;1.57
639;1932.07;583.514;1.58
640;1934.51;609.149;1.58
641;1979.07;561.785;1.58
642;2006.23;585.467;1.58
643;2020.88;611.347;1.58
644;2016;553.972;1.58
645;1983.95;581.561;1.58
646;1947.02;579.608;1.58
647;1949.47;593.524;1.58
648;1971.74;573.748;1.58
649;1979.07;583.514;1.58
650;1981.51;565.935;1.58
651;1959.23;611.347;1.58
652;1917.42;585.467;1.58
653;1892.7;557.878;1.58
654;1929.63;621.113;1.59
655;1961.67;585.467;1.59
656;1974.19;585.467;1.59
657;1981.51;573.748;1.59
658;1964.11;593.524;1.59
659;1936.95;585.467;1.59
660;1934.51;603.29;1.59
661;1983.95;559.832;1.59
662;2008.67;585.467;1.59
663;2023.32;607.196;1.59
664;2016;552.019;1.59
665;1986.39;583.514;1.59
666;1951.91;581.561;1.59
667;1949.47;593.524;1.59
668;1976.63;573.748;1.59
669;1983.95;577.654;1.59
670;1983.95;567.888;1.6
671;1959.23;605.243;1.6
672;1922.3;579.608;1.6
673;1897.58;561.785;1.6
674;1932.07;625.019;1.6
675;1964.11;583.514;1.6
676;1976.63;581.561;1.6
677;1981.51;575.701;1.6
678;1964.11;595.477;1.6
679;1934.51;585.467;1.6
680;1932.07;609.149;1.6
681;1983.95;571.795;1.6
682;2008.67;579.608;1.6
683;2018.44;617.206;1.6
684;2013.55;561.785;1.6
685;1983.95;575.701;1.6
686;1947.02;577.654;1.61
687;1947.02;593.524;1.61
688;1971.74;569.842;1.61
689;1981.51;579.608;1.61
690;1979.07;559.832;1.61
691;1956.79;603.29;1.61
692;1919.86;587.42;1.61
693;1890.26;552.019;1.61
694;1924.75;605.243;1.61
695;1956.79;589.618;1.61
696;1969;589.618;1.61
697;1974.19;571.795;1.61
698;1956.79;597.43;1.61
699;1929.63;583.514;1.61
700;1929.63;607.196;1.61
701;1979.07;565.935;1.61
702;2003.79;579.608;1.62
703;2016;615.253;1.62
704;2011.11;557.878;1.62
705;1981.51;577.654;1.62
706;1944.58;575.701;1.62
707;1944.58;593.524;1.62
708;1969;571.795;1.62
709;1976.63;579.608;1.62
710;1976.63;561.785;1.62
711;1956.79;609.149;1.62
712;1914.67;585.467;1.62
713;1887.51;553.972;1.62
714;1922.3;611.347;1.62
715;1954.35;585.467;1.62
716;1966.56;587.42;1.62
717;1974.19;573.748;1.63
718;1956.79;593.524;1.63
719;1924.75;583.514;1.63
720;1932.07;607.196;1.63
721;1974.19;557.878;1.63
722;2003.79;579.608;1.63
723;2016;611.347;1.63
724;2011.11;553.972;1.63
725;1981.51;579.608;1.63
726;1944.58;577.654;1.63
727;1944.58;593.524;1.63
728;1969;571.795;1.63
729;1976.63;579.608;1.63
730;1976.63;563.738;1.63
731;1961.67;613.3;1.63
732;1917.42;587.42;1.63
733;1892.7;557.878;1.64
734;1924.75;617.206;1.64
735;1956.79;587.42;1.64
736;1971.74;585.467;1.64
737;1976.63;573.748;1.64
738;1961.67;593.524;1.64
739;1929.63;585.467;1.64
740;1932.07;605.243;1.64
741;1981.51;557.878;1.64
742;2006.23;585.467;1.64
743;2018.44;609.149;1.64
744;2013.55;550.066;1.64
745;1986.39;579.608;1.64
746;1949.47;577.654;1.64
747;1944.58;595.477;1.64
748;1971.74;569.842;1.65
749;1979.07;579.608;1.65
750;1979.07;557.878;1.65
751;1959.23;609.149;1.65
752;1917.42;589.618;1.65
753;1892.7;552.019;1.65
754;1922.3;613.3;1.65
755;1956.79;585.467;1.65
756;1974.19;587.42;1.65
757;1979.07;569.842;1.65
758;1961.67;595.477;1.65
759;1929.63;585.467;1.65
760;1929.63;607.196;1.65
761;1976.63;559.832;1.65
762;2003.79;579.608;1.65
763;2016;611.347;1.65
764;2013.55;553.972;1.66
765;1981.51;579.608;1.66
766;1944.58;577.654;1.66
767;1944.58;593.524;1.66
768;1971.74;571.795;1.66
769;1979.07;579.608;1.66
770;1979.07;561.785;1.66
771;1956.79;609.149;1.66
772;1917.42;585.467;1.66
773;1890.26;555.925;1.66
774;1922.3;619.16;1.66
775;1954.35;585.467;1.66
776;1971.74;587.42;1.66
777;1974.19;573.748;1.66
778;1961.67;593.524;1.66
779;1932.07;585.467;1.67
780;1929.63;607.196;1.67
781;1976.63;575.701;1.67
782;2003.79;579.608;1.67
783;2018.44;613.3;1.67
784;2011.11;569.842;1.67
785;1986.39;571.795;1.67
786;1947.02;575.701;1.67
787;1944.58;591.571;1.67
788;1974.19;573.748;1.67
789;1976.63;579.608;1.67
790;1979.07;555.925;1.67
791;1959.23;593.524;1.67
792;1919.86;587.42;1.67
793;1895.14;552.019;1.67
794;1922.3;597.43;1.67
795;1956.79;593.524;1.68
796;1971.74;587.42;1.68
797;1974.19;571.795;1.68
798;1959.23;597.43;1.68
799;1929.63;585.467;1.68
800;1927.19;609.149;1.68
801;1976.63;573.748;1.68
802;2001.35;579.608;1.68
803;2013.55;613.3;1.68
804;2013.55;561.785;1.68
805;1981.51;577.654;1.68
806;1947.02;573.748;1.68
807;1944.58;593.524;1.68
808;1971.74;569.842;1.68
809;1979.07;579.608;1.68
810;1974.19;557.878;1.68
811;1959.23;601.337;1.69
812;1914.67;587.42;1.69
813;1890.26;550.066;1.69
814;1919.86;605.243;1.69
815;1956.79;591.571;1.69
816;1971.74;589.618;1.69
817;1974.19;569.842;1.69
818;1961.67;595.477;1.69
819;1932.07;583.514;1.69
820;1927.19;607.196;1.69
821;1976.63;563.738;1.69
822;2006.23;581.561;1.69
823;2020.88;615.253;1.69
824;2016;557.878;1.69
825;1986.39;577.654;1.69
826;1949.47;573.748;1.7
827;1944.58;591.571;1.7
828;1971.74;571.795;1.7
829;1976.63;579.608;1.7
830;1981.51;559.832;1.7
831;1961.67;607.196;1.7
832;1922.3;585.467;1.7
833;1890.26;553.972;1.7
834;1922.3;607.196;1.7
835;1956.79;587.42;1.7
836;1969;587.42;1.7
837;1974.19;573.748;1.7
838;1961.67;593.524;1.7
839;1932.07;581.561;1.7
840;1929.63;605.243;1.7
841;1976.63;559.832;1.7
842;2006.23;581.561;1.71
843;2020.88;613.3;1.71
844;2018.44;553.972;1.71
845;1986.39;579.608;1.71
846;1951.91;575.701;1.71
847;1947.02;593.524;1.71
848;1971.74;571.795;1.71
849;1979.07;579.608;1.71
850;1979.07;557.878;1.71
851;1961.67;591.571;1.71
852;1922.3;591.571;1.71
853;1892.7;553.972;1.71
854;1922.3;589.618;1.71
855;1956.79;599.384;1.71
856;1971.74;587.42;1.71
857;1976.63;571.795;1.72
858;1964.11;587.42;1.72
859;1932.07;583.514;1.72
860;1932.07;605.243;1.72
861;1979.07;577.654;1.72
862;2006.23;575.701;1.72
863;2018.44;613.3;1.72
864;2016;569.842;1.72
865;1986.39;573.748;1.72
866;1951.91;575.701;1.72
867;1949.47;593.524;1.72
868;1974.19;573.748;1.72
869;1983.95;577.654;1.72
870;1983.95;555.925;1.72
871;1964.11;595.477;1.72
872;1924.75;587.42;1.72
873;1895.14;550.066;1.73
874;1924.75;595.477;1.73
875;1961.67;593.524;1.73
876;1974.19;587.42;1.73
877;1981.51;569.842;1.73
878;1966.56;593.524;1.73
879;1939.39;585.467;1.73
880;1932.07;607.196;1.73
881;1981.51;571.795;1.73
882;2011.11;577.654;1.73
883;2020.88;613.3;1.73
884;2020.88;565.935;1.73
885;1991.28;573.748;1.73
886;1956.79;573.748;1.73
887;1949.47;593.524;1.73
888;1976.63;567.888;1.73
889;1986.39;577.654;1.74
890;1983.95;555.925;1.74
891;1969;601.337;1.74
892;1929.63;587.42;1.74
893;1897.58;548.112;1.74
894;1927.19;603.29;1.74
895;1961.67;589.618;1.74
896;1976.63;587.42;1.74
897;1981.51;571.795;1.74
898;1969;595.477;1.74
899;1939.39;583.514;1.74
900;1934.51;607.196;1.74
901;1981.51;565.935;1.74
902;2011.11;577.654;1.74
903;2026.07;611.347;1.74
904;2023.32;557.878;1.75
905;1993.72;575.701;1.75
906;1961.67;573.748;1.75
907;1949.47;593.524;1.75
908;1976.63;569.842;1.75
909;1986.39;579.608;1.75
910;1988.83;555.925;1.75
911;1979.07;605.243;1.75
912;1941.84;585.467;1.75
913;1904.91;550.066;1.75
914;1922.3;609.149;1.75
915;1959.23;585.467;1.75
916;1974.19;585.467;1.75
917;1983.95;571.795;1.75
918;1974.19;593.524;1.75
919;1944.58;583.514;1.75
920;1929.63;607.196;1.76
921;1974.19;573.748;1.76
922;2008.67;577.654;1.76
923;2023.32;613.3;1.76
924;2028.51;565.935;1.76
925;2006.23;571.795;1.76
926;1966.56;575.701;1.76
927;1951.91;591.571;1.76
928;1976.63;571.795;1.76
929;1988.83;579.608;1.76
930;1991.28;557.878;1.76
931;1976.63;599.384;1.76
932;1941.84;585.467;1.76
933;1904.91;552.019;1.76
934;1924.75;601.337;1.76
935;1964.11;587.42;1.77
936;1981.51;587.42;1.77
937;1991.28;569.842;1.77
938;1979.07;593.524;1.77
939;1951.91;581.561;1.77
940;1934.51;607.196;1.77
941;1976.63;565.935;1.77
942;2013.55;579.608;1.77
943;2028.51;613.3;1.77
944;2030.95;559.832;1.77
945;2008.67;577.654;1.77
946;1971.74;573.748;1.77
947;1954.35;593.524;1.77
948;1981.51;569.842;1.77
949;1991.28;577.654;1.77
950;1993.72;557.878;1.77
951;1979.07;605.243;1.78
952;1944.58;587.42;1.78
953;1909.79;557.878;1.78
954;1924.75;581.561;1.78
955;1966.56;605.243;1.78
956;1981.51;585.467;1.78
957;1991.28;573.748;1.78
958;1983.95;577.654;1.78
959;1954.35;583.514;1.78
960;1936.95;603.29;1.78
961;1981.51;581.561;1.78
962;2016;569.842;1.78
963;2033.39;607.196;1.78
964;2033.39;577.654;1.78
965;2011.11;565.935;1.78
966;1974.19;577.654;1.78
967;1959.23;591.571;1.79
968;1983.95;585.467;1.79
969;1993.72;577.654;1.79
970;1996.16;557.878;1.79
971;1986.39;589.618;1.79
972;1947.02;589.618;1.79
973;1912.23;552.019;1.79
974;1924.75;585.467;1.79
975;1964.11;595.477;1.79
976;1983.95;583.514;1.79
977;1993.72;571.795;1.79
978;1983.95;587.42;1.79
979;1956.79;583.514;1.79
980;1941.84;605.243;1.79
981;1981.51;575.701;1.79
982;2016;575.701;1.8
983;2033.39;613.3;1.8
984;2035.83;571.795;1.8
985;2013.55;567.888;1.8
986;1974.19;573.748;1.8
987;1959.23;591.571;1.8
988;1983.95;577.654;1.8
989;1993.72;575.701;1.8
990;1996.16;553.972;1.8
991;1983.95;591.571;1.8
992;1949.47;587.42;1.8
993;1909.79;552.019;1.8
994;1924.75;593.524;1.8
995;1969;593.524;1.8
996;1986.39;589.618;1.8
997;1993.72;569.842;1.8
998;1986.39;593.524;1.81
999;1956.79;583.514;1.81
1000;1939.39;607.196;1.81
1001;1981.51;571.795;1.81
1002;2018.44;575.701;1.81
1003;2035.83;611.347;1.81
1004;2035.83;569.842;1.81
1005;2013.55;573.748;1.81
1006;1974.19;573.748;1.81
1007;1959.23;591.571;1.81
1008;1983.95;569.842;1.81
1009;1996.16;577.654;1.81
1010;1998.91;555.925;1.81
1011;1986.39;595.477;1.81
1012;1951.91;583.514;1.81
1013;1912.23;550.066;1.81
1014;1927.19;599.384;1.82
1015;1971.74;589.618;1.82
1016;1986.39;585.467;1.82
1017;1996.16;571.795;1.82
1018;1983.95;595.477;1.82
1019;1956.79;579.608;1.82
1020;1939.39;607.196;1.82
1021;1981.51;585.467;1.82
1022;2018.44;567.888;1.82
1023;2033.39;601.337;1.82
1024;2038.27;587.42;1.82
1025;2016;557.878;1.82
1026;1976.63;579.608;1.82
1027;1959.23;587.42;1.82
1028;1983.95;589.618;1.82
1029;1998.91;577.654;1.82
1030;1996.16;557.878;1.83
1031;1986.39;583.514;1.83
1032;1949.47;591.571;1.83
1033;1909.79;557.878;1.83
1034;1924.75;579.608;1.83
1035;1971.74;605.243;1.83
1036;1988.83;581.561;1.83
1037;1996.16;571.795;1.83
1038;1988.83;577.654;1.83
1039;1964.11;583.514;1.83
1040;1944.58;601.337;1.83
1041;1983.95;583.514;1.83
1042;2018.44;571.795;1.83
1043;2035.83;607.196;1.83
1044;2035.83;581.561;1.83
1045;2011.11;561.785;1.83
1046;1974.19;577.654;1.83
1047;1959.23;591.571;1.84
1048;1981.51;585.467;1.84
1049;1998.91;579.608;1.84
1050;2003.79;553.972;1.84
1051;1991.28;589.618;1.84
1052;1951.91;589.618;1.84
1053;1914.67;552.019;1.84
1054;1929.63;585.467;1.84
1055;1969;599.384;1.84
1056;1986.39;583.514;1.84
1057;1993.72;571.795;1.84
1058;1988.83;583.514;1.84
1059;1959.23;585.467;1.84
1060;1944.58;607.196;1.84
1061;1979.07;577.654;1.84
1062;2020.88;573.748;1.84
1063;2035.83;611.347;1.84
1064;2040.72;571.795;1.84
1065;2016;567.888;1.85
1066;1979.07;575.701;1.85
1067;1959.23;589.618;1.85
1068;1981.51;577.654;1.85
1069;1996.16;577.654;1.85
1070;2001.35;553.972;1.85
1071;1988.83;589.618;1.85
1072;1954.35;587.42;1.85
1073;1914.67;550.066;1.85
1074;1929.63;591.571;1.85
1075;1969;593.524;1.85
1076;1986.39;585.467;1.85
1077;1996.16;573.748;1.85
1078;1986.39;589.618;1.85
1079;1959.23;581.561;1.85
1080;1941.84;607.196;1.85
1081;1981.51;571.795;1.86
1082;2020.88;573.748;1.86
1083;2038.27;613.3;1.86
1084;2040.72;567.888;1.86
1085;2020.88;571.795;1.86
1086;1981.51;573.748;1.86
1087;1961.67;591.571;1.86
1088;1986.39;571.795;1.86
1089;1996.16;575.701;1.86
1090;2001.35;553.972;1.86
1091;1988.83;585.467;1.86
1092;1954.35;589.618;1.86
1093;1914.67;553.972;1.86
1094;1924.75;585.467;1.86
1095;1971.74;601.337;1.86
1096;1986.39;585.467;1.86
1097;1996.16;571.795;1.86
1098;1986.39;583.514;1.87
1099;1959.23;583.514;1.87
1100;1939.39;607.196;1.87
1101;1979.07;577.654;1.87
1102;2018.44;571.795;1.87
1103;2035.83;609.149;1.87
1104;2040.72;573.748;1.87
1105;2018.44;567.888;1.87
1106;1981.51;573.748;1.87
1107;1964.11;591.571;1.87
1108;1986.39;579.608;1.87
1109;2001.35;577.654;1.87
1110;2001.35;553.972;1.87
1111;1991.28;589.618;1.87
1112;1954.35;587.42;1.87
1113;1914.67;548.112;1.87
1114;1929.63;589.618;1.87
1115;1971.74;593.524;1.88
1116;1993.72;585.467;1.88
1117;2001.35;571.795;1.88
1118;1993.72;589.618;1.88
1119;1966.56;581.561;1.88
1120;1947.02;605.243;1.88
1121;1983.95;573.748;1.88
1122;2023.32;577.654;1.88
1123;2038.27;611.347;1.88
1124;2043.16;569.842;1.88
1125;2023.32;569.842;1.88
1126;1986.39;579.608;1.88
1127;1966.56;583.514;1.88
1128;1991.28;589.618;1.88
1129;2003.79;575.701;1.88
1130;2006.23;563.738;1.88
1131;1996.16;575.701;1.89
1132;1956.79;595.477;1.89
1133;1919.86;563.738;1.89
1134;1929.63;571.795;1.89
1135;1976.63;611.347;1.89
1136;1993.72;579.608;1.89
1137;2003.79;573.748;1.89
1138;1996.16;571.795;1.89
1139;1966.56;585.467;1.89
1140;1947.02;599.384;1.89
1141;1988.83;585.467;1.89
1142;2023.32;563.738;1.89
1143;2043.16;599.384;1.89
1144;2045.6;585.467;1.89
1145;2023.32;555.925;1.89
1146;1986.39;577.654;1.89
1147;1964.11;587.42;1.89
1148;1986.39;589.618;1.9
1149;2006.23;575.701;1.9
1150;2006.23;559.832;1.9
1151;1996.16;579.608;1.9
1152;1959.23;593.524;1.9
1153;1919.86;559.832;1.9
1154;1932.07;577.654;1.9
1155;1976.63;605.243;1.9
1156;1993.72;579.608;1.9
1157;2003.79;571.795;1.9
1158;1993.72;571.795;1.9
1159;1969;583.514;1.9
1160;1949.47;599.384;1.9
1161;1986.39;583.514;1.9
1162;2023.32;569.842;1.9
1163;2043.16;605.243;1.9
1164;2045.6;583.514;1.91
1165;2028.51;559.832;1.91
1166;1988.83;575.701;1.91
1167;1966.56;587.42;1.91
1168;1993.72;587.42;1.91
1169;2008.67;575.701;1.91
1170;2011.11;555.925;1.91
1171;2001.35;583.514;1.91
1172;1964.11;591.571;1.91
1173;1927.19;557.878;1.91
1174;1936.95;581.561;1.91
1175;1979.07;599.384;1.91
1176;1996.16;583.514;1.91
1177;2001.35;571.795;1.91
1178;1996.16;579.608;1.91
1179;1971.74;583.514;1.91
1180;1949.47;605.243;1.92
1181;1988.83;577.654;1.92
1182;2026.07;573.748;1.92
1183;2043.16;607.196;1.92
1184;2048.04;573.748;1.92
1185;2028.51;565.935;1.92
1186;1988.83;575.701;1.92
1187;1969;589.618;1.92
1188;1991.28;579.608;1.92
1189;2006.23;575.701;1.92
1190;2008.67;553.972;1.92
1191;2001.35;589.618;1.92
1192;1964.11;587.42;1.92
1193;1927.19;552.019;1.92
1194;1932.07;589.618;1.92
1195;1981.51;619.16;1.92
1196;2001.35;579.608;1.93
1197;2006.23;575.701;1.93
1198;2001.35;573.748;1.93
1199;1974.19;585.467;1.93
1200;1951.91;591.571;1.93
1201;1988.83;595.477;1.93
1202;2028.51;559.832;1.93
1203;2043.16;591.571;1.93
1204;2050.48;593.524;1.93
1205;2028.51;548.112;1.93
1206;1988.83;577.654;1.93
1207;1969;583.514;1.93
1208;1991.28;587.42;1.93
1209;2008.67;573.748;1.93
1210;2011.11;565.935;1.93
1211;2001.35;575.701;1.93
1212;1966.56;597.43;1.94
1213;1927.19;567.888;1.94
1214;1934.51;567.888;1.94
1215;1976.63;611.347;1.94
1216;1996.16;581.561;1.94
1217;2006.23;571.795;1.94
1218;1998.91;571.795;1.94
1219;1974.19;583.514;1.94
1220;1956.79;597.43;1.94
1221;1988.83;589.618;1.94
1222;2028.51;567.888;1.94
1223;2048.04;599.384;1.94
1224;2053.23;589.618;1.94
1225;2033.39;553.972;1.94
1226;1996.16;575.701;1.94
1227;1971.74;587.42;1.95
1228;1996.16;589.618;1.95
1229;2013.55;575.701;1.95
1230;2013.55;561.785;1.95
1231;2006.23;579.608;1.95
1232;1971.74;593.524;1.95
1233;1932.07;559.832;1.95
1234;1939.39;575.701;1.95
1235;1981.51;609.149;1.95
1236;1998.91;579.608;1.95
1237;2011.11;569.842;1.95
1238;2003.79;571.795;1.95
1239;1979.07;583.514;1.95
1240;1954.35;599.384;1.95
1241;1991.28;585.467;1.95
1242;2028.51;565.935;1.96
1243;2050.48;603.29;1.96
1244;2055.67;581.561;1.96
1245;2035.83;559.832;1.96
1246;1998.91;575.701;1.96
1247;1976.63;589.618;1.96
1248;2001.35;589.618;1.96
1249;2011.11;573.748;1.96
1250;2018.44;557.878;1.96
1251;2008.67;583.514;1.96
1252;1974.19;591.571;1.96
1253;1932.07;555.925;1.96
1254;1941.84;583.514;1.96
1255;1986.39;601.337;1.96
1256;1998.91;581.561;1.96
1257;2011.11;567.888;1.96
1258;2013.55;575.701;1.97
1259;1993.72;583.514;1.97
1260;1961.67;601.337;1.97
1261;1974.19;577.654;1.97
1262;2023.32;571.795;1.97
1263;2045.6;609.149;1.97
1264;2058.11;589.618;1.97
1265;2048.04;552.019;1.97
1266;2016;579.608;1.97
1267;1981.51;585.467;1.97
1268;1988.83;587.42;1.97
1269;2011.11;575.701;1.97
1270;2016;559.832;1.97
1271;2013.55;577.654;1.97
1272;1988.83;595.477;1.97
1273;1947.02;559.832;1.98
1274;1924.75;575.701;1.98
1275;1966.56;605.243;1.98
1276;1998.91;579.608;1.98
1277;2011.11;569.842;1.98
1278;2008.67;571.795;1.98
1279;1991.28;581.561;1.98
1280;1961.67;599.384;1.98
1281;1971.74;583.514;1.98
1282;2018.44;567.888;1.98
1283;2043.16;601.337;1.98
1284;2053.23;583.514;1.98
1285;2043.16;557.878;1.98
1286;2011.11;575.701;1.98
1287;1976.63;589.618;1.98
1288;1983.95;587.42;1.98
1289;2011.11;573.748;1.99
1290;2018.44;557.878;1.99
1291;2018.44;585.467;1.99
1292;1991.28;591.571;1.99
1293;1947.02;552.019;1.99
1294;1929.63;581.561;1.99
1295;1969;599.384;1.99
1296;1998.91;581.561;1.99
1297;2011.11;569.842;1.99
1298;2011.11;577.654;1.99
1299;1993.72;585.467;1.99
1300;1964.11;585.467;1.99
1301;1974.19;595.477;1.99
1302;2026.07;555.925;1.99
1303;2048.04;585.467;1.99
1304;2058.11;597.43;2
1305;2050.48;542.009;2
1306;2018.44;577.654;2
1307;1979.07;577.654;2
1308;1991.28;589.618;2
1309;2013.55;571.795;2
1310;2023.32;569.842;2
1311;2023.32;565.935;2
1312;1993.72;603.29;2
1313;1954.35;575.701;2
1314;1932.07;561.785;2
1315;1976.63;615.253;2
1316;2003.79;579.608;2
1317;2016;575.701;2
1318;2018.44;569.842;2
1319;1998.91;585.467;2.01
1320;1969;589.618;2.01
1321;1979.07;593.524;2.01
1322;2028.51;557.878;2.01
1323;2050.48;589.618;2.01
1324;2065.44;595.477;2.01
1325;2055.67;550.066;2.01
1326;2023.32;577.654;2.01
1327;1988.83;583.514;2.01
1328;1996.16;587.42;2.01
1329;2020.88;573.748;2.01
1330;2028.51;567.888;2.01
1331;2026.07;571.795;2.01
1332;2001.35;599.384;2.01
1333;1959.23;565.935;2.01
1334;1939.39;567.888;2.01
1335;1979.07;611.347;2.02
1336;2008.67;579.608;2.02
1337;2020.88;573.748;2.02
1338;2026.07;573.748;2.02
1339;2001.35;583.514;2.02
1340;1974.19;593.524;2.02
1341;1981.51;587.42;2.02
1342;2033.39;561.785;2.02
1343;2058.11;595.477;2.02
1344;2067.88;585.467;2.02
1345;2058.11;552.019;2.02
1346;2026.07;577.654;2.02
1347;1988.83;583.514;2.02
1348;1998.91;589.618;2.02
1349;2023.32;573.748;2.02
1350;2028.51;557.878;2.03
1351;2026.07;575.701;2.03
1352;2003.79;595.477;2.03
1353;1959.23;561.785;2.03
1354;1939.39;571.795;2.03
1355;1979.07;605.243;2.03
1356;2006.23;577.654;2.03
1357;2023.32;571.795;2.03
1358;2023.32;573.748;2.03
1359;2003.79;581.561;2.03
1360;1974.19;599.384;2.03
1361;1983.95;581.561;2.03
1362;2035.83;565.935;2.03
1363;2060.55;601.337;2.03
1364;2070.32;579.608;2.03
1365;2065.44;555.925;2.04
1366;2028.51;577.654;2.04
1367;1993.72;587.42;2.04
1368;2001.35;589.618;2.04
1369;2023.32;569.842;2.04
1370;2030.95;571.795;2.04
1371;2030.95;561.785;2.04
1372;2003.79;605.243;2.04
1373;1964.11;577.654;2.04
1374;1941.84;553.972;2.04
1375;1983.95;619.16;2.04
1376;2016;581.561;2.04
1377;2028.51;577.654;2.04
1378;2030.95;569.842;2.04
1379;2013.55;585.467;2.04
1380;1981.51;583.514;2.05
1381;1986.39;599.384;2.05
1382;2038.27;555.925;2.05
1383;2067.88;581.561;2.05
1384;2077.64;601.337;2.05
1385;2070.32;542.009;2.05
1386;2038.27;577.654;2.05
1387;2003.79;579.608;2.05
1388;2006.23;589.618;2.05
1389;2033.39;571.795;2.05
1390;2035.83;569.842;2.05
1391;2033.39;565.935;2.05
1392;2011.11;603.29;2.05
1393;1969;569.842;2.05
1394;1949.47;559.832;2.05
1395;1988.83;617.206;2.05
1396;2020.88;577.654;2.06
1397;2035.83;575.701;2.06
1398;2038.27;571.795;2.06
1399;2020.88;585.467;2.06
1400;1986.39;587.42;2.06
1401;1996.16;591.571;2.06
1402;2043.16;557.878;2.06
1403;2070.32;587.42;2.06
1404;2080.39;593.524;2.06
1405;2075.2;546.159;2.06
1406;2043.16;575.701;2.06
1407;2006.23;581.561;2.06
1408;2011.11;587.42;2.06
1409;2035.83;571.795;2.06
1410;2040.72;561.785;2.06
1411;2040.72;569.842;2.07
1412;2018.44;595.477;2.07
1413;1976.63;565.935;2.07
1414;1951.91;565.935;2.07
1415;1993.72;613.3;2.07
1416;2023.32;577.654;2.07
1417;2038.27;571.795;2.07
1418;2040.72;569.842;2.07
1419;2018.44;581.561;2.07
1420;1993.72;593.524;2.07
1421;1998.91;587.42;2.07
1422;2048.04;561.785;2.07
1423;2075.2;593.524;2.07
1424;2087.71;589.618;2.07
1425;2080.39;548.112;2.07
1426;2048.04;579.608;2.07
1427;2013.55;583.514;2.08
1428;2020.88;587.42;2.08
1429;2045.6;571.795;2.08
1430;2053.23;557.878;2.08
1431;2050.48;575.701;2.08
1432;2028.51;595.477;2.08
1433;1983.95;559.832;2.08
1434;1961.67;569.842;2.08
1435;2001.35;609.149;2.08
1436;2033.39;579.608;2.08
1437;2048.04;573.748;2.08
1438;2048.04;569.842;2.08
1439;2033.39;585.467;2.08
1440;1998.91;585.467;2.08
1441;2003.79;593.524;2.08
1442;2053.23;557.878;2.09
1443;2080.39;585.467;2.09
1444;2092.6;595.477;2.09
1445;2082.83;544.206;2.09
1446;2053.23;577.654;2.09
1447;2013.55;581.561;2.09
1448;2018.44;587.42;2.09
1449;2045.6;571.795;2.09
1450;2055.67;565.935;2.09
1451;2050.48;569.842;2.09
1452;2026.07;597.43;2.09
1453;1983.95;563.738;2.09
1454;1959.23;565.935;2.09
1455;2003.79;611.347;2.09
1456;2033.39;577.654;2.09
1457;2050.48;571.795;2.09
1458;2050.48;569.842;2.1
1459;2033.39;583.514;2.1
1460;2001.35;593.524;2.1
1461;2006.23;589.618;2.1
1462;2055.67;559.832;2.1
1463;2082.83;593.524;2.1
1464;2095.04;589.618;2.1
1465;2090.16;548.112;2.1
1466;2058.11;577.654;2.1
1467;2020.88;585.467;2.1
1468;2023.32;587.42;2.1
1469;2050.48;571.795;2.1
1470;2060.55;559.832;2.1
1471;2058.11;555.925;2.1
1472;2035.83;603.29;2.1
1473;1991.28;579.608;2.11
1474;1969;548.112;2.11
1475;2003.79;611.347;2.11
1476;2038.27;579.608;2.11
1477;2053.23;583.514;2.11
1478;2055.67;565.935;2.11
1479;2035.83;589.618;2.11
1480;2003.79;579.608;2.11
1481;2011.11;599.384;2.11
1482;2062.99;552.019;2.11
1483;2092.6;579.608;2.11
1484;2107.55;603.29;2.11
1485;2097.48;542.009;2.11
1486;2062.99;575.701;2.11
1487;2026.07;573.748;2.11
1488;2033.39;587.42;2.12
1489;2060.55;567.888;2.12
1490;2067.88;573.748;2.12
1491;2067.88;557.878;2.12
1492;2045.6;603.29;2.12
1493;2001.35;577.654;2.12
1494;1976.63;550.066;2.12
1495;2016;617.206;2.12
1496;2048.04;579.608;2.12
1497;2062.99;577.654;2.12
1498;2062.99;569.842;2.12
1499;2045.6;587.42;2.12
1500;2011.11;579.608;2.12
1501;2020.88;595.477;2.12
1502;2070.32;553.972;2.13
1503;2095.04;579.608;2.13
1504;2109.99;597.43;2.13
1505;2099.92;538.102;2.13
1506;2067.88;573.748;2.13
1507;2030.95;577.654;2.13
1508;2033.39;587.42;2.13
1509;2060.55;571.795;2.13
1510;2067.88;569.842;2.13
1511;2065.44;563.738;2.13
1512;2043.16;601.337;2.13
1513;2003.79;571.795;2.13
1514;1974.19;557.878;2.13
1515;2018.44;619.16;2.13
1516;2055.67;577.654;2.14
1517;2070.32;573.748;2.14
1518;2070.32;567.888;2.14
1519;2053.23;585.467;2.14
1520;2020.88;585.467;2.14
1521;2023.32;593.524;2.14
1522;2075.2;553.972;2.14
1523;2099.92;585.467;2.14
1524;2114.88;593.524;2.14
1525;2109.99;542.009;2.14
1526;2075.2;575.701;2.14
1527;2038.27;579.608;2.14
1528;2043.16;583.514;2.14
1529;2067.88;569.842;2.14
1530;2075.2;561.785;2.15
1531;2072.76;569.842;2.15
1532;2050.48;597.43;2.15
1533;2006.23;565.935;2.15
1534;1983.95;563.738;2.15
1535;2023.32;613.3;2.15
1536;2058.11;575.701;2.15
1537;2072.76;571.795;2.15
1538;2072.76;569.842;2.15
1539;2058.11;581.561;2.15
1540;2023.32;573.748;2.15
1541;2026.07;599.384;2.15
1542;2077.64;555.925;2.15
1543;2104.8;573.748;2.16
1544;2117.32;605.243;2.16
1545;2112.43;550.066;2.16
1546;2080.39;575.701;2.16
1547;2043.16;569.842;2.16
1548;2043.16;587.42;2.16
1549;2072.76;563.738;2.16
1550;2080.39;575.701;2.16
1551;2080.39;555.925;2.16
1552;2058.11;605.243;2.16
1553;2013.55;579.608;2.16
1554;1988.83;550.066;2.16
1555;2028.51;609.149;2.16
1556;2062.99;577.654;2.16
1557;2077.64;579.608;2.17
1558;2080.39;567.888;2.17
1559;2062.99;587.42;2.17
1560;2030.95;575.701;2.17
1561;2033.39;599.384;2.17
1562;2080.39;552.019;2.17
1563;2107.55;573.748;2.17
1564;2119.76;603.29;2.17
1565;2112.43;544.206;2.17
1566;2080.39;571.795;2.17
1567;2043.16;569.842;2.17
1568;2045.6;585.467;2.17
1569;2072.76;567.888;2.17
1570;2080.39;569.842;2.18
1571;2080.39;557.878;2.18
1572;2055.67;605.243;2.18
1573;2013.55;575.701;2.18
1574;1986.39;552.019;2.18
1575;2026.07;611.347;2.18
1576;2060.55;577.654;2.18
1577;2070.32;577.654;2.18
1578;2077.64;567.888;2.18
1579;2058.11;585.467;2.18
1580;2026.07;577.654;2.18
1581;2026.07;597.43;2.18
1582;2080.39;552.019;2.18
1583;2109.99;577.654;2.19
1584;2119.76;599.384;2.19
1585;2114.88;538.102;2.19
1586;2080.39;573.748;2.19
1587;2043.16;575.701;2.19
1588;2048.04;585.467;2.19
1589;2075.2;567.888;2.19
1590;2082.83;567.888;2.19
1591;2082.83;561.785;2.19
1592;2060.55;601.337;2.19
1593;2016;569.842;2.19
1594;1991.28;557.878;2.19
1595;2028.51;619.16;2.19
1596;2062.99;575.701;2.2
1597;2077.64;573.748;2.2
1598;2082.83;567.888;2.2
1599;2065.44;583.514;2.2
1600;2033.39;585.467;2.2
1601;2033.39;589.618;2.2
1602;2085.27;553.972;2.2
1603;2117.32;585.467;2.2
1604;2131.97;593.524;2.2
1605;2124.64;538.102;2.2
1606;2090.16;575.701;2.2
1607;2053.23;579.608;2.2
1608;2055.67;585.467;2.21
1609;2082.83;563.738;2.21
1610;2090.16;571.795;2.21
1611;2090.16;555.925;2.21
1612;2067.88;603.29;2.21
1613;2023.32;575.701;2.21
1614;1998.91;552.019;2.21
1615;2035.83;613.3;2.21
1616;2070.32;577.654;2.21
1617;2085.27;575.701;2.21
1618;2087.71;569.842;2.21
1619;2070.32;585.467;2.21
1620;2038.27;575.701;2.21
1621;2038.27;595.477;2.22
1622;2090.16;548.112;2.22
1623;2119.76;575.701;2.22
1624;2131.97;597.43;2.22
1625;2127.08;536.149;2.22
1626;2095.04;571.795;2.22
1627;2055.67;573.748;2.22
1628;2058.11;585.467;2.22
1629;2085.27;565.935;2.22
1630;2092.6;569.842;2.22
1631;2095.04;561.785;2.22
1632;2072.76;601.337;2.22
1633;2030.95;569.842;2.22
1634;2003.79;553.972;2.23
1635;2040.72;617.206;2.23
1636;2075.2;575.701;2.23
1637;2092.6;571.795;2.23
1638;2095.04;563.738;2.23
1639;2077.64;581.561;2.23
1640;2043.16;583.514;2.23
1641;2048.04;591.571;2.23
1642;2097.48;552.019;2.23
1643;2127.08;569.842;2.23
1644;2139.6;607.196;2.23
1645;2131.97;553.972;2.23
1646;2102.36;569.842;2.24
1647;2065.44;569.842;2.24
1648;2065.44;585.467;2.24
1649;2092.6;563.738;2.24
1650;2102.36;573.748;2.24
1651;2099.92;548.112;2.24
1652;2080.39;595.477;2.24
1653;2033.39;579.608;2.24
1654;2008.67;540.056;2.24
1655;2048.04;601.337;2.24
1656;2080.39;581.561;2.24
1657;2095.04;579.608;2.24
1658;2099.92;561.785;2.25
1659;2082.83;589.618;2.25
1660;2050.48;573.748;2.25
1661;2053.23;601.337;2.25
1662;2099.92;553.972;2.25
1663;2129.52;569.842;2.25
1664;2142.04;607.196;2.25
1665;2134.71;548.112;2.25
1666;2104.8;569.842;2.25
1667;2067.88;567.888;2.25
1668;2065.44;583.514;2.25
1669;2095.04;563.738;2.25
