<WeldAnalyseData xmlns:i="http:www.w3.org/2001/XMLSchema-instance">
<WeldParameter>
<TimeStamp>DT#2024-01-25-14:01:18</TimeStamp>
<Generator>SG-22-10000</Generator>
<GenFreq>20</GenFreq>
<MaxForce>8000</MaxForce>
<MaxPower>10000</MaxPower>
<RunupPressure>1.5</RunupPressure>
<RunupDist>10</RunupDist>
<RunPress>0.8</RunPress>
<ShakeDelay>0.03</ShakeDelay>
<ShakeTime>0.3</ShakeTime>
<RunBackPress1>6</RunBackPress1>
<RunBackPress2>2</RunBackPress2>
<RunBackDist>1</RunBackDist>
<TrigValue>500</TrigValue>
<TrigModeUnit>W</TrigModeUnit>
<WeldModeUnit>Ws</WeldModeUnit>
<PressNr>0</PressNr>
<MaxLoss>1500</MaxLoss>
</WeldParameter>
<WeldSets>
<WeldSet>
<PressRiseTime>0</PressRiseTime>
<RunPressure>1</RunPressure>
<Amplitude>86</Amplitude>
<WeldMode>3270</WeldMode>
</WeldSet>
</WeldSets>
<WeldValue>
<WeldNr>3012</WeldNr>
<RecipeName>RickStyle</RecipeName>
<WeldTime>1671</WeldTime>
<DistDiff>2.52</DistDiff>
<DistAbs>78.23</DistAbs>
<Energy>3270.85</Energy>
<MaxPower>2179.14</MaxPower>
<CycleTime>6130</CycleTime>
<TrigForce>502.701</TrigForce>
<TrigDist>75.71</TrigDist>
<RunSpeed>67.5982</RunSpeed>
<MaxForce>625.019</MaxForce>
<LossPower>319.414</LossPower>
</WeldValue>
</WeldAnalyseData>
#CSV-START#
ms;Power[W];Force[N];Distance[mm]
1;0;0;0
2;0;504.654;0
3;0;504.654;0
4;0;504.654;0.0100021
5;0;506.607;0.0100021
6;0;506.607;0.0100021
7;0;504.654;0.0100021
8;0;475.112;0.0100021
9;0;435.56;0.0200043
10;0;411.878;0.0400009
11;0;386.242;0.0699997
12;33.3796;366.466;0.0999985
13;95.3322;354.503;0.139999
14;171.934;346.69;0.169998
15;240.905;323.008;0.209999
16;300.111;309.091;0.239998
17;364.505;336.68;0.290001
18;426.153;317.148;0.330002
19;492.683;321.055;0.360001
20;554.636;312.998;0.400002
21;613.842;330.821;0.440002
22;673.048;330.821;0.470001
23;744.766;346.69;0.489998
24;828.692;326.914;0.520004
25;897.664;348.643;0.540001
26;956.87;368.419;0.559998
27;1006.31;336.68;0.580002
28;1040.8;370.373;0.590004
29;1070.4;378.185;0.610001
30;1119.84;394.055;0.620003
31;1169.28;394.055;0.629997
32;1206.21;394.055;0.629997
33;1236.11;396.008;0.639999
34;1253.2;417.737;0.650002
35;1258.09;399.915;0.660004
36;1280.37;392.102;0.669998
37;1334.69;435.56;0.669998
38;1376.8;409.925;0.68
39;1413.73;409.925;0.690002
40;1445.78;407.971;0.700005
41;1458.29;419.691;0.709999
42;1468.05;427.503;0.709999
43;1504.98;429.456;0.720001
44;1562.05;407.971;0.730003
45;1603.86;431.654;0.730003
46;1633.47;433.607;0.739998
47;1645.98;401.868;0.75
48;1640.79;429.456;0.760002
49;1633.47;437.513;0.760002
50;1667.95;439.467;0.770004
51;1705.18;427.503;0.779999
52;1732.34;421.644;0.790001
53;1749.44;435.56;0.790001
54;1739.67;451.186;0.800003
55;1717.39;423.597;0.809998
56;1724.72;441.42;0.82
57;1781.79;470.962;0.82
58;1818.71;449.232;0.830002
59;1843.43;443.373;0.840004
60;1855.64;447.279;0.840004
61;1850.76;457.289;0.849998
62;1836.11;477.065;0.849998
63;1865.71;463.149;0.860001
64;1924.92;449.232;0.870003
65;1959.4;484.878;0.870003
66;1979.24;465.102;0.879997
67;1979.24;447.279;0.879997
68;1954.52;467.055;0.889999
69;1932.24;480.972;0.889999
70;1954.52;480.972;0.900002
71;1984.12;470.962;0.900002
72;2003.96;451.186;0.910004
73;2006.4;482.925;0.910004
74;1984.12;490.738;0.919998
75;1944.75;451.186;0.919998
76;1942.01;486.831;0.919998
77;1993.89;502.701;0.93
78;2026.24;484.878;0.93
79;2045.77;484.878;0.940002
80;2045.77;477.065;0.940002
81;2028.68;494.644;0.950005
82;2006.4;494.644;0.950005
83;2031.12;506.607;0.950005
84;2087.89;469.008;0.959999
85;2115.05;498.795;0.959999
86;2132.14;512.467;0.970001
87;2119.93;459.243;0.970001
88;2085.44;492.691;0.980003
89;2055.84;498.795;0.980003
90;2077.81;506.607;0.980003
91;2104.98;494.644;0.989998
92;2112.61;490.738;0.989998
93;2115.05;490.738;1
94;2083;522.477;1
95;2038.45;496.597;1
96;2031.12;488.784;1.01
97;2077.81;542.009;1.01
98;2107.72;506.607;1.01
99;2119.93;502.701;1.02
100;2117.49;502.701;1.02
101;2095.21;514.42;1.02
102;2068.05;522.477;1.03
103;2090.33;520.524;1.03
104;2142.21;492.691;1.03
105;2166.93;524.43;1.04
106;2179.14;520.524;1.04
107;2166.93;480.972;1.04
108;2124.81;512.467;1.05
109;2090.33;520.524;1.05
110;2107.72;520.524;1.05
111;2134.88;510.514;1.06
112;2139.77;496.597;1.06
113;2139.77;508.56;1.06
114;2104.98;530.29;1.07
115;2055.84;500.748;1.07
116;2045.77;506.607;1.07
117;2087.89;550.066;1.08
118;2115.05;518.326;1.08
119;2124.81;512.467;1.08
120;2119.93;512.467;1.08
121;2092.77;524.43;1.09
122;2060.72;540.056;1.09
123;2083;526.383;1.09
124;2132.14;508.56;1.1
125;2154.42;546.159;1.1
126;2166.93;524.43;1.1
127;2149.53;500.748;1.1
128;2107.72;524.43;1.11
129;2075.37;532.243;1.11
130;2090.33;532.243;1.11
131;2115.05;522.477;1.11
132;2119.93;502.701;1.12
133;2112.61;528.336;1.12
134;2080.56;536.149;1.12
135;2031.12;502.701;1.12
136;2021.05;526.383;1.13
137;2068.05;550.066;1.13
138;2092.77;530.29;1.13
139;2102.53;516.373;1.13
140;2097.65;522.477;1.14
141;2072.93;534.196;1.14
142;2040.89;542.009;1.14
143;2063.17;538.102;1.14
144;2112.61;510.514;1.15
145;2132.14;546.159;1.15
146;2144.65;540.056;1.15
147;2124.81;500.748;1.15
148;2087.89;530.29;1.15
149;2058.28;536.149;1.16
150;2070.49;540.056;1.16
151;2095.21;526.383;1.16
152;2097.65;512.467;1.16
153;2092.77;528.336;1.16
154;2063.17;546.159;1.17
155;2013.73;514.42;1.17
156;2003.96;526.383;1.17
157;2048.21;561.785;1.17
158;2072.93;532.243;1.17
159;2080.56;524.43;1.18
160;2075.37;528.336;1.18
161;2050.65;538.102;1.18
162;2018.61;555.925;1.18
163;2043.33;542.009;1.18
164;2087.89;522.477;1.19
165;2107.72;559.832;1.19
166;2117.49;536.149;1.19
167;2102.53;514.42;1.19
168;2063.17;534.196;1.19
169;2031.12;548.112;1.2
170;2048.21;544.206;1.2
171;2070.49;534.196;1.2
172;2070.49;534.196;1.2
173;2065.61;522.477;1.2
174;2036;565.935;1.2
175;1989.01;540.056;1.21
176;1979.24;516.373;1.21
177;2018.61;579.608;1.21
178;2043.33;540.056;1.21
179;2055.84;540.056;1.21
180;2050.65;532.243;1.22
181;2023.49;550.066;1.22
182;1991.45;548.112;1.22
183;2016.17;557.878;1.22
184;2063.17;518.326;1.22
185;2083;548.112;1.22
186;2092.77;561.785;1.23
187;2075.37;508.56;1.23
188;2038.45;542.009;1.23
189;2003.96;544.206;1.23
190;2021.05;550.066;1.23
191;2040.89;534.196;1.24
192;2048.21;532.243;1.24
193;2040.89;532.243;1.24
194;2006.4;565.935;1.24
195;1964.29;536.149;1.24
196;1954.52;524.43;1.24
197;1999.08;583.514;1.25
198;2021.05;544.206;1.25
199;2031.12;540.056;1.25
200;2028.68;536.149;1.25
201;2001.52;552.019;1.25
202;1971.92;555.925;1.25
203;1993.89;559.832;1.26
204;2040.89;524.43;1.26
205;2060.72;555.925;1.26
206;2070.49;561.785;1.26
207;2055.84;514.42;1.26
208;2016.17;546.159;1.26
209;1984.12;550.066;1.26
210;2003.96;557.878;1.27
211;2023.49;544.206;1.27
212;2026.24;532.243;1.27
213;2018.61;542.009;1.27
214;1986.56;565.935;1.27
215;1942.01;536.149;1.27
216;1934.68;540.056;1.28
217;1979.24;583.514;1.28
218;2001.52;548.112;1.28
219;2011.28;542.009;1.28
220;2008.84;544.206;1.28
221;1984.12;553.972;1.28
222;1952.08;565.935;1.29
223;1979.24;557.878;1.29
224;2023.49;538.102;1.29
225;2043.33;569.842;1.29
226;2053.4;557.878;1.29
227;2036;526.383;1.29
228;1999.08;550.066;1.29
229;1971.92;557.878;1.3
230;1986.56;561.785;1.3
231;2008.84;550.066;1.3
232;2011.28;532.243;1.3
233;2003.96;553.972;1.3
234;1971.92;581.561;1.3
235;1924.92;553.972;1.3
236;1920.03;524.43;1.31
237;1959.4;587.42;1.31
238;1979.24;553.972;1.31
239;1993.89;555.925;1.31
240;1986.56;544.206;1.31
241;1961.84;561.785;1.31
242;1934.68;555.925;1.31
243;1959.4;575.701;1.32
244;2003.96;532.243;1.32
245;2028.68;555.925;1.32
246;2036;579.608;1.32
247;2021.05;520.524;1.32
248;1986.56;552.019;1.32
249;1954.52;553.972;1.32
250;1971.92;565.935;1.33
251;1991.45;546.159;1.33
252;1993.89;552.019;1.33
253;1986.56;542.009;1.33
254;1956.96;581.561;1.33
255;1912.4;555.925;1.33
256;1907.52;536.149;1.33
257;1942.01;601.337;1.34
258;1964.29;559.832;1.34
259;1976.8;557.878;1.34
260;1971.92;552.019;1.34
261;1949.64;569.842;1.34
262;1920.03;567.888;1.34
263;1944.75;575.701;1.34
264;1989.01;542.009;1.34
265;2008.84;569.842;1.35
266;2018.61;579.608;1.35
267;2003.96;530.29;1.35
268;1966.73;561.785;1.35
269;1939.57;563.738;1.35
270;1952.08;571.795;1.35
271;1971.92;555.925;1.35
272;1974.36;552.019;1.35
273;1969.17;552.019;1.36
274;1937.12;583.514;1.36
275;1895.31;555.925;1.36
276;1887.68;550.066;1.36
277;1927.36;599.384;1.36
278;1949.64;565.935;1.36
279;1956.96;561.785;1.36
280;1954.52;561.785;1.37
281;1932.24;573.748;1.37
282;1905.08;579.608;1.37
283;1922.48;575.701;1.37
284;1969.17;548.112;1.37
285;1993.89;583.514;1.37
286;2003.96;577.654;1.37
287;1996.33;540.056;1.37
288;1961.84;567.888;1.37
289;1929.8;573.748;1.38
290;1937.12;577.654;1.38
291;1961.84;565.935;1.38
292;1964.29;553.972;1.38
293;1961.84;565.935;1.38
294;1937.12;585.467;1.38
295;1895.31;552.019;1.38
296;1877.92;561.785;1.38
297;1914.85;609.149;1.39
298;1939.57;569.842;1.39
299;1952.08;569.842;1.39
300;1952.08;563.738;1.39
301;1934.68;577.654;1.39
302;1902.64;581.561;1.39
303;1914.85;587.42;1.39
304;1961.84;550.066;1.39
305;1986.56;579.608;1.39
306;1993.89;589.618;1.4
307;1989.01;540.056;1.4
308;1952.08;571.795;1.4
309;1922.48;577.654;1.4
310;1929.8;583.514;1.4
311;1952.08;567.888;1.4
312;1956.96;563.738;1.4
313;1954.52;565.935;1.4
314;1932.24;595.477;1.41
315;1887.68;561.785;1.41
316;1870.59;563.738;1.41
317;1909.96;611.347;1.41
318;1934.68;575.701;1.41
319;1947.2;569.842;1.41
320;1949.64;569.842;1.41
321;1927.36;579.608;1.41
322;1897.76;591.571;1.41
323;1912.4;585.467;1.42
324;1956.96;561.785;1.42
325;1976.8;593.524;1.42
326;1986.56;585.467;1.42
327;1979.24;552.019;1.42
328;1947.2;573.748;1.42
329;1914.85;571.795;1.42
330;1924.92;591.571;1.42
331;1947.2;569.842;1.42
332;1954.52;575.701;1.42
333;1949.64;557.878;1.43
334;1924.92;605.243;1.43
335;1882.8;579.608;1.43
336;1865.71;550.066;1.43
337;1905.08;611.347;1.43
338;1927.36;577.654;1.43
339;1937.12;581.561;1.43
340;1939.57;567.888;1.43
341;1917.59;587.42;1.43
342;1890.43;579.608;1.44
343;1905.08;597.43;1.44
344;1949.64;553.972;1.44
345;1971.92;579.608;1.44
346;1984.12;605.243;1.44
347;1976.8;546.159;1.44
348;1942.01;577.654;1.44
349;1912.4;577.654;1.44
350;1922.48;589.618;1.44
351;1942.01;571.795;1.44
352;1947.2;575.701;1.45
353;1944.75;563.738;1.45
354;1920.03;605.243;1.45
355;1877.92;575.701;1.45
356;1860.52;557.878;1.45
357;1900.2;621.113;1.45
358;1922.48;581.561;1.45
359;1934.68;579.608;1.45
360;1934.68;571.795;1.45
361;1914.85;587.42;1.45
362;1885.24;585.467;1.46
363;1900.2;597.43;1.46
364;1947.2;559.832;1.46
365;1969.17;589.618;1.46
366;1981.68;599.384;1.46
367;1971.92;548.112;1.46
368;1939.57;579.608;1.46
369;1907.52;579.608;1.46
370;1917.59;591.571;1.46
371;1937.12;575.701;1.46
372;1944.75;569.842;1.47
373;1942.01;569.842;1.47
374;1914.85;601.337;1.47
375;1875.48;573.748;1.47
376;1858.08;565.935;1.47
377;1897.76;617.206;1.47
378;1922.48;581.561;1.47
379;1932.24;577.654;1.47
380;1934.68;573.748;1.47
381;1912.4;585.467;1.47
382;1887.68;593.524;1.47
383;1900.2;593.524;1.48
384;1942.01;561.785;1.48
385;1969.17;595.477;1.48
386;1979.24;593.524;1.48
387;1971.92;555.925;1.48
388;1937.12;581.561;1.48
389;1907.52;583.514;1.48
390;1917.59;589.618;1.48
391;1939.57;569.842;1.48
392;1944.75;579.608;1.48
393;1939.57;561.785;1.48
394;1914.85;607.196;1.49
395;1875.48;585.467;1.49
396;1855.64;553.972;1.49
397;1897.76;613.3;1.49
398;1920.03;585.467;1.49
399;1932.24;585.467;1.49
400;1932.24;573.748;1.49
401;1912.4;593.524;1.49
402;1882.8;583.514;1.49
403;1897.76;603.29;1.49
404;1939.57;553.972;1.49
405;1964.29;581.561;1.5
406;1974.36;611.347;1.5
407;1964.29;548.112;1.5
408;1932.24;579.608;1.5
409;1905.08;577.654;1.5
410;1912.4;593.524;1.5
411;1934.68;571.795;1.5
412;1942.01;577.654;1.5
413;1939.57;561.785;1.5
414;1912.4;609.149;1.5
415;1870.59;581.561;1.5
416;1853.2;557.878;1.51
417;1892.87;621.113;1.51
418;1914.85;583.514;1.51
419;1927.36;581.561;1.51
420;1927.36;573.748;1.51
421;1909.96;589.618;1.51
422;1880.36;585.467;1.51
423;1895.31;599.384;1.51
424;1939.57;557.878;1.51
425;1964.29;585.467;1.51
426;1971.92;605.243;1.51
427;1964.29;548.112;1.51
428;1929.8;581.561;1.52
429;1900.2;581.561;1.52
430;1912.4;593.524;1.52
431;1932.24;577.654;1.52
432;1939.57;575.701;1.52
433;1934.68;569.842;1.52
434;1909.96;607.196;1.52
435;1870.59;577.654;1.52
436;1853.2;561.785;1.52
437;1895.31;621.113;1.52
438;1917.59;583.514;1.52
439;1927.36;579.608;1.53
440;1927.36;575.701;1.53
441;1907.52;589.618;1.53
442;1877.92;591.571;1.53
443;1897.76;595.477;1.53
444;1942.01;561.785;1.53
445;1964.29;593.524;1.53
446;1976.8;597.43;1.53
447;1966.73;552.019;1.53
448;1937.12;579.608;1.53
449;1905.08;585.467;1.53
450;1914.85;591.571;1.53
451;1932.24;577.654;1.54
452;1939.57;571.795;1.54
453;1934.68;575.701;1.54
454;1912.4;609.149;1.54
455;1870.59;583.514;1.54
456;1858.08;559.832;1.54
457;1895.31;625.019;1.54
458;1922.48;585.467;1.54
459;1932.24;583.514;1.54
460;1932.24;575.701;1.54
461;1909.96;591.571;1.54
462;1882.8;587.42;1.54
463;1902.64;601.337;1.54
464;1947.2;559.832;1.55
465;1969.17;587.42;1.55
466;1979.24;603.29;1.55
467;1969.17;550.066;1.55
468;1934.68;581.561;1.55
469;1905.08;583.514;1.55
470;1920.03;591.571;1.55
471;1937.12;577.654;1.55
472;1939.57;573.748;1.55
473;1939.57;571.795;1.55
474;1912.4;607.196;1.55
475;1870.59;573.748;1.55
476;1858.08;567.888;1.56
477;1897.76;619.16;1.56
478;1912.4;587.42;1.56
479;1927.36;579.608;1.56
480;1934.68;577.654;1.56
481;1920.03;589.618;1.56
482;1892.87;593.524;1.56
483;1885.24;595.477;1.56
484;1929.8;565.935;1.56
485;1961.84;579.608;1.56
486;1976.8;617.206;1.56
487;1976.8;559.832;1.56
488;1947.2;581.561;1.57
489;1914.85;575.701;1.57
490;1905.08;595.477;1.57
491;1932.24;573.748;1.57
492;1939.57;579.608;1.57
493;1942.01;559.832;1.57
494;1924.92;611.347;1.57
495;1882.8;585.467;1.57
496;1853.2;555.925;1.57
497;1877.92;613.3;1.57
498;1912.4;589.618;1.57
499;1927.36;589.618;1.57
500;1932.24;573.748;1.58
501;1917.59;597.43;1.58
502;1890.43;585.467;1.58
503;1885.24;607.196;1.58
504;1929.8;557.878;1.58
505;1961.84;583.514;1.58
506;1979.24;611.347;1.58
507;1976.8;552.019;1.58
508;1952.08;581.561;1.58
509;1912.4;581.561;1.58
510;1907.52;593.524;1.58
511;1934.68;575.701;1.58
512;1944.75;583.514;1.58
513;1947.2;567.888;1.59
514;1929.8;613.3;1.59
515;1890.43;587.42;1.59
516;1858.08;557.878;1.59
517;1885.24;625.019;1.59
518;1917.59;585.467;1.59
519;1932.24;585.467;1.59
520;1937.12;575.701;1.59
521;1924.92;593.524;1.59
522;1895.31;587.42;1.59
523;1890.43;603.29;1.59
524;1937.12;559.832;1.59
525;1969.17;587.42;1.6
526;1984.12;607.196;1.6
527;1984.12;550.066;1.6
528;1956.96;585.467;1.6
529;1920.03;585.467;1.6
530;1917.59;595.477;1.6
531;1939.57;577.654;1.6
532;1949.64;577.654;1.6
533;1949.64;573.748;1.6
534;1932.24;609.149;1.6
535;1895.31;583.514;1.6
536;1863.27;563.738;1.6
537;1892.87;623.066;1.61
538;1920.03;587.42;1.61
539;1937.12;581.561;1.61
540;1939.57;579.608;1.61
541;1927.36;591.571;1.61
542;1900.2;593.524;1.61
543;1892.87;599.384;1.61
544;1939.57;565.935;1.61
545;1969.17;593.524;1.61
546;1984.12;601.337;1.61
547;1979.24;561.785;1.61
548;1954.52;577.654;1.61
549;1922.48;577.654;1.61
550;1914.85;595.477;1.62
551;1939.57;575.701;1.62
552;1952.08;583.514;1.62
553;1952.08;561.785;1.62
554;1934.68;611.347;1.62
555;1900.2;589.618;1.62
556;1865.71;555.925;1.62
557;1892.87;611.347;1.62
558;1927.36;589.618;1.62
559;1939.57;591.571;1.62
560;1947.2;573.748;1.62
561;1932.24;599.384;1.62
562;1902.64;585.467;1.63
563;1897.76;613.3;1.63
564;1942.01;561.785;1.63
565;1971.92;583.514;1.63
566;1984.12;615.253;1.63
567;1986.56;557.878;1.63
568;1956.96;583.514;1.63
569;1920.03;579.608;1.63
570;1914.85;595.477;1.63
571;1942.01;575.701;1.63
572;1952.08;583.514;1.63
573;1954.52;565.935;1.63
574;1934.68;615.253;1.63
575;1895.31;589.618;1.64
576;1870.59;555.925;1.64
577;1895.31;621.113;1.64
578;1924.92;587.42;1.64
579;1939.57;589.618;1.64
580;1944.75;575.701;1.64
581;1929.8;595.477;1.64
582;1902.64;589.618;1.64
583;1900.2;609.149;1.64
584;1944.75;557.878;1.64
585;1971.92;585.467;1.64
586;1986.56;611.347;1.64
587;1986.56;552.019;1.64
588;1959.4;585.467;1.65
589;1924.92;583.514;1.65
590;1920.03;595.477;1.65
591;1947.2;579.608;1.65
592;1954.52;581.561;1.65
593;1959.4;567.888;1.65
594;1942.01;611.347;1.65
595;1900.2;585.467;1.65
596;1868.15;563.738;1.65
597;1897.76;625.019;1.65
598;1929.8;585.467;1.65
599;1942.01;585.467;1.65
600;1947.2;577.654;1.65
601;1937.12;593.524;1.66
602;1905.08;593.524;1.66
603;1902.64;603.29;1.66
604;1947.2;561.785;1.66
605;1974.36;591.571;1.66
606;1991.45;607.196;1.66
607;1989.01;550.066;1.66
608;1961.84;583.514;1.66
609;1927.36;587.42;1.66
610;1927.36;597.43;1.66
611;1952.08;577.654;1.66
612;1961.84;581.561;1.66
613;1961.84;567.888;1.66
614;1942.01;615.253;1.66
615;1907.52;585.467;1.67
616;1873.04;557.878;1.67
617;1905.08;621.113;1.67
618;1934.68;587.42;1.67
619;1947.2;589.618;1.67
620;1954.52;575.701;1.67
621;1939.57;595.477;1.67
622;1907.52;587.42;1.67
623;1907.52;607.196;1.67
624;1952.08;559.832;1.67
625;1979.24;587.42;1.67
626;1996.33;611.347;1.67
627;1993.89;550.066;1.67
628;1966.73;581.561;1.68
629;1929.8;583.514;1.68
630;1927.36;595.477;1.68
631;1952.08;579.608;1.68
632;1961.84;577.654;1.68
633;1966.73;571.795;1.68
634;1944.75;609.149;1.68
635;1907.52;581.561;1.68
636;1875.48;563.738;1.68
637;1905.08;625.019;1.68
638;1937.12;585.467;1.68
639;1949.64;583.514;1.68
640;1952.08;577.654;1.68
641;1939.57;591.571;1.68
642;1909.96;587.42;1.69
643;1909.96;615.253;1.69
644;1956.96;569.842;1.69
645;1986.56;579.608;1.69
646;2001.52;621.113;1.69
647;1999.08;561.785;1.69
648;1974.36;583.514;1.69
649;1934.68;577.654;1.69
650;1932.24;597.43;1.69
651;1959.4;573.748;1.69
652;1966.73;585.467;1.69
653;1964.29;559.832;1.69
654;1949.64;609.149;1.69
655;1907.52;591.571;1.69
656;1877.92;550.066;1.7
657;1909.96;613.3;1.7
658;1939.57;591.571;1.7
659;1954.52;591.571;1.7
660;1956.96;573.748;1.7
661;1944.75;599.384;1.7
662;1914.85;585.467;1.7
663;1912.4;611.347;1.7
664;1959.4;559.832;1.7
665;1989.01;579.608;1.7
666;2001.52;617.206;1.7
667;1999.08;555.925;1.7
668;1969.17;581.561;1.7
669;1932.24;577.654;1.71
670;1937.12;595.477;1.71
671;1959.4;575.701;1.71
672;1966.73;583.514;1.71
673;1966.73;563.738;1.71
674;1947.2;615.253;1.71
675;1907.52;587.42;1.71
676;1877.92;555.925;1.71
677;1909.96;619.16;1.71
678;1937.12;587.42;1.71
679;1952.08;587.42;1.71
680;1952.08;573.748;1.71
681;1939.57;595.477;1.71
682;1912.4;585.467;1.71
683;1912.4;607.196;1.72
684;1956.96;559.832;1.72
685;1989.01;583.514;1.72
686;2001.52;613.3;1.72
687;1999.08;550.066;1.72
688;1969.17;583.514;1.72
689;1934.68;579.608;1.72
690;1932.24;595.477;1.72
691;1959.4;579.608;1.72
692;1966.73;581.561;1.72
693;1966.73;567.888;1.72
694;1947.2;609.149;1.72
695;1909.96;581.561;1.72
696;1877.92;561.785;1.73
697;1909.96;625.019;1.73
698;1939.57;585.467;1.73
699;1954.52;585.467;1.73
700;1956.96;577.654;1.73
701;1942.01;591.571;1.73
702;1909.96;589.618;1.73
703;1912.4;599.384;1.73
704;1959.4;573.748;1.73
705;1986.56;581.561;1.73
706;2001.52;617.206;1.73
707;2001.52;565.935;1.73
708;1969.17;575.701;1.73
709;1937.12;575.701;1.74
710;1937.12;595.477;1.74
711;1961.84;575.701;1.74
712;1969.17;583.514;1.74
713;1971.92;559.832;1.74
714;1947.2;607.196;1.74
715;1909.96;589.618;1.74
716;1882.8;550.066;1.74
717;1912.4;605.243;1.74
718;1942.01;591.571;1.74
719;1956.96;591.571;1.74
720;1961.84;573.748;1.74
721;1944.75;597.43;1.74
722;1914.85;585.467;1.74
723;1914.85;613.3;1.75
724;1959.4;563.738;1.75
725;1986.56;579.608;1.75
726;1999.08;619.16;1.75
727;1996.33;559.832;1.75
728;1969.17;581.561;1.75
729;1932.24;573.748;1.75
730;1934.68;597.43;1.75
731;1961.84;573.748;1.75
732;1969.17;581.561;1.75
733;1969.17;559.832;1.75
734;1949.64;611.347;1.75
735;1909.96;587.42;1.75
736;1882.8;553.972;1.76
737;1914.85;615.253;1.76
738;1942.01;589.618;1.76
739;1954.52;589.618;1.76
740;1959.4;573.748;1.76
741;1942.01;595.477;1.76
742;1912.4;583.514;1.76
743;1912.4;607.196;1.76
744;1961.84;559.832;1.76
745;1986.56;583.514;1.76
746;2001.52;615.253;1.76
747;1999.08;550.066;1.76
748;1969.17;581.561;1.76
749;1934.68;581.561;1.76
750;1934.68;595.477;1.77
751;1961.84;575.701;1.77
752;1969.17;581.561;1.77
753;1971.92;563.738;1.77
754;1949.64;611.347;1.77
755;1912.4;583.514;1.77
756;1880.36;559.832;1.77
757;1914.85;619.16;1.77
758;1947.2;585.467;1.77
759;1956.96;587.42;1.77
760;1961.84;575.701;1.77
761;1944.75;591.571;1.77
762;1914.85;587.42;1.77
763;1914.85;603.29;1.78
764;1964.29;561.785;1.78
765;1991.45;585.467;1.78
766;2003.96;609.149;1.78
767;1999.08;555.925;1.78
768;1969.17;579.608;1.78
769;1934.68;573.748;1.78
770;1937.12;595.477;1.78
771;1961.84;573.748;1.78
772;1974.36;583.514;1.78
773;1974.36;563.738;1.78
774;1952.08;611.347;1.78
775;1912.4;587.42;1.78
776;1882.8;553.972;1.79
777;1914.85;615.253;1.79
778;1944.75;587.42;1.79
779;1956.96;589.618;1.79
780;1961.84;573.748;1.79
781;1944.75;593.524;1.79
782;1914.85;585.467;1.79
783;1917.59;605.243;1.79
784;1964.29;557.878;1.79
785;1991.45;583.514;1.79
786;2003.96;611.347;1.79
787;2001.52;550.066;1.79
788;1974.36;583.514;1.79
789;1937.12;579.608;1.8
790;1942.01;593.524;1.8
791;1969.17;577.654;1.8
792;1974.36;581.561;1.8
793;1976.8;565.935;1.8
794;1954.52;611.347;1.8
795;1914.85;585.467;1.8
796;1887.68;557.878;1.8
797;1922.48;623.066;1.8
798;1952.08;593.524;1.8
799;1964.29;591.571;1.8
800;1966.73;573.748;1.8
801;1949.64;595.477;1.8
802;1922.48;585.467;1.81
803;1924.92;611.347;1.81
804;1969.17;573.748;1.81
805;1993.89;579.608;1.81
806;2008.84;617.206;1.81
807;2006.4;567.888;1.81
808;1976.8;575.701;1.81
809;1942.01;575.701;1.81
810;1947.2;595.477;1.81
811;1971.92;573.748;1.81
812;1979.24;579.608;1.81
813;1979.24;557.878;1.81
814;1961.84;605.243;1.81
815;1914.85;587.42;1.81
816;1892.87;548.112;1.82
817;1924.92;607.196;1.82
818;1954.52;589.618;1.82
819;1969.17;591.571;1.82
820;1969.17;575.701;1.82
821;1954.52;595.477;1.82
822;1924.92;583.514;1.82
823;1924.92;609.149;1.82
824;1971.92;565.935;1.82
825;1999.08;577.654;1.82
826;2011.28;619.16;1.82
827;2008.84;559.832;1.82
828;1981.68;579.608;1.82
829;1944.75;575.701;1.83
830;1947.2;595.477;1.83
831;1971.92;569.842;1.83
832;1979.24;583.514;1.83
833;1979.24;559.832;1.83
834;1956.96;609.149;1.83
835;1914.85;587.42;1.83
836;1890.43;550.066;1.83
837;1922.48;609.149;1.83
838;1954.52;587.42;1.83
839;1966.73;591.571;1.83
840;1971.92;573.748;1.83
841;1952.08;593.524;1.83
842;1922.48;583.514;1.84
843;1922.48;609.149;1.84
844;1971.92;559.832;1.84
845;1999.08;581.561;1.84
846;2011.28;615.253;1.84
847;2006.4;555.925;1.84
848;1976.8;579.608;1.84
849;1944.75;577.654;1.84
850;1949.64;593.524;1.84
851;1971.92;571.795;1.84
852;1981.68;583.514;1.84
853;1981.68;565.935;1.84
854;1956.96;609.149;1.84
855;1917.59;583.514;1.85
856;1892.87;557.878;1.85
857;1924.92;619.16;1.85
858;1954.52;583.514;1.85
859;1966.73;587.42;1.85
860;1974.36;573.748;1.85
861;1956.96;593.524;1.85
862;1924.92;585.467;1.85
863;1927.36;613.3;1.85
864;1976.8;573.748;1.85
865;2003.96;577.654;1.85
866;2011.28;615.253;1.85
867;2016.17;567.888;1.85
868;1993.89;573.748;1.86
869;1956.96;575.701;1.86
870;1942.01;595.477;1.86
871;1966.73;573.748;1.86
872;1984.12;581.561;1.86
873;1989.01;555.925;1.86
874;1974.36;597.43;1.86
875;1937.12;587.42;1.86
876;1902.64;548.112;1.86
877;1912.4;603.29;1.86
878;1952.08;591.571;1.86
879;1969.17;589.618;1.86
880;1976.8;573.748;1.86
881;1969.17;597.43;1.87
882;1942.01;583.514;1.87
883;1920.03;611.347;1.87
884;1961.84;567.888;1.87
885;1999.08;579.608;1.87
886;2016.17;617.206;1.87
887;2021.05;559.832;1.87
888;1999.08;577.654;1.87
889;1961.84;575.701;1.87
890;1947.2;593.524;1.87
891;1971.92;571.795;1.87
892;1986.56;581.561;1.87
893;1986.56;555.925;1.87
894;1976.8;605.243;1.88
895;1939.57;587.42;1.88
896;1902.64;550.066;1.88
897;1912.4;609.149;1.88
898;1952.08;585.467;1.88
899;1969.17;589.618;1.88
900;1976.8;571.795;1.88
901;1966.73;597.43;1.88
902;1939.57;583.514;1.88
903;1920.03;609.149;1.88
904;1961.84;559.832;1.88
905;1996.33;577.654;1.88
906;2013.73;615.253;1.88
907;2023.49;555.925;1.89
908;1999.08;579.608;1.89
909;1964.29;577.654;1.89
910;1949.64;595.477;1.89
911;1974.36;571.795;1.89
912;1984.12;581.561;1.89
913;1986.56;561.785;1.89
914;1974.36;613.3;1.89
915;1939.57;585.467;1.89
916;1902.64;553.972;1.89
917;1914.85;615.253;1.89
918;1954.52;585.467;1.89
919;1969.17;587.42;1.89
920;1976.8;571.795;1.9
921;1969.17;593.524;1.9
922;1939.57;583.514;1.9
923;1922.48;613.3;1.9
924;1964.29;565.935;1.9
925;2001.52;581.561;1.9
926;2021.05;619.16;1.9
927;2026.24;559.832;1.9
928;2001.52;579.608;1.9
929;1966.73;573.748;1.9
930;1949.64;597.43;1.9
931;1974.36;571.795;1.9
932;1989.01;581.561;1.9
933;1991.45;559.832;1.91
934;1981.68;609.149;1.91
935;1942.01;585.467;1.91
936;1905.08;550.066;1.91
937;1917.59;611.347;1.91
938;1956.96;585.467;1.91
939;1974.36;589.618;1.91
940;1981.68;573.748;1.91
941;1969.17;591.571;1.91
942;1947.2;581.561;1.91
943;1929.8;605.243;1.91
944;1971.92;557.878;1.91
945;2008.84;579.608;1.91
946;2026.24;615.253;1.91
947;2028.68;553.972;1.92
948;2006.4;579.608;1.92
949;1969.17;575.701;1.92
950;1956.96;593.524;1.92
951;1979.24;575.701;1.92
952;1993.89;581.561;1.92
953;1996.33;563.738;1.92
954;1984.12;589.618;1.92
955;1949.64;589.618;1.92
956;1912.4;553.972;1.92
957;1927.36;593.524;1.92
958;1966.73;593.524;1.92
959;1981.68;585.467;1.92
960;1989.01;571.795;1.92
961;1979.24;589.618;1.92
962;1949.64;581.561;1.93
963;1929.8;609.149;1.93
964;1974.36;575.701;1.93
965;2008.84;575.701;1.93
966;2026.24;615.253;1.93
967;2028.68;569.842;1.93
968;2006.4;573.748;1.93
969;1969.17;575.701;1.93
970;1956.96;593.524;1.93
971;1979.24;571.795;1.93
972;1991.45;579.608;1.93
973;1996.33;553.972;1.93
974;1981.68;597.43;1.93
975;1942.01;587.42;1.93
976;1905.08;550.066;1.94
977;1920.03;601.337;1.94
978;1961.84;589.618;1.94
979;1976.8;589.618;1.94
980;1986.56;571.795;1.94
981;1971.92;593.524;1.94
982;1947.2;585.467;1.94
983;1929.8;611.347;1.94
984;1971.92;571.795;1.94
985;2006.4;577.654;1.94
986;2021.05;617.206;1.94
987;2023.49;563.738;1.94
988;2003.96;577.654;1.94
989;1966.73;573.748;1.94
990;1952.08;593.524;1.95
991;1981.68;569.842;1.95
992;1991.45;579.608;1.95
993;1996.33;555.925;1.95
994;1984.12;601.337;1.95
995;1947.2;587.42;1.95
996;1912.4;548.112;1.95
997;1927.36;611.347;1.95
998;1966.73;589.618;1.95
999;1981.68;591.571;1.95
1000;1989.01;571.795;1.95
1001;1979.24;593.524;1.95
1002;1949.64;581.561;1.95
1003;1934.68;609.149;1.95
1004;1976.8;559.832;1.96
1005;2013.73;579.608;1.96
1006;2028.68;617.206;1.96
1007;2031.12;559.832;1.96
1008;2008.84;579.608;1.96
1009;1969.17;577.654;1.96
1010;1956.96;595.477;1.96
1011;1986.56;569.842;1.96
1012;1999.08;581.561;1.96
1013;2001.52;559.832;1.96
1014;1989.01;611.347;1.96
1015;1949.64;583.514;1.96
1016;1912.4;552.019;1.96
1017;1929.8;591.571;1.96
1018;1969.17;601.337;1.97
1019;1984.12;585.467;1.97
1020;1991.45;571.795;1.97
1021;1979.24;587.42;1.97
1022;1949.64;583.514;1.97
1023;1932.24;609.149;1.97
1024;1979.24;577.654;1.97
1025;2011.28;573.748;1.97
1026;2028.68;615.253;1.97
1027;2031.12;573.748;1.97
1028;2011.28;571.795;1.97
1029;1971.92;577.654;1.97
1030;1959.4;593.524;1.97
1031;1984.12;577.654;1.97
1032;1996.33;579.608;1.98
1033;2001.52;555.925;1.98
1034;1989.01;593.524;1.98
1035;1949.64;589.618;1.98
1036;1912.4;552.019;1.98
1037;1927.36;597.43;1.98
1038;1966.73;591.571;1.98
1039;1981.68;589.618;1.98
1040;1986.56;571.795;1.98
1041;1979.24;591.571;1.98
1042;1949.64;585.467;1.98
1043;1932.24;609.149;1.98
1044;1976.8;573.748;1.98
1045;2013.73;575.701;1.98
1046;2028.68;615.253;1.99
1047;2031.12;565.935;1.99
1048;2008.84;575.701;1.99
1049;1971.92;573.748;1.99
1050;1959.4;591.571;1.99
1051;1989.01;571.795;1.99
1052;1999.08;581.561;1.99
1053;2003.96;557.878;1.99
1054;1991.45;599.384;1.99
1055;1954.52;585.467;1.99
1056;1917.59;550.066;1.99
1057;1934.68;605.243;1.99
1058;1974.36;589.618;1.99
1059;1991.45;589.618;2
1060;1993.89;571.795;2
1061;1986.56;595.477;2
1062;1954.52;583.514;2
1063;1939.57;609.149;2
1064;1986.56;563.738;2
1065;2021.05;579.608;2
1066;2036;615.253;2
1067;2040.89;561.785;2
1068;2016.17;577.654;2
1069;1979.24;575.701;2
1070;1966.73;593.524;2
1071;1993.89;569.842;2
1072;2003.96;579.608;2.01
1073;2008.84;559.832;2.01
1074;1993.89;607.196;2.01
1075;1956.96;587.42;2.01
1076;1920.03;552.019;2.01
1077;1939.57;609.149;2.01
1078;1976.8;587.42;2.01
1079;1993.89;587.42;2.01
1080;1999.08;571.795;2.01
1081;1989.01;595.477;2.01
1082;1959.4;583.514;2.01
1083;1947.2;611.347;2.01
1084;1984.12;571.795;2.01
1085;2023.49;577.654;2.01
1086;2036;613.3;2.02
1087;2040.89;563.738;2.02
1088;2013.73;575.701;2.02
1089;1979.24;575.701;2.02
1090;1966.73;593.524;2.02
1091;1993.89;569.842;2.02
1092;2006.4;579.608;2.02
1093;2011.28;557.878;2.02
1094;1996.33;603.29;2.02
1095;1956.96;585.467;2.02
1096;1917.59;550.066;2.02
1097;1932.24;603.29;2.02
1098;1974.36;587.42;2.02
1099;1989.01;587.42;2.03
1100;1996.33;571.795;2.03
1101;1984.12;595.477;2.03
1102;1954.52;581.561;2.03
1103;1939.57;607.196;2.03
1104;1984.12;561.785;2.03
1105;2023.49;579.608;2.03
1106;2036;613.3;2.03
1107;2043.33;555.925;2.03
1108;2016.17;581.561;2.03
1109;1976.8;573.748;2.03
1110;1969.17;593.524;2.03
1111;1993.89;587.42;2.04
1112;2006.4;577.654;2.04
1113;2011.28;557.878;2.04
1114;1999.08;585.467;2.04
1115;1959.4;591.571;2.04
1116;1920.03;555.925;2.04
1117;1939.57;589.618;2.04
1118;1981.68;601.337;2.04
1119;1999.08;585.467;2.04
1120;2003.96;573.748;2.04
1121;1991.45;583.514;2.04
1122;1964.29;585.467;2.04
1123;1947.2;607.196;2.04
1124;1993.89;575.701;2.04
1125;2028.68;571.795;2.05
1126;2043.33;611.347;2.05
1127;2048.21;575.701;2.05
1128;2023.49;567.888;2.05
1129;1984.12;577.654;2.05
1130;1974.36;589.618;2.05
1131;2003.96;579.608;2.05
1132;2013.73;577.654;2.05
1133;2018.61;555.925;2.05
1134;2001.52;591.571;2.05
1135;1964.29;589.618;2.05
1136;1924.92;552.019;2.05
1137;1947.2;593.524;2.06
1138;1984.12;593.524;2.06
1139;2001.52;587.42;2.06
1140;2006.4;569.842;2.06
1141;1996.33;591.571;2.06
1142;1964.29;583.514;2.06
1143;1949.64;607.196;2.06
1144;1996.33;571.795;2.06
1145;2031.12;575.701;2.06
1146;2043.33;613.3;2.06
1147;2048.21;567.888;2.06
1148;2023.49;571.795;2.06
1149;1986.56;571.795;2.06
1150;1976.8;593.524;2.07
1151;2001.52;571.795;2.07
1152;2016.17;579.608;2.07
1153;2016.17;555.925;2.07
1154;2001.52;597.43;2.07
1155;1961.84;587.42;2.07
1156;1924.92;550.066;2.07
1157;1947.2;601.337;2.07
1158;1986.56;589.618;2.07
1159;2003.96;589.618;2.07
1160;2011.28;567.888;2.07
1161;1999.08;595.477;2.07
1162;1966.73;581.561;2.07
1163;1954.52;607.196;2.07
1164;1999.08;565.935;2.08
1165;2031.12;579.608;2.08
1166;2048.21;615.253;2.08
1167;2048.21;557.878;2.08
1168;2023.49;575.701;2.08
1169;1989.01;573.748;2.08
1170;1979.24;593.524;2.08
1171;2003.96;569.842;2.08
1172;2016.17;579.608;2.08
1173;2023.49;557.878;2.08
1174;2006.4;585.467;2.08
1175;1969.17;593.524;2.08
1176;1929.8;557.878;2.08
1177;1952.08;581.561;2.09
1178;1989.01;605.243;2.09
1179;2006.4;581.561;2.09
1180;2013.73;573.748;2.09
1181;1999.08;579.608;2.09
1182;1971.92;585.467;2.09
1183;1959.4;605.243;2.09
1184;2003.96;581.561;2.09
1185;2038.45;571.795;2.09
1186;2053.4;607.196;2.09
1187;2055.84;577.654;2.09
1188;2031.12;565.935;2.09
1189;1991.45;575.701;2.1
1190;1981.68;591.571;2.1
1191;2011.28;583.514;2.1
1192;2021.05;577.654;2.1
1193;2023.49;557.878;2.1
1194;2008.84;589.618;2.1
1195;1971.92;591.571;2.1
1196;1934.68;552.019;2.1
1197;1956.96;589.618;2.1
1198;1996.33;595.477;2.1
1199;2011.28;585.467;2.1
1200;2016.17;569.842;2.1
1201;2003.96;589.618;2.1
1202;1974.36;585.467;2.11
1203;1964.29;607.196;2.11
1204;2008.84;575.701;2.11
1205;2043.33;575.701;2.11
1206;2060.72;611.347;2.11
1207;2060.72;569.842;2.11
1208;2033.56;567.888;2.11
1209;1996.33;573.748;2.11
1210;1989.01;591.571;2.11
1211;2016.17;571.795;2.11
1212;2023.49;577.654;2.11
1213;2026.24;555.925;2.11
1214;2011.28;593.524;2.11
1215;1976.8;583.514;2.12
1216;1937.12;548.112;2.12
1217;1959.4;595.477;2.12
1218;1996.33;593.524;2.12
1219;2013.73;589.618;2.12
1220;2021.05;569.842;2.12
1221;2006.4;595.477;2.12
1222;1974.36;579.608;2.12
1223;1961.84;607.196;2.12
1224;2011.28;571.795;2.12
1225;2040.89;575.701;2.12
1226;2060.72;613.3;2.12
1227;2060.72;561.785;2.12
1228;2033.56;575.701;2.13
1229;1999.08;573.748;2.13
1230;1986.56;593.524;2.13
1231;2016.17;571.795;2.13
1232;2031.12;579.608;2.13
1233;2031.12;557.878;2.13
1234;2013.73;601.337;2.13
1235;1976.8;583.514;2.13
1236;1937.12;548.112;2.13
1237;1964.29;591.571;2.13
1238;2001.52;597.43;2.13
1239;2016.17;585.467;2.13
1240;2021.05;569.842;2.13
1241;2008.84;589.618;2.14
1242;1979.24;583.514;2.14
1243;1966.73;607.196;2.14
1244;2016.17;573.748;2.14
1245;2043.33;575.701;2.14
1246;2060.72;613.3;2.14
1247;2065.61;567.888;2.14
1248;2043.33;571.795;2.14
1249;2008.84;573.748;2.14
1250;1991.45;591.571;2.14
1251;2018.61;571.795;2.14
1252;2031.12;579.608;2.14
1253;2033.56;555.925;2.14
1254;2021.05;595.477;2.15
1255;1989.01;585.467;2.15
1256;1947.2;546.159;2.15
1257;1961.84;599.384;2.15
1258;2001.52;587.42;2.15
1259;2021.05;587.42;2.15
1260;2028.68;569.842;2.15
1261;2018.61;591.571;2.15
1262;1991.45;583.514;2.15
1263;1971.92;607.196;2.15
1264;2008.84;569.842;2.15
1265;2048.21;575.701;2.15
1266;2065.61;613.3;2.15
1267;2070.49;561.785;2.16
1268;2050.65;555.925;2.16
1269;2013.73;581.561;2.16
1270;1993.89;589.618;2.16
1271;2021.05;587.42;2.16
1272;2036;577.654;2.16
1273;2038.45;557.878;2.16
1274;2028.68;581.561;2.16
1275;1993.89;591.571;2.16
1276;1954.52;559.832;2.16
1277;1964.29;579.608;2.16
1278;2006.4;605.243;2.16
1279;2021.05;579.608;2.16
1280;2033.56;569.842;2.17
1281;2023.49;575.701;2.17
1282;1996.33;583.514;2.17
1283;1974.36;603.29;2.17
1284;2016.17;579.608;2.17
1285;2053.4;567.888;2.17
1286;2070.49;607.196;2.17
1287;2072.93;577.654;2.17
1288;2055.84;561.785;2.17
1289;2016.17;577.654;2.17
1290;2001.52;589.618;2.17
1291;2026.24;585.467;2.17
1292;2043.33;575.701;2.17
1293;2050.65;555.925;2.18
1294;2036;587.42;2.18
1295;2001.52;589.618;2.18
1296;1959.4;550.066;2.18
1297;1971.92;585.467;2.18
1298;2013.73;595.477;2.18
1299;2031.12;585.467;2.18
1300;2040.89;569.842;2.18
1301;2031.12;581.561;2.18
1302;2001.52;585.467;2.18
1303;1984.12;607.196;2.18
1304;2023.49;573.748;2.18
1305;2063.17;573.748;2.18
1306;2083;613.3;2.18
1307;2085.44;571.795;2.19
1308;2063.17;567.888;2.19
1309;2023.49;571.795;2.19
1310;2006.4;589.618;2.19
1311;2036;573.748;2.19
1312;2048.21;577.654;2.19
1313;2048.21;555.925;2.19
1314;2040.89;591.571;2.19
1315;2003.96;587.42;2.19
1316;1959.4;550.066;2.19
1317;1976.8;597.43;2.19
1318;2018.61;593.524;2.19
1319;2033.56;585.467;2.19
1320;2043.33;569.842;2.2
1321;2033.56;593.524;2.2
1322;2003.96;581.561;2.2
1323;1984.12;607.196;2.2
1324;2026.24;571.795;2.2
1325;2065.61;577.654;2.2
1326;2080.56;613.3;2.2
1327;2083;561.785;2.2
1328;2060.72;571.795;2.2
1329;2023.49;569.842;2.2
1330;2011.28;591.571;2.2
1331;2036;587.42;2.2
1332;2050.65;575.701;2.21
1333;2055.84;561.785;2.21
1334;2040.89;575.701;2.21
1335;2003.96;593.524;2.21
1336;1964.29;561.785;2.21
1337;1976.8;575.701;2.21
1338;2021.05;607.196;2.21
1339;2040.89;579.608;2.21
1340;2045.77;571.795;2.21
1341;2038.45;571.795;2.21
1342;2008.84;583.514;2.21
1343;1986.56;599.384;2.21
1344;2031.12;581.561;2.22
1345;2070.49;567.888;2.22
1346;2087.89;603.29;2.22
1347;2092.77;581.561;2.22
1348;2070.49;555.925;2.22
1349;2031.12;579.608;2.22
1350;2013.73;589.618;2.22
1351;2043.33;589.618;2.22
1352;2055.84;575.701;2.22
1353;2058.28;555.925;2.22
1354;2045.77;585.467;2.22
1355;2008.84;591.571;2.22
1356;1969.17;553.972;2.22
1357;1984.12;583.514;2.23
1358;2023.49;599.384;2.23
1359;2040.89;583.514;2.23
1360;2050.65;569.842;2.23
1361;2038.45;581.561;2.23
1362;2008.84;583.514;2.23
1363;1991.45;607.196;2.23
1364;2036;577.654;2.23
1365;2072.93;569.842;2.23
1366;2092.77;609.149;2.23
1367;2097.65;571.795;2.23
1368;2072.93;563.738;2.23
1369;2036;573.748;2.24
1370;2018.61;589.618;2.24
1371;2048.21;579.608;2.24
1372;2060.72;575.701;2.24
1373;2065.61;553.972;2.24
1374;2053.4;589.618;2.24
1375;2016.17;585.467;2.24
1376;1974.36;548.112;2.24
1377;1989.01;593.524;2.24
1378;2031.12;595.477;2.24
1379;2050.65;585.467;2.24
1380;2055.84;567.888;2.24
1381;2045.77;587.42;2.25
1382;2013.73;583.514;2.25
1383;1999.08;607.196;2.25
1384;2038.45;573.748;2.25
1385;2075.37;573.748;2.25
1386;2095.21;613.3;2.25
1387;2100.09;567.888;2.25
1388;2072.93;569.842;2.25
1389;2036;569.842;2.25
1390;2018.61;589.618;2.25
1391;2050.65;569.842;2.25
1392;2060.72;575.701;2.25
1393;2065.61;552.019;2.26
1394;2050.65;585.467;2.26
1395;2016.17;587.42;2.26
1396;1976.8;552.019;2.26
1397;1989.01;583.514;2.26
1398;2031.12;597.43;2.26
1399;2048.21;585.467;2.26
1400;2053.4;567.888;2.26
1401;2043.33;581.561;2.26
1402;2013.73;583.514;2.26
1403;1993.89;605.243;2.26
1404;2040.89;577.654;2.27
1405;2077.81;571.795;2.27
1406;2097.65;611.347;2.27
1407;2102.53;571.795;2.27
1408;2077.81;565.935;2.27
1409;2040.89;571.795;2.27
1410;2026.24;591.571;2.27
1411;2055.84;575.701;2.27
1412;2070.49;575.701;2.27
1413;2072.93;552.019;2.27
1414;2060.72;589.618;2.27
1415;2021.05;585.467;2.27
1416;1981.68;546.159;2.28
1417;1999.08;593.524;2.28
1418;2043.33;593.524;2.28
1419;2060.72;585.467;2.28
1420;2070.49;567.888;2.28
1421;2058.28;591.571;2.28
1422;2026.24;581.561;2.28
1423;2008.84;607.196;2.28
1424;2053.4;569.842;2.28
1425;2090.33;573.748;2.28
1426;2107.72;593.524;2.28
1427;2110.16;589.618;2.29
1428;2085.44;550.066;2.29
1429;2048.21;577.654;2.29
1430;2033.56;585.467;2.29
1431;2063.17;587.42;2.29
1432;2075.37;573.748;2.29
1433;2080.56;559.832;2.29
1434;2065.61;575.701;2.29
1435;2028.68;595.477;2.29
1436;1984.12;561.785;2.29
1437;2006.4;571.795;2.29
1438;2045.77;609.149;2.29
1439;2058.28;579.608;2.3
1440;2068.05;571.795;2.3
1441;2068.05;573.748;2.3
1442;2045.77;581.561;2.3
1443;2016.17;599.384;2.3
1444;2033.56;581.561;2.3
1445;2080.56;563.738;2.3
1446;2102.53;599.384;2.3
1447;2110.16;581.561;2.3
1448;2100.09;555.925;2.3
1449;2060.72;575.701;2.3
1450;2033.56;589.618;2.31
1451;2053.4;585.467;2.31
1452;2072.93;573.748;2.31
1453;2080.56;553.972;2.31
1454;2075.37;581.561;2.31
1455;2048.21;587.42;2.31
1456;2001.52;552.019;2.31
1457;1991.45;579.608;2.31
1458;2033.56;599.384;2.31
1459;2060.72;581.561;2.31
1460;2070.49;569.842;2.31
1461;2065.61;573.748;2.31
1462;2043.33;579.608;2.32
1463;2011.28;603.29;2.32
1464;2033.56;577.654;2.32
1465;2083;569.842;2.32
1466;2107.72;607.196;2.32
1467;2115.05;571.795;2.32
1468;2102.53;565.935;2.32
1469;2065.61;571.795;2.32
1470;2033.56;587.42;2.32
1471;2053.4;581.561;2.32
1472;2077.81;575.701;2.32
1473;2083;550.066;2.33
1474;2080.56;587.42;2.33
1475;2050.65;589.618;2.33
1476;2006.4;548.112;2.33
1477;1993.89;587.42;2.33
1478;2038.45;593.524;2.33
1479;2058.28;583.514;2.33
1480;2070.49;567.888;2.33
1481;2068.05;587.42;2.33
1482;2043.33;579.608;2.33
1483;2016.17;605.243;2.33
1484;2036;573.748;2.34
1485;2087.89;571.795;2.34
1486;2107.72;611.347;2.34
1487;2119.93;565.935;2.34
1488;2107.72;565.935;2.34
1489;2068.05;573.748;2.34
1490;2038.45;585.467;2.34
1491;2055.84;585.467;2.34
1492;2077.81;569.842;2.34
1493;2083;559.832;2.34
1494;2080.56;573.748;2.34
1495;2048.21;595.477;2.35
1496;2006.4;563.738;2.35
1497;1996.33;567.888;2.35
1498;2045.77;611.347;2.35
1499;2068.05;579.608;2.35
1500;2075.37;571.795;2.35
1501;2075.37;573.748;2.35
1502;2053.4;581.561;2.35
1503;2023.49;595.477;2.35
1504;2045.77;585.467;2.35
1505;2095.21;559.832;2.35
1506;2119.93;597.43;2.36
1507;2127.25;585.467;2.36
1508;2112.61;552.019;2.36
1509;2075.37;577.654;2.36
1510;2045.77;585.467;2.36
1511;2065.61;587.42;2.36
1512;2085.44;571.795;2.36
1513;2092.77;555.925;2.36
1514;2085.44;579.608;2.36
1515;2055.84;589.618;2.36
1516;2006.4;557.878;2.36
1517;2001.52;573.748;2.37
1518;2045.77;603.29;2.37
1519;2070.49;579.608;2.37
1520;2083;569.842;2.37
1521;2077.81;571.795;2.37
1522;2055.84;581.561;2.37
1523;2026.24;601.337;2.37
1524;2048.21;577.654;2.37
1525;2097.65;567.888;2.37
1526;2115.05;603.29;2.37
1527;2129.7;577.654;2.37
1528;2115.05;559.832;2.38
1529;2080.56;571.795;2.38
1530;2050.65;587.42;2.38
1531;2070.49;585.467;2.38
1532;2087.89;573.748;2.38
1533;2095.21;553.972;2.38
1534;2087.89;585.467;2.38
1535;2055.84;585.467;2.38
1536;2011.28;548.112;2.38
1537;2003.96;585.467;2.38
1538;2050.65;597.43;2.39
1539;2072.93;583.514;2.39
1540;2085.44;565.935;2.39
1541;2083;579.608;2.39
1542;2058.28;579.608;2.39
1543;2028.68;603.29;2.39
1544;2055.84;575.701;2.39
1545;2100.09;569.842;2.39
1546;2124.81;605.243;2.39
1547;2137.33;567.888;2.39
1548;2122.37;561.785;2.39
1549;2085.44;569.842;2.4
1550;2055.84;587.42;2.4
1551;2075.37;573.748;2.4
1552;2095.21;573.748;2.4
1553;2102.53;555.925;2.4
1554;2095.21;575.701;2.4
1555;2068.05;589.618;2.4
1556;2021.05;552.019;2.4
1557;2011.28;573.748;2.4
1558;2058.28;599.384;2.4
1559;2077.81;577.654;2.4
1560;2090.33;565.935;2.41
1561;2087.89;571.795;2.41
1562;2058.28;579.608;2.41
1563;2028.68;599.384;2.41
1564;2055.84;577.654;2.41
1565;2102.53;565.935;2.41
1566;2127.25;601.337;2.41
1567;2137.33;575.701;2.41
1568;2124.81;559.832;2.41
1569;2087.89;571.795;2.41
1570;2058.28;585.467;2.42
1571;2075.37;581.561;2.42
1572;2097.65;573.748;2.42
1573;2102.53;552.019;2.42
1574;2095.21;583.514;2.42
1575;2063.17;585.467;2.42
1576;2021.05;544.206;2.42
1577;2013.73;583.514;2.42
1578;2060.72;593.524;2.42
1579;2085.44;581.561;2.42
1580;2095.21;567.888;2.42
1581;2095.21;581.561;2.43
1582;2068.05;577.654;2.43
1583;2038.45;585.467;2.43
1584;2060.72;591.571;2.43
1585;2110.16;553.972;2.43
1586;2132.14;585.467;2.43
1587;2142.21;593.524;2.43
1588;2124.81;544.206;2.43
1589;2087.89;573.748;2.43
1590;2058.28;579.608;2.43
1591;2080.56;585.467;2.44
1592;2102.53;567.888;2.44
1593;2107.72;563.738;2.44
1594;2102.53;569.842;2.44
1595;2068.05;597.43;2.44
1596;2026.24;563.738;2.44
1597;2016.17;561.785;2.44
1598;2060.72;611.347;2.44
1599;2083;575.701;2.44
1600;2092.77;569.842;2.44
1601;2085.44;569.842;2.44
1602;2060.72;579.608;2.45
1603;2031.12;593.524;2.45
1604;2058.28;583.514;2.45
1605;2110.16;557.878;2.45
1606;2132.14;593.524;2.45
1607;2139.77;585.467;2.45
1608;2124.81;548.112;2.45
1609;2090.33;573.748;2.45
1610;2060.72;583.514;2.45
1611;2080.56;585.467;2.45
1612;2102.53;569.842;2.46
1613;2110.16;555.925;2.46
1614;2102.53;575.701;2.46
1615;2070.49;593.524;2.46
1616;2026.24;557.878;2.46
1617;2021.05;569.842;2.46
1618;2065.61;603.29;2.46
1619;2087.89;577.654;2.46
1620;2100.09;565.935;2.46
1621;2095.21;569.842;2.46
1622;2070.49;579.608;2.47
1623;2040.89;599.384;2.47
1624;2065.61;577.654;2.47
1625;2115.05;563.738;2.47
1626;2137.33;601.337;2.47
1627;2147.09;575.701;2.47
1628;2132.14;555.925;2.47
1629;2095.21;575.701;2.47
1630;2063.17;585.467;2.47
1631;2085.44;585.467;2.47
1632;2107.72;569.842;2.47
1633;2115.05;552.019;2.48
1634;2110.16;581.561;2.48
1635;2075.37;583.514;2.48
1636;2031.12;550.066;2.48
1637;2026.24;577.654;2.48
1638;2070.49;595.477;2.48
1639;2092.77;579.608;2.48
1640;2104.98;563.738;2.48
1641;2102.53;575.701;2.48
1642;2072.93;577.654;2.48
1643;2045.77;599.384;2.49
1644;2070.49;571.795;2.49
1645;2119.93;567.888;2.49
1646;2142.21;581.561;2.49
1647;2151.97;593.524;2.49
1648;2134.88;540.056;2.49
1649;2100.09;575.701;2.49
1650;2070.49;577.654;2.49
1651;2092.77;585.467;2.49
1652;2112.61;567.888;2.49
1653;2119.93;561.785;2.5
1654;2115.05;565.935;2.5
1655;2080.56;599.384;2.5
1656;2036;565.935;2.5
1657;2031.12;557.878;2.5
1658;2077.81;613.3;2.5
1659;2102.53;573.748;2.5
1660;2112.61;569.842;2.5
1661;2107.72;565.935;2.5
1662;2080.56;581.561;2.5
1663;2053.4;587.42;2.5
1664;2080.56;585.467;2.51
1665;2127.25;553.972;2.51
1666;2149.53;587.42;2.51
1667;2159.3;589.618;2.51
1668;2142.21;544.206;2.51
1669;2107.72;569.842;2.51
1670;2075.37;579.608;2.51
1671;2095.21;583.514;2.51
