<WeldAnalyseData xmlns:i="http:www.w3.org/2001/XMLSchema-instance">
<WeldParameter>
<TimeStamp>DT#2024-01-25-14:04:53</TimeStamp>
<Generator>SG-22-10000</Generator>
<GenFreq>20</GenFreq>
<MaxForce>8000</MaxForce>
<MaxPower>10000</MaxPower>
<RunupPressure>1.5</RunupPressure>
<RunupDist>10</RunupDist>
<RunPress>0.8</RunPress>
<ShakeDelay>0.03</ShakeDelay>
<ShakeTime>0.3</ShakeTime>
<RunBackPress1>6</RunBackPress1>
<RunBackPress2>2</RunBackPress2>
<RunBackDist>1</RunBackDist>
<TrigValue>500</TrigValue>
<TrigModeUnit>W</TrigModeUnit>
<WeldModeUnit>Ws</WeldModeUnit>
<PressNr>0</PressNr>
<MaxLoss>1500</MaxLoss>
</WeldParameter>
<WeldSets>
<WeldSet>
<PressRiseTime>0</PressRiseTime>
<RunPressure>1</RunPressure>
<Amplitude>86</Amplitude>
<WeldMode>3270</WeldMode>
</WeldSet>
</WeldSets>
<WeldValue>
<WeldNr>3017</WeldNr>
<RecipeName>RickStyle</RecipeName>
<WeldTime>1674</WeldTime>
<DistDiff>2.41</DistDiff>
<DistAbs>78.15</DistAbs>
<Energy>3271.52</Energy>
<MaxPower>2151.06</MaxPower>
<CycleTime>6070</CycleTime>
<TrigForce>500.748</TrigForce>
<TrigDist>75.74</TrigDist>
<RunSpeed>67.5647</RunSpeed>
<MaxForce>621.113</MaxForce>
<LossPower>320.33</LossPower>
</WeldValue>
</WeldAnalyseData>
#CSV-START#
ms;Power[W];Force[N];Distance[mm]
1;0;0;0
2;0;500.748;0
3;0;502.701;0
4;0;502.701;0
5;0;500.748;0
6;0;502.701;0
7;0;504.654;0
8;0;486.831;0
9;0;429.456;0.0200043
10;0;409.925;0.0400009
11;0;380.139;0.0699997
12;35.2107;368.419;0.0999985
13;99.2996;334.727;0.139999
14;178.343;326.914;0.18
15;242.431;312.998;0.220001
16;304.079;309.091;0.270004
17;366.031;291.269;0.310005
18;425.237;293.222;0.360001
19;486.885;277.596;0.400002
20;546.091;312.998;0.440002
21;595.531;303.232;0.480003
22;649.854;285.409;0.510002
23;726.455;334.727;0.540001
24;803.056;326.914;0.57
25;867.145;334.727;0.590004
26;928.793;332.774;0.610001
27;980.674;360.363;0.630005
28;1022.79;366.466;0.639999
29;1067.04;396.008;0.650002
30;1131.44;368.419;0.660004
31;1183.32;396.008;0.660004
32;1222.69;429.456;0.670006
33;1257.17;384.045;0.670006
34;1267.24;407.971;0.68
35;1267.24;407.971;0.68
36;1289.52;421.644;0.690002
37;1333.77;405.774;0.690002
38;1363.38;419.691;0.700005
39;1390.54;401.868;0.700005
40;1405.49;445.326;0.709999
41;1400.61;427.503;0.709999
42;1403.05;399.915;0.720001
43;1444.86;457.289;0.720001
44;1489.42;429.456;0.730003
45;1519.02;431.654;0.740005
46;1543.74;417.737;0.740005
47;1553.51;437.513;0.75
48;1551.07;433.607;0.75
49;1573.34;453.383;0.760002
50;1632.55;427.503;0.770004
51;1679.55;431.654;0.779999
52;1709.15;467.055;0.779999
53;1728.99;425.55;0.790001
54;1718.92;427.503;0.800003
55;1709.15;435.56;0.800003
56;1726.55;451.186;0.810005
57;1765.92;435.56;0.82
58;1795.52;445.326;0.830002
59;1812.91;425.55;0.830002
60;1810.47;463.149;0.840004
61;1785.75;461.196;0.840004
62;1775.68;423.597;0.849998
63;1817.8;472.915;0.860001
64;1862.35;469.008;0.860001
65;1889.52;467.055;0.870003
66;1904.16;449.232;0.870003
67;1899.28;479.019;0.880005
68;1881.89;467.055;0.880005
69;1894.4;496.597;0.889999
70;1951.16;459.243;0.889999
71;1985.65;467.055;0.900002
72;2007.93;506.607;0.900002
73;2017.69;455.336;0.900002
74;1995.41;470.962;0.910004
75;1963.37;470.962;0.910004
76;1963.37;490.738;0.920006
77;1998.16;470.962;0.920006
78;2020.13;482.925;0.93
79;2027.76;459.243;0.93
80;2020.13;508.56;0.93
81;1983.21;490.738;0.940002
82;1951.16;459.243;0.940002
83;1983.21;514.42;0.950005
84;2027.76;500.748;0.950005
85;2052.48;498.795;0.950005
86;2062.25;484.878;0.959999
87;2052.48;508.56;0.959999
88;2025.32;498.795;0.970001
89;2017.69;522.477;0.970001
90;2072.02;479.019;0.970001
91;2109.25;498.795;0.980003
92;2128.78;534.196;0.980003
93;2128.78;472.915;0.980003
94;2101.62;500.748;0.990005
95;2067.13;498.795;0.990005
96;2062.25;518.326;0.990005
97;2094.29;494.644;1
98;2109.25;506.607;1
99;2111.69;488.784;1
100;2096.74;536.149;1.01
101;2054.93;512.467;1.01
102;2017.69;480.972;1.01
103;2044.85;542.009;1.02
104;2086.97;512.467;1.02
105;2106.81;514.42;1.02
106;2109.25;502.701;1.03
107;2096.74;522.477;1.03
108;2064.69;516.373;1.03
109;2052.48;532.243;1.04
110;2104.06;486.831;1.04
111;2133.97;510.514;1.04
112;2151.06;548.112;1.05
113;2148.62;490.738;1.05
114;2119.01;510.514;1.05
115;2079.65;506.607;1.06001
116;2072.02;528.336;1.06001
117;2101.62;504.654;1.06001
118;2116.57;516.373;1.06001
119;2119.01;496.597;1.07
120;2096.74;546.159;1.07
121;2052.48;522.477;1.07
122;2015.25;488.784;1.07
123;2042.41;548.112;1.08
124;2079.65;526.383;1.08
125;2096.74;526.383;1.08
126;2104.06;510.514;1.08
127;2086.97;536.149;1.09
128;2052.48;524.43;1.09
129;2042.41;548.112;1.09
130;2089.41;500.748;1.09
131;2121.46;524.43;1.1
132;2138.85;553.972;1.1
133;2136.41;492.691;1.1
134;2104.06;522.477;1.1
135;2064.69;522.477;1.11
136;2059.81;538.102;1.11
137;2084.53;516.373;1.11
138;2099.18;524.43;1.11
139;2099.18;508.56;1.12
140;2079.65;557.878;1.12
141;2035.09;530.29;1.12
142;1995.41;496.597;1.12
143;2027.76;540.056;1.12
144;2064.69;544.206;1.13
145;2076.9;534.196;1.13
146;2082.09;520.524;1.13
147;2064.69;540.056;1.13
148;2030.21;534.196;1.13
149;2022.58;557.878;1.14
150;2074.46;520.524;1.14
151;2104.06;526.383;1.14
152;2119.01;563.738;1.14
153;2116.57;520.524;1.14
154;2084.53;524.43;1.15
155;2047.3;524.43;1.15
156;2042.41;546.159;1.15
157;2069.57;524.43;1.15
158;2079.65;530.29;1.15
159;2082.09;506.607;1.16
160;2062.25;550.066;1.16
161;2020.13;542.009;1.16
162;1983.21;502.701;1.16
163;2015.25;557.878;1.16
164;2052.48;542.009;1.16
165;2067.13;544.206;1.17001
166;2072.02;528.336;1.17001
167;2054.93;550.066;1.17001
168;2022.58;538.102;1.17001
169;2015.25;565.935;1.17001
170;2067.13;522.477;1.18
171;2094.29;536.149;1.18
172;2109.25;573.748;1.18
173;2104.06;516.373;1.18
174;2069.57;534.196;1.18
175;2030.21;536.149;1.18
176;2025.32;552.019;1.19
177;2052.48;530.29;1.19
178;2062.25;542.009;1.19
179;2062.25;516.373;1.19
180;2039.97;569.842;1.19
181;1998.16;548.112;1.19
182;1960.93;514.42;1.2
183;1992.97;569.842;1.2
184;2027.76;548.112;1.2
185;2042.41;548.112;1.2
186;2047.3;530.29;1.2
187;2027.76;557.878;1.2
188;1992.97;544.206;1.21
189;1988.09;567.888;1.21
190;2039.97;520.524;1.21
191;2069.57;542.009;1.21
192;2084.53;573.748;1.21
193;2079.65;512.467;1.21
194;2049.74;540.056;1.22
195;2010.37;540.056;1.22
196;2007.93;555.925;1.22
197;2032.65;536.149;1.22
198;2042.41;542.009;1.22
199;2042.41;526.383;1.22
200;2022.58;575.701;1.22
201;1975.88;548.112;1.23
202;1946.28;522.477;1.23
203;1980.77;581.561;1.23
204;2012.81;550.066;1.23
205;2030.21;553.972;1.23
206;2035.09;538.102;1.23
207;2012.81;559.832;1.23
208;1983.21;550.066;1.24001
209;1978.32;577.654;1.24001
210;2027.76;540.056;1.24001
211;2057.37;544.206;1.24001
212;2072.02;583.514;1.24001
213;2069.57;534.196;1.24001
214;2035.09;540.056;1.25
215;1998.16;542.009;1.25
216;1995.41;561.785;1.25
217;2022.58;542.009;1.25
218;2032.65;550.066;1.25
219;2030.21;526.383;1.25
220;2010.37;569.842;1.25
221;1971;557.878;1.26
222;1938.65;522.477;1.26
223;1971;571.795;1.26
224;2003.04;561.785;1.26
225;2017.69;559.832;1.26
226;2022.58;542.009;1.26
227;2003.04;565.935;1.26
228;1973.44;555.925;1.27
229;1968.25;581.561;1.27
230;2022.58;540.056;1.27
231;2052.48;550.066;1.27
232;2067.13;585.467;1.27
233;2062.25;534.196;1.27
234;2030.21;548.112;1.27
235;1995.41;548.112;1.27
236;1995.41;563.738;1.28
237;2020.13;544.206;1.28
238;2030.21;553.972;1.28
239;2032.65;532.243;1.28
240;2005.49;577.654;1.28
241;1963.37;559.832;1.28
242;1936.21;524.43;1.28
243;1968.25;583.514;1.29
244;2005.49;561.785;1.29
245;2017.69;561.785;1.29
246;2022.58;546.159;1.29
247;2003.04;569.842;1.29
248;1971;555.925;1.29
249;1971;583.514;1.29
250;2020.13;532.243;1.29
251;2047.3;557.878;1.3
252;2062.25;589.618;1.3
253;2054.93;526.383;1.3
254;2022.58;555.925;1.3
255;1985.65;553.972;1.3
256;1988.09;571.795;1.3
257;2010.37;550.066;1.3
258;2015.25;557.878;1.3
259;2017.69;542.009;1.31001
260;1995.41;589.618;1.31001
261;1951.16;561.785;1.31001
262;1924;534.196;1.31001
263;1958.49;595.477;1.31001
264;1992.97;561.785;1.31001
265;2005.49;565.935;1.31001
266;2007.93;553.972;1.31001
267;1990.53;575.701;1.32
268;1960.93;563.738;1.32
269;1958.49;589.618;1.32
270;2007.93;542.009;1.32
271;2037.53;559.832;1.32
272;2049.74;595.477;1.32
273;2042.41;538.102;1.32
274;2025.32;559.832;1.32
275;1988.09;557.878;1.32
276;1968.25;577.654;1.33
277;1992.97;553.972;1.33
278;2007.93;563.738;1.33
279;2010.37;542.009;1.33
280;1998.16;593.524;1.33
281;1960.93;569.842;1.33
282;1919.12;538.102;1.33
283;1931.33;597.43;1.33
284;1975.88;573.748;1.33
285;1992.97;569.842;1.34
286;2003.04;555.925;1.34
287;1990.53;579.608;1.34
288;1965.81;569.842;1.34
289;1941.09;591.571;1.34
290;1985.65;544.206;1.34
291;2022.58;569.842;1.34
292;2037.53;597.43;1.34
293;2039.97;538.102;1.34
294;2020.13;567.888;1.35
295;1980.77;567.888;1.35
296;1963.37;583.514;1.35
297;1988.09;561.785;1.35
298;2003.04;567.888;1.35
299;2005.49;546.159;1.35
300;1992.97;581.561;1.35
301;1956.05;579.608;1.35
302;1916.68;542.009;1.35
303;1928.88;585.467;1.36
304;1971;585.467;1.36
305;1988.09;579.608;1.36
306;1995.41;563.738;1.36
307;1983.21;585.467;1.36
308;1956.05;577.654;1.36
309;1936.21;599.384;1.36
310;1975.88;567.888;1.36
311;2015.25;569.842;1.36
312;2030.21;607.196;1.37
313;2035.09;557.878;1.37
314;2007.93;569.842;1.37
315;1973.44;567.888;1.37
316;1956.05;587.42;1.37
317;1980.77;565.935;1.37
318;1992.97;573.748;1.37
319;2000.6;552.019;1.37
320;1988.09;595.477;1.37
321;1946.28;581.561;1.38
322;1909.05;544.206;1.38
323;1926.44;599.384;1.38
324;1965.81;585.467;1.38
325;1985.65;583.514;1.38
326;1990.53;567.888;1.38
327;1980.77;593.524;1.38
328;1951.16;579.608;1.38
329;1933.77;605.243;1.38
330;1973.44;561.785;1.38
331;2012.81;575.701;1.39
332;2030.21;611.347;1.39
333;2032.65;555.925;1.39
334;2007.93;575.701;1.39
335;1968.25;571.795;1.39
336;1951.16;593.524;1.39
337;1980.77;567.888;1.39
338;1992.97;575.701;1.39
339;1998.16;555.925;1.39
340;1980.77;605.243;1.4
341;1948.72;583.514;1.4
342;1909.05;550.066;1.4
343;1921.56;609.149;1.4
344;1960.93;583.514;1.4
345;1980.77;583.514;1.4
346;1985.65;571.795;1.4
347;1975.88;591.571;1.4
348;1943.84;581.561;1.4
349;1928.88;605.243;1.4
350;1971;553.972;1.41
351;2010.37;577.654;1.41
352;2027.76;611.347;1.41
353;2030.21;550.066;1.41
354;2007.93;579.608;1.41
355;1968.25;577.654;1.41
356;1953.6;593.524;1.41
357;1978.32;571.795;1.41
358;1990.53;577.654;1.41
359;1992.97;565.935;1.41
360;1978.32;609.149;1.42001
361;1941.09;589.618;1.42001
362;1904.16;552.019;1.42001
363;1924;595.477;1.42001
364;1960.93;595.477;1.42001
365;1978.32;591.571;1.42001
366;1985.65;569.842;1.42001
367;1975.88;593.524;1.42001
368;1943.84;581.561;1.42001
369;1928.88;611.347;1.42001
370;1971;575.701;1.42001
371;2007.93;577.654;1.43
372;2025.32;615.253;1.43
373;2030.21;567.888;1.43
374;2005.49;573.748;1.43
375;1963.37;575.701;1.43
376;1951.16;593.524;1.43
377;1978.32;571.795;1.43
378;1990.53;579.608;1.43
379;1992.97;557.878;1.43
380;1975.88;599.384;1.43
381;1938.65;589.618;1.43
382;1901.72;552.019;1.44
383;1921.56;605.243;1.44
384;1963.37;589.618;1.44
385;1978.32;591.571;1.44
386;1983.21;571.795;1.44
387;1973.44;593.524;1.44
388;1943.84;583.514;1.44
389;1926.44;611.347;1.44
390;1973.44;563.738;1.44
391;2005.49;579.608;1.44
392;2025.32;615.253;1.44
393;2022.58;561.785;1.45
394;2000.6;577.654;1.45
395;1963.37;575.701;1.45
396;1948.72;595.477;1.45
397;1973.44;571.795;1.45
398;1985.65;583.514;1.45
399;1988.09;559.832;1.45
400;1973.44;609.149;1.45
401;1938.65;585.467;1.45
402;1901.72;555.925;1.45
403;1921.56;613.3;1.45
404;1958.49;587.42;1.46
405;1975.88;589.618;1.46
406;1980.77;571.795;1.46
407;1968.25;595.477;1.46
408;1938.65;583.514;1.46
409;1928.88;609.149;1.46
410;1973.44;559.832;1.46
411;2005.49;583.514;1.46
412;2020.13;611.347;1.46
413;2020.13;552.019;1.46
414;1992.97;579.608;1.46
415;1958.49;579.608;1.46
416;1948.72;595.477;1.47
417;1973.44;571.795;1.47
418;1988.09;579.608;1.47
419;1990.53;565.935;1.47
420;1975.88;611.347;1.47
421;1936.21;587.42;1.47
422;1901.72;555.925;1.47
423;1921.56;609.149;1.47
424;1958.49;589.618;1.47
425;1973.44;589.618;1.47
426;1983.21;571.795;1.47
427;1968.25;593.524;1.47
428;1941.09;583.514;1.48
429;1926.44;609.149;1.48
430;1971;563.738;1.48
431;2005.49;579.608;1.48
432;2022.58;615.253;1.48
433;2022.58;555.925;1.48
434;1995.41;581.561;1.48
435;1956.05;579.608;1.48
436;1943.84;593.524;1.48
437;1975.88;573.748;1.48
438;1983.21;581.561;1.48
439;1990.53;563.738;1.48
440;1973.44;611.347;1.49001
441;1928.88;585.467;1.49001
442;1899.28;553.972;1.49001
443;1921.56;617.206;1.49001
444;1960.93;587.42;1.49001
445;1973.44;587.42;1.49001
446;1978.32;573.748;1.49001
447;1965.81;595.477;1.49001
448;1936.21;583.514;1.49001
449;1926.44;605.243;1.49001
450;1971;557.878;1.49001
451;2005.49;585.467;1.49001
452;2015.25;611.347;1.49001
453;2015.25;552.019;1.5
454;1988.09;583.514;1.5
455;1951.16;577.654;1.5
456;1941.09;595.477;1.5
457;1971;577.654;1.5
458;1983.21;581.561;1.5
459;1985.65;557.878;1.5
460;1968.25;595.477;1.5
461;1928.88;591.571;1.5
462;1896.84;552.019;1.5
463;1921.56;599.384;1.5
464;1956.05;593.524;1.5
465;1968.25;591.571;1.51
466;1975.88;573.748;1.51
467;1963.37;595.477;1.51
468;1931.33;587.42;1.51
469;1924;611.347;1.51
470;1971;575.701;1.51
471;2000.6;579.608;1.51
472;2015.25;615.253;1.51
473;2015.25;565.935;1.51
474;1983.21;579.608;1.51
475;1948.72;575.701;1.51
476;1941.09;595.477;1.51
477;1968.25;571.795;1.52
478;1978.32;583.514;1.52
479;1983.21;557.878;1.52
480;1963.37;603.29;1.52
481;1926.44;589.618;1.52
482;1894.4;552.019;1.52
483;1916.68;607.196;1.52
484;1956.05;589.618;1.52
485;1968.25;589.618;1.52
486;1975.88;573.748;1.52
487;1958.49;597.43;1.52
488;1928.88;585.467;1.52
489;1921.56;611.347;1.52
490;1971;563.738;1.53
491;2000.6;581.561;1.53
492;2012.81;617.206;1.53
493;2015.25;559.832;1.53
494;1988.09;579.608;1.53
495;1951.16;577.654;1.53
496;1941.09;595.477;1.53
497;1968.25;571.795;1.53
498;1980.77;583.514;1.53
499;1980.77;563.738;1.53
500;1965.81;611.347;1.53
501;1924;589.618;1.53
502;1891.96;555.925;1.54
503;1919.12;617.206;1.54
504;1953.6;589.618;1.54
505;1965.81;591.571;1.54
506;1971;573.748;1.54
507;1958.49;593.524;1.54
508;1926.44;585.467;1.54
509;1921.56;609.149;1.54
510;1965.81;559.832;1.54
511;1998.16;583.514;1.54
512;2015.25;615.253;1.54
513;2012.81;552.019;1.54
514;1980.77;583.514;1.54
515;1946.28;581.561;1.55
516;1941.09;595.477;1.55
517;1965.81;575.701;1.55
518;1978.32;581.561;1.55
519;1980.77;561.785;1.55
520;1963.37;595.477;1.55
521;1924;593.524;1.55
522;1894.4;553.972;1.55
523;1921.56;599.384;1.55
524;1956.05;597.43;1.55
525;1968.25;593.524;1.55
526;1973.44;575.701;1.55
527;1958.49;599.384;1.56001
528;1928.88;585.467;1.56001
529;1924;611.347;1.56001
530;1971;577.654;1.56001
531;1998.16;581.561;1.56001
532;2012.81;615.253;1.56001
533;2007.93;569.842;1.56001
534;1983.21;579.608;1.56001
535;1946.28;579.608;1.56001
536;1941.09;597.43;1.56001
537;1968.25;575.701;1.56001
538;1973.44;583.514;1.56001
539;1978.32;559.832;1.56001
540;1960.93;605.243;1.57
541;1919.12;589.618;1.57
542;1886.77;555.925;1.57
543;1916.68;609.149;1.57
544;1948.72;589.618;1.57
545;1965.81;593.524;1.57
546;1968.25;573.748;1.57
547;1953.6;597.43;1.57
548;1924;585.467;1.57
549;1919.12;609.149;1.57
550;1965.81;567.888;1.57
551;1995.41;581.561;1.57
552;2010.37;617.206;1.58
553;2007.93;559.832;1.58
554;1975.88;583.514;1.58
555;1941.09;579.608;1.58
556;1938.65;597.43;1.58
557;1965.81;573.748;1.58
558;1973.44;587.42;1.58
559;1973.44;565.935;1.58
560;1953.6;615.253;1.58
561;1913.93;587.42;1.58
562;1881.89;557.878;1.58
563;1913.93;615.253;1.58
564;1948.72;587.42;1.58
565;1960.93;589.618;1.59
566;1965.81;577.654;1.59
567;1951.16;597.43;1.59
568;1921.56;583.514;1.59
569;1919.12;609.149;1.59
570;1965.81;561.785;1.59
571;1995.41;587.42;1.59
572;2010.37;615.253;1.59
573;2005.49;553.972;1.59
574;1973.44;581.561;1.59
575;1941.09;583.514;1.59
576;1938.65;597.43;1.59
577;1963.37;577.654;1.59
578;1973.44;581.561;1.6
579;1973.44;569.842;1.6
580;1953.6;611.347;1.6
581;1913.93;589.618;1.6
582;1886.77;553.972;1.6
583;1916.68;613.3;1.6
584;1948.72;589.618;1.6
585;1963.37;591.571;1.6
586;1971;577.654;1.6
587;1956.05;597.43;1.6
588;1924;585.467;1.6
589;1924;611.347;1.6
590;1971;561.785;1.6
591;2000.6;583.514;1.61
592;2012.81;615.253;1.61
593;2007.93;557.878;1.61
594;1980.77;583.514;1.61
595;1943.84;579.608;1.61
596;1943.84;595.477;1.61
597;1968.25;575.701;1.61
598;1978.32;585.467;1.61
599;1975.88;565.935;1.61
600;1958.49;613.3;1.61
601;1916.68;587.42;1.61
602;1889.52;557.878;1.61
603;1921.56;621.113;1.61
604;1953.6;587.42;1.61
605;1965.81;587.42;1.62
606;1973.44;575.701;1.62
607;1956.05;595.477;1.62
608;1924;587.42;1.62
609;1926.44;605.243;1.62
610;1968.25;561.785;1.62
611;1998.16;585.467;1.62
612;2010.37;617.206;1.62
613;2007.93;575.701;1.62
614;1975.88;575.701;1.62
615;1938.65;577.654;1.62
616;1943.84;595.477;1.62
617;1971;575.701;1.62
618;1978.32;579.608;1.62
619;1975.88;557.878;1.63
620;1958.49;597.43;1.63
621;1919.12;589.618;1.63
622;1891.96;553.972;1.63
623;1921.56;603.29;1.63
624;1951.16;593.524;1.63
625;1965.81;589.618;1.63
626;1968.25;573.748;1.63
627;1951.16;595.477;1.63
628;1921.56;585.467;1.63
629;1921.56;611.347;1.63
630;1971;571.795;1.63
631;2000.6;579.608;1.63
632;2012.81;617.206;1.64
633;2007.93;563.738;1.64
634;1975.88;577.654;1.64
635;1941.09;577.654;1.64
636;1941.09;595.477;1.64
637;1965.81;571.795;1.64
638;1973.44;581.561;1.64
639;1973.44;561.785;1.64
640;1953.6;609.149;1.64
641;1911.49;589.618;1.64
642;1886.77;553.972;1.64
643;1916.68;611.347;1.64
644;1946.28;587.42;1.64
645;1960.93;589.618;1.64
646;1963.37;575.701;1.65
647;1943.84;597.43;1.65
648;1916.68;583.514;1.65
649;1919.12;607.196;1.65
650;1965.81;561.785;1.65
651;1995.41;581.561;1.65
652;2007.93;615.253;1.65
653;2000.6;555.925;1.65
654;1971;579.608;1.65
655;1936.21;577.654;1.65
656;1938.65;595.477;1.65
657;1965.81;573.748;1.65
658;1968.25;581.561;1.65
659;1971;563.738;1.65
660;1948.72;611.347;1.66
661;1904.16;585.467;1.66
662;1881.89;555.925;1.66
663;1913.93;617.206;1.66
664;1946.28;587.42;1.66
665;1953.6;587.42;1.66
666;1963.37;573.748;1.66
667;1953.6;593.524;1.66
668;1926.44;587.42;1.66
669;1909.05;605.243;1.66
670;1951.16;557.878;1.66
671;1988.09;581.561;1.66
672;2005.49;609.149;1.66
673;2007.93;548.112;1.66
674;1985.65;569.842;1.66
675;1951.16;575.701;1.67001
676;1931.33;593.524;1.67001
677;1958.49;575.701;1.67001
678;1968.25;581.561;1.67001
679;1971;555.925;1.67001
680;1960.93;597.43;1.67001
681;1924;587.42;1.67001
682;1886.77;550.066;1.67001
683;1901.72;601.337;1.67001
684;1936.21;591.571;1.67001
685;1953.6;587.42;1.67001
686;1963.37;571.795;1.67001
687;1951.16;593.524;1.67001
688;1924;583.514;1.67001
689;1909.05;609.149;1.68
690;1948.72;571.795;1.68
691;1985.65;579.608;1.68
692;2003.04;615.253;1.68
693;2005.49;563.738;1.68
694;1985.65;577.654;1.68
695;1946.28;575.701;1.68
696;1931.33;593.524;1.68
697;1958.49;569.842;1.68
698;1971;581.561;1.68
699;1971;557.878;1.68
700;1958.49;605.243;1.68
701;1924;587.42;1.68
702;1886.77;552.019;1.68
703;1901.72;609.149;1.69
704;1941.09;587.42;1.69
705;1956.05;589.618;1.69
706;1963.37;571.795;1.69
707;1956.05;597.43;1.69
708;1926.44;583.514;1.69
709;1911.49;607.196;1.69
710;1951.16;561.785;1.69
711;1985.65;579.608;1.69
712;2003.04;613.3;1.69
713;2005.49;553.972;1.69
714;1980.77;579.608;1.69
715;1943.84;577.654;1.69
716;1931.33;595.477;1.69
717;1953.6;571.795;1.7
718;1968.25;581.561;1.7
719;1973.44;559.832;1.7
720;1960.93;611.347;1.7
721;1921.56;583.514;1.7
722;1884.33;552.019;1.7
723;1904.16;615.253;1.7
724;1941.09;585.467;1.7
725;1956.05;585.467;1.7
726;1963.37;571.795;1.7
727;1956.05;591.571;1.7
728;1926.44;583.514;1.7
729;1911.49;603.29;1.7
730;1953.6;557.878;1.71
731;1988.09;581.561;1.71
732;2003.04;607.196;1.71
733;2005.49;548.112;1.71
734;1980.77;581.561;1.71
735;1943.84;579.608;1.71
736;1928.88;591.571;1.71
737;1958.49;569.842;1.71
738;1971;579.608;1.71
739;1971;559.832;1.71
740;1960.93;607.196;1.71
741;1924;587.42;1.71
742;1886.77;552.019;1.71
743;1906.61;609.149;1.71
744;1943.84;585.467;1.72
745;1958.49;585.467;1.72
746;1963.37;567.888;1.72
747;1956.05;593.524;1.72
748;1926.44;583.514;1.72
749;1913.93;605.243;1.72
750;1958.49;557.878;1.72
751;1988.09;579.608;1.72
752;2005.49;611.347;1.72
753;2007.93;552.019;1.72
754;1980.77;579.608;1.72
755;1946.28;579.608;1.72
756;1933.77;589.618;1.72
757;1958.49;571.795;1.72
758;1973.44;581.561;1.73
759;1973.44;563.738;1.73
760;1958.49;611.347;1.73
761;1921.56;587.42;1.73
762;1886.77;557.878;1.73
763;1909.05;617.206;1.73
764;1943.84;587.42;1.73
765;1960.93;583.514;1.73
766;1965.81;573.748;1.73
767;1953.6;591.571;1.73
768;1924;583.514;1.73
769;1913.93;609.149;1.73
770;1958.49;571.795;1.73
771;1988.09;577.654;1.73
772;2003.04;613.3;1.74001
773;2003.04;569.842;1.74001
774;1980.77;575.701;1.74001
775;1943.84;573.748;1.74001
776;1931.33;593.524;1.74001
777;1958.49;571.795;1.74001
778;1968.25;581.561;1.74001
779;1971;555.925;1.74001
780;1958.49;599.384;1.74001
781;1919.12;587.42;1.74001
782;1884.33;550.066;1.74001
783;1906.61;603.29;1.74001
784;1941.09;589.618;1.74001
785;1958.49;589.618;1.74001
786;1965.81;571.795;1.75
787;1953.6;593.524;1.75
788;1926.44;587.42;1.75
789;1913.93;609.149;1.75
790;1956.05;565.935;1.75
791;1985.65;579.608;1.75
792;2005.49;615.253;1.75
793;2005.49;557.878;1.75
794;1980.77;577.654;1.75
795;1941.09;573.748;1.75
796;1931.33;593.524;1.75
797;1958.49;571.795;1.75
798;1971;583.514;1.75
799;1968.25;559.832;1.76
800;1953.6;609.149;1.76
801;1913.93;585.467;1.76
802;1879.44;550.066;1.76
803;1901.72;607.196;1.76
804;1941.09;585.467;1.76
805;1956.05;587.42;1.76
806;1960.93;571.795;1.76
807;1948.72;593.524;1.76
808;1919.12;581.561;1.76
809;1909.05;605.243;1.76
810;1953.6;561.785;1.76
811;1985.65;581.561;1.76
812;2000.6;611.347;1.76
813;2003.04;552.019;1.77
814;1973.44;579.608;1.77
815;1938.65;579.608;1.77
816;1931.33;591.571;1.77
817;1956.05;571.795;1.77
818;1965.81;579.608;1.77
819;1968.25;563.738;1.77
820;1951.16;609.149;1.77
821;1913.93;583.514;1.77
822;1879.44;557.878;1.77
823;1906.61;621.113;1.77
824;1941.09;583.514;1.77
825;1956.05;583.514;1.77
826;1963.37;573.748;1.77
827;1951.16;591.571;1.78
828;1924;583.514;1.78
829;1911.49;603.29;1.78
830;1960.93;577.654;1.78
831;1992.97;575.701;1.78
832;2007.93;611.347;1.78
833;2005.49;567.888;1.78
834;1978.32;571.795;1.78
835;1946.28;573.748;1.78
836;1936.21;595.477;1.78
837;1960.93;571.795;1.78
838;1971;579.608;1.78
839;1971;555.925;1.78
840;1953.6;595.477;1.78
841;1911.49;587.42;1.79
842;1881.89;550.066;1.79
843;1909.05;603.29;1.79
844;1941.09;587.42;1.79
845;1958.49;587.42;1.79
846;1963.37;569.842;1.79
847;1948.72;595.477;1.79
848;1921.56;581.561;1.79
849;1911.49;611.347;1.79
850;1958.49;565.935;1.79
851;1990.53;577.654;1.79
852;2003.04;615.253;1.79
853;2003.04;561.785;1.79
854;1978.32;575.701;1.79
855;1941.09;573.748;1.8
856;1933.77;593.524;1.8
857;1958.49;567.888;1.8
858;1968.25;579.608;1.8
859;1968.25;557.878;1.8
860;1951.16;607.196;1.8
861;1913.93;585.467;1.8
862;1879.44;552.019;1.8
863;1909.05;607.196;1.8
864;1943.84;587.42;1.8
865;1958.49;585.467;1.8
866;1965.81;571.795;1.8
867;1948.72;595.477;1.8
868;1921.56;581.561;1.8
869;1913.93;607.196;1.81001
870;1960.93;559.832;1.81001
871;1990.53;579.608;1.81001
872;2005.49;613.3;1.81001
873;2005.49;553.972;1.81001
874;1978.32;579.608;1.81001
875;1941.09;577.654;1.81001
876;1933.77;591.571;1.81001
877;1963.37;571.795;1.81001
878;1973.44;577.654;1.81001
879;1973.44;563.738;1.81001
880;1953.6;609.149;1.81001
881;1916.68;585.467;1.81001
882;1884.33;553.972;1.81001
883;1911.49;619.16;1.82
884;1946.28;585.467;1.82
885;1958.49;583.514;1.82
886;1965.81;571.795;1.82
887;1948.72;589.618;1.82
888;1919.12;585.467;1.82
889;1913.93;601.337;1.82
890;1960.93;559.832;1.82
891;1990.53;585.467;1.82
892;2003.04;605.243;1.82
893;2003.04;555.925;1.82
894;1975.88;579.608;1.82
895;1938.65;575.701;1.82
896;1933.77;593.524;1.82
897;1960.93;569.842;1.83
898;1971;577.654;1.83
899;1975.88;557.878;1.83
900;1956.05;607.196;1.83
901;1916.68;583.514;1.83
902;1886.77;552.019;1.83
903;1913.93;611.347;1.83
904;1948.72;585.467;1.83
905;1960.93;583.514;1.83
906;1963.37;567.888;1.83
907;1951.16;593.524;1.83
908;1919.12;579.608;1.83
909;1916.68;601.337;1.83
910;1965.81;553.972;1.83
911;1992.97;581.561;1.84
912;2010.37;611.347;1.84
913;2007.93;548.112;1.84
914;1978.32;577.654;1.84
915;1943.84;577.654;1.84
916;1941.09;593.524;1.84
917;1965.81;571.795;1.84
918;1973.44;577.654;1.84
919;1978.32;563.738;1.84
920;1958.49;607.196;1.84
921;1919.12;579.608;1.84
922;1889.52;557.878;1.84
923;1916.68;617.206;1.84
924;1948.72;591.571;1.84
925;1963.37;585.467;1.85
926;1965.81;569.842;1.85
927;1951.16;593.524;1.85
928;1921.56;581.561;1.85
929;1919.12;609.149;1.85
930;1968.25;571.795;1.85
931;1998.16;575.701;1.85
932;2010.37;613.3;1.85
933;2007.93;563.738;1.85
934;1980.77;573.748;1.85
935;1941.09;573.748;1.85
936;1941.09;595.477;1.85
937;1968.25;569.842;1.85
938;1975.88;577.654;1.85
939;1978.32;555.925;1.86
940;1958.49;599.384;1.86
941;1919.12;585.467;1.86
942;1889.52;546.159;1.86
943;1919.12;601.337;1.86
944;1951.16;587.42;1.86
945;1965.81;587.42;1.86
946;1968.25;569.842;1.86
947;1953.6;593.524;1.86
948;1924;583.514;1.86
949;1924;605.243;1.86
950;1973.44;561.785;1.86
951;2000.6;575.701;1.86
952;2012.81;613.3;1.86
953;2007.93;557.878;1.87
954;1980.77;577.654;1.87
955;1943.84;573.748;1.87
956;1946.28;593.524;1.87
957;1973.44;569.842;1.87
958;1980.77;581.561;1.87
959;1983.21;557.878;1.87
960;1960.93;607.196;1.87
961;1921.56;583.514;1.87
962;1894.4;552.019;1.87
963;1924;613.3;1.87
964;1958.49;583.514;1.87
965;1973.44;585.467;1.87
966;1975.88;569.842;1.87
967;1960.93;591.571;1.88
968;1926.44;581.561;1.88
969;1926.44;603.29;1.88
970;1975.88;553.972;1.88
971;2003.04;579.608;1.88
972;2017.69;609.149;1.88
973;2010.37;550.066;1.88
974;1983.21;577.654;1.88
975;1946.28;577.654;1.88
976;1946.28;593.524;1.88
977;1973.44;571.795;1.88
978;1978.32;577.654;1.88
979;1983.21;559.832;1.88
980;1960.93;609.149;1.88
981;1919.12;579.608;1.88
982;1894.4;555.925;1.89
983;1921.56;619.16;1.89
984;1956.05;581.561;1.89
985;1965.81;583.514;1.89
986;1971;571.795;1.89
987;1956.05;591.571;1.89
988;1924;583.514;1.89
989;1924;607.196;1.89
990;1971;571.795;1.89
991;1998.16;575.701;1.89
992;2012.81;613.3;1.89
993;2010.37;563.738;1.89
994;1978.32;571.795;1.89
995;1943.84;573.748;1.89
996;1943.84;593.524;1.89
997;1973.44;571.795;1.9
998;1983.21;577.654;1.9
999;1983.21;553.972;1.9
1000;1960.93;597.43;1.9
1001;1919.12;583.514;1.9
1002;1894.4;548.112;1.9
1003;1924;601.337;1.9
1004;1956.05;589.618;1.9
1005;1971;587.42;1.9
1006;1973.44;567.888;1.9
1007;1953.6;593.524;1.9
1008;1926.44;581.561;1.9
1009;1928.88;607.196;1.9
1010;1978.32;561.785;1.9
1011;2007.93;577.654;1.9
1012;2017.69;611.347;1.9
1013;2015.25;555.925;1.91
1014;1983.21;575.701;1.91
1015;1948.72;573.748;1.91
1016;1948.72;593.524;1.91
1017;1975.88;569.842;1.91
1018;1980.77;577.654;1.91
1019;1980.77;557.878;1.91
1020;1960.93;607.196;1.91
1021;1919.12;585.467;1.91
1022;1891.96;548.112;1.91
1023;1926.44;611.347;1.91
1024;1958.49;585.467;1.91
1025;1973.44;585.467;1.91
1026;1971;569.842;1.91
1027;1956.05;593.524;1.91
1028;1928.88;581.561;1.92001
1029;1931.33;603.29;1.92001
1030;1980.77;555.925;1.92001
1031;2005.49;579.608;1.92001
1032;2020.13;609.149;1.92001
1033;2012.81;552.019;1.92001
1034;1983.21;575.701;1.92001
1035;1946.28;575.701;1.92001
1036;1953.6;591.571;1.92001
1037;1980.77;571.795;1.92001
1038;1988.09;579.608;1.92001
1039;1988.09;561.785;1.92001
1040;1963.37;607.196;1.92001
1041;1921.56;581.561;1.92001
1042;1901.72;555.925;1.93
1043;1936.21;619.16;1.93
1044;1965.81;581.561;1.93
1045;1980.77;583.514;1.93
1046;1983.21;571.795;1.93
1047;1963.37;589.618;1.93
1048;1933.77;585.467;1.93
1049;1938.65;607.196;1.93
1050;1990.53;559.832;1.93
1051;2015.25;577.654;1.93
1052;2032.65;611.347;1.93
1053;2022.58;555.925;1.93
1054;1988.09;575.701;1.93
1055;1958.49;573.748;1.93
1056;1960.93;593.524;1.93
1057;1983.21;569.842;1.94
1058;1990.53;579.608;1.94
1059;1990.53;557.878;1.94
1060;1973.44;607.196;1.94
1061;1933.77;583.514;1.94
1062;1901.72;553.972;1.94
1063;1928.88;615.253;1.94
1064;1960.93;581.561;1.94
1065;1975.88;583.514;1.94
1066;1980.77;569.842;1.94
1067;1968.25;593.524;1.94
1068;1936.21;583.514;1.94
1069;1931.33;603.29;1.94
1070;1980.77;555.925;1.94
1071;2012.81;579.608;1.94
1072;2027.76;605.243;1.95
1073;2022.58;546.159;1.95
1074;1995.41;579.608;1.95
1075;1958.49;577.654;1.95
1076;1953.6;591.571;1.95
1077;1980.77;569.842;1.95
1078;1988.09;575.701;1.95
1079;1988.09;565.935;1.95
1080;1971;607.196;1.95
1081;1931.33;583.514;1.95
1082;1901.72;550.066;1.95
1083;1928.88;597.43;1.95
1084;1965.81;591.571;1.95
1085;1980.77;587.42;1.95
1086;1983.21;569.842;1.96
1087;1968.25;593.524;1.96
1088;1938.65;583.514;1.96
1089;1933.77;609.149;1.96
1090;1983.21;567.888;1.96
1091;2012.81;575.701;1.96
1092;2025.32;615.253;1.96
1093;2025.32;561.785;1.96
1094;1992.97;573.748;1.96
1095;1956.05;573.748;1.96
1096;1953.6;589.618;1.96
1097;1980.77;569.842;1.96
1098;1990.53;577.654;1.96
1099;1988.09;553.972;1.96
1100;1971;601.337;1.96
1101;1931.33;585.467;1.97
1102;1899.28;548.112;1.97
1103;1931.33;603.29;1.97
1104;1960.93;585.467;1.97
1105;1978.32;585.467;1.97
1106;1980.77;569.842;1.97
1107;1965.81;593.524;1.97
1108;1933.77;577.654;1.97
1109;1931.33;605.243;1.97
1110;1985.65;557.878;1.97
1111;2010.37;577.654;1.97
1112;2027.76;611.347;1.97
1113;2025.32;552.019;1.97
1114;1992.97;575.701;1.97
1115;1958.49;571.795;1.98
1116;1956.05;593.524;1.98
1117;1983.21;569.842;1.98
1118;1992.97;579.608;1.98
1119;1992.97;559.832;1.98
1120;1971;609.149;1.98
1121;1931.33;581.561;1.98
1122;1901.72;552.019;1.98
1123;1933.77;611.347;1.98
1124;1968.25;581.561;1.98
1125;1978.32;583.514;1.98
1126;1983.21;571.795;1.98
1127;1971;591.571;1.98
1128;1941.09;583.514;1.98
1129;1938.65;601.337;1.99001
1130;1985.65;555.925;1.99001
1131;2015.25;579.608;1.99001
1132;2030.21;609.149;1.99001
1133;2025.32;544.206;1.99001
1134;1992.97;577.654;1.99001
1135;1956.05;577.654;1.99001
1136;1958.49;593.524;1.99001
1137;1988.09;569.842;1.99001
1138;1990.53;575.701;1.99001
1139;1995.41;563.738;1.99001
1140;1973.44;605.243;1.99001
1141;1933.77;577.654;1.99001
1142;1904.16;557.878;1.99001
1143;1933.77;593.524;2
1144;1965.81;589.618;2
1145;1978.32;585.467;2
1146;1983.21;569.842;2
1147;1963.37;593.524;2
1148;1936.21;581.561;2
1149;1933.77;609.149;2
1150;1985.65;569.842;2
1151;2012.81;571.795;2
1152;2025.32;611.347;2
1153;2022.58;559.832;2
1154;1990.53;575.701;2
1155;1956.05;569.842;2
1156;1960.93;591.571;2.01
1157;1988.09;569.842;2.01
1158;1995.41;575.701;2.01
1159;1998.16;553.972;2.01
1160;1978.32;601.337;2.01
1161;1936.21;585.467;2.01
1162;1909.05;546.159;2.01
1163;1941.09;603.29;2.01
1164;1973.44;589.618;2.01
1165;1985.65;587.42;2.01
1166;1988.09;569.842;2.01
1167;1973.44;593.524;2.01
1168;1943.84;577.654;2.01
1169;1941.09;607.196;2.01
1170;1992.97;559.832;2.01
1171;2020.13;579.608;2.02
1172;2032.65;609.149;2.02
1173;2032.65;553.972;2.02
1174;2000.6;575.701;2.02
1175;1965.81;573.748;2.02
1176;1965.81;591.571;2.02
1177;1992.97;567.888;2.02
1178;2000.6;579.608;2.02
1179;2005.49;557.878;2.02
1180;1978.32;611.347;2.02
1181;1938.65;583.514;2.02
1182;1911.49;552.019;2.02
1183;1946.28;611.347;2.02
1184;1978.32;583.514;2.03
1185;1992.97;583.514;2.03
1186;1995.41;569.842;2.03
1187;1978.32;591.571;2.03
1188;1948.72;579.608;2.03
1189;1948.72;599.384;2.03
1190;1998.16;555.925;2.03
1191;2025.32;577.654;2.03
1192;2037.53;607.196;2.03
1193;2030.21;548.112;2.03
1194;2000.6;577.654;2.03
1195;1963.37;579.608;2.03
1196;1968.25;591.571;2.03
1197;1995.41;569.842;2.03
1198;2003.04;575.701;2.04
1199;2005.49;561.785;2.04
1200;1980.77;605.243;2.04
1201;1938.65;577.654;2.04
1202;1916.68;555.925;2.04
1203;1948.72;619.16;2.04
1204;1978.32;581.561;2.04
1205;1990.53;579.608;2.04
1206;1992.97;569.842;2.04
1207;1973.44;589.618;2.04
1208;1946.28;583.514;2.04
1209;1948.72;603.29;2.04
1210;2000.6;555.925;2.04
1211;2025.32;577.654;2.04
1212;2039.97;609.149;2.05
1213;2032.65;550.066;2.05
1214;2000.6;575.701;2.05
1215;1965.81;575.701;2.05
1216;1971;589.618;2.05
1217;1998.16;569.842;2.05
1218;2003.04;577.654;2.05
1219;2003.04;557.878;2.05
1220;1983.21;607.196;2.05
1221;1941.09;581.561;2.05
1222;1916.68;552.019;2.05
1223;1953.6;617.206;2.05
1224;1983.21;579.608;2.05
1225;1995.41;583.514;2.05
1226;1998.16;571.795;2.06001
1227;1980.77;589.618;2.06001
1228;1948.72;581.561;2.06001
1229;1958.49;599.384;2.06001
1230;2005.49;555.925;2.06001
1231;2032.65;581.561;2.06001
1232;2044.85;605.243;2.06001
1233;2037.53;542.009;2.06001
1234;2005.49;577.654;2.06001
1235;1968.25;577.654;2.06001
1236;1978.32;591.571;2.06001
1237;2003.04;569.842;2.06001
1238;2010.37;579.608;2.06001
1239;2012.81;552.019;2.06001
1240;1988.09;595.477;2.07
1241;1948.72;587.42;2.07
1242;1921.56;548.112;2.07
1243;1963.37;599.384;2.07
1244;1990.53;589.618;2.07
1245;2003.04;587.42;2.07
1246;2003.04;569.842;2.07
1247;1985.65;591.571;2.07
1248;1953.6;579.608;2.07
1249;1960.93;605.243;2.07
1250;2012.81;567.888;2.07
1251;2037.53;577.654;2.07
1252;2047.3;613.3;2.07
1253;2049.74;559.832;2.07
1254;2025.32;575.701;2.08
1255;1988.09;571.795;2.08
1256;1973.44;591.571;2.08
1257;2000.6;567.888;2.08
1258;2015.25;579.608;2.08
1259;2017.69;553.972;2.08
1260;2005.49;603.29;2.08
1261;1968.25;581.561;2.08
1262;1931.33;548.112;2.08
1263;1948.72;605.243;2.08
1264;1985.65;585.467;2.08
1265;2003.04;583.514;2.08
1266;2010.37;569.842;2.08
1267;1998.16;591.571;2.08
1268;1965.81;579.608;2.09
1269;1953.6;603.29;2.09
1270;1998.16;553.972;2.09
1271;2035.09;577.654;2.09
1272;2049.74;609.149;2.09
1273;2054.93;550.066;2.09
1274;2030.21;575.701;2.09
1275;1992.97;575.701;2.09
1276;1978.32;591.571;2.09
1277;2005.49;569.842;2.09
1278;2020.13;577.654;2.09
1279;2020.13;561.785;2.09
1280;2007.93;607.196;2.09
1281;1968.25;581.561;2.09
1282;1931.33;552.019;2.1
1283;1951.16;613.3;2.1
1284;1990.53;581.561;2.1
1285;2005.49;583.514;2.1
1286;2015.25;569.842;2.1
1287;2005.49;589.618;2.1
1288;1975.88;583.514;2.1
1289;1958.49;601.337;2.1
1290;2003.04;553.972;2.1
1291;2037.53;579.608;2.1
1292;2054.93;605.243;2.1
1293;2054.93;544.206;2.1
1294;2032.65;577.654;2.1
1295;1992.97;577.654;2.1
1296;1983.21;589.618;2.11
1297;2010.37;569.842;2.11
1298;2022.58;575.701;2.11
1299;2025.32;565.935;2.11
1300;2012.81;593.524;2.11
1301;1975.88;583.514;2.11
1302;1938.65;550.066;2.11
1303;1956.05;595.477;2.11
1304;1995.41;587.42;2.11
1305;2010.37;585.467;2.11
1306;2017.69;567.888;2.11
1307;2003.04;593.524;2.11
1308;1973.44;579.608;2.11
1309;1960.93;603.29;2.11
1310;2007.93;567.888;2.12
1311;2042.41;575.701;2.12
1312;2057.37;609.149;2.12
1313;2059.81;555.925;2.12
1314;2035.09;573.748;2.12
1315;1998.16;571.795;2.12
1316;1988.09;591.571;2.12
1317;2012.81;567.888;2.12
1318;2027.76;579.608;2.12
1319;2030.21;553.972;2.12
1320;2015.25;603.29;2.12
1321;1975.88;585.467;2.12
1322;1938.65;548.112;2.12
1323;1960.93;605.243;2.12
1324;2003.04;581.561;2.12
1325;2015.25;583.514;2.13
1326;2022.58;567.888;2.13
1327;2010.37;593.524;2.13
1328;1980.77;579.608;2.13
1329;1965.81;605.243;2.13
1330;2012.81;559.832;2.13
1331;2044.85;575.701;2.13
1332;2062.25;609.149;2.13
1333;2062.25;552.019;2.13
1334;2035.09;575.701;2.13
1335;1995.41;573.748;2.13
1336;1988.09;589.618;2.13
1337;2017.69;569.842;2.13
1338;2032.65;577.654;2.13
1339;2035.09;557.878;2.14
1340;2017.69;607.196;2.14
1341;1978.32;583.514;2.14
1342;1941.09;552.019;2.14
1343;1963.37;611.347;2.14
1344;2003.04;579.608;2.14
1345;2017.69;579.608;2.14
1346;2022.58;569.842;2.14
1347;2010.37;589.618;2.14
1348;1978.32;579.608;2.14
1349;1968.25;601.337;2.14
1350;2015.25;553.972;2.14
1351;2049.74;579.608;2.14
1352;2064.69;603.29;2.14
1353;2064.69;542.009;2.14
1354;2037.53;577.654;2.15
1355;1998.16;575.701;2.15
1356;1990.53;589.618;2.15
1357;2020.13;569.842;2.15
1358;2030.21;573.748;2.15
1359;2035.09;563.738;2.15
1360;2015.25;605.243;2.15
1361;1978.32;577.654;2.15
1362;1946.28;555.925;2.15
1363;1965.81;605.243;2.15
1364;2003.04;581.561;2.15
1365;2020.13;581.561;2.15
1366;2025.32;569.842;2.15
1367;2010.37;587.42;2.15
1368;1980.77;579.608;2.16
1369;1971;601.337;2.16
1370;2015.25;552.019;2.16
1371;2049.74;575.701;2.16
1372;2064.69;609.149;2.16
1373;2064.69;548.112;2.16
1374;2037.53;573.748;2.16
1375;1998.16;575.701;2.16
1376;1992.97;589.618;2.16
1377;2022.58;567.888;2.16
1378;2037.53;573.748;2.16
1379;2037.53;557.878;2.16
1380;2022.58;607.196;2.16
1381;1980.77;577.654;2.16
1382;1948.72;553.972;2.16
1383;1968.25;617.206;2.17001
1384;2007.93;579.608;2.17001
1385;2022.58;579.608;2.17001
1386;2027.76;569.842;2.17001
1387;2015.25;587.42;2.17001
1388;1983.21;583.514;2.17001
1389;1975.88;597.43;2.17001
1390;2025.32;553.972;2.17001
1391;2057.37;581.561;2.17001
1392;2072.02;599.384;2.17001
1393;2072.02;542.009;2.17001
1394;2044.85;569.842;2.17001
1395;2005.49;569.842;2.17001
1396;2000.6;587.42;2.18
1397;2032.65;567.888;2.18
1398;2039.97;575.701;2.18
1399;2039.97;552.019;2.18
1400;2025.32;595.477;2.18
1401;1983.21;583.514;2.18
1402;1948.72;546.159;2.18
1403;1975.88;599.384;2.18
1404;2010.37;587.42;2.18
1405;2025.32;583.514;2.18
1406;2030.21;567.888;2.18
1407;2017.69;591.571;2.18
1408;1983.21;579.608;2.18
1409;1973.44;605.243;2.18
1410;2027.76;559.832;2.19
1411;2059.81;575.701;2.19
1412;2072.02;609.149;2.19
1413;2069.57;555.925;2.19
1414;2042.41;575.701;2.19
1415;2005.49;571.795;2.19
1416;2000.6;591.571;2.19
1417;2032.65;567.888;2.19
1418;2039.97;577.654;2.19
1419;2039.97;553.972;2.19
1420;2020.13;603.29;2.19
1421;1980.77;581.561;2.19
1422;1946.28;546.159;2.19
1423;1975.88;607.196;2.2
1424;2012.81;581.561;2.2
1425;2032.65;581.561;2.2
1426;2035.09;567.888;2.2
1427;2020.13;589.618;2.2
1428;1988.09;577.654;2.2
1429;1983.21;603.29;2.2
1430;2032.65;553.972;2.2
1431;2064.69;577.654;2.2
1432;2082.09;605.243;2.2
1433;2076.9;550.066;2.2
1434;2047.3;577.654;2.2
1435;2007.93;571.795;2.2
1436;2007.93;589.618;2.21
1437;2035.09;567.888;2.21
1438;2044.85;573.748;2.21
1439;2044.85;559.832;2.21
1440;2025.32;607.196;2.21
1441;1985.65;579.608;2.21
1442;1956.05;553.972;2.21
1443;1985.65;617.206;2.21
1444;2020.13;577.654;2.21
1445;2035.09;579.608;2.21
1446;2037.53;565.935;2.21
1447;2022.58;585.467;2.21
1448;1992.97;581.561;2.21
1449;1983.21;599.384;2.21
1450;2037.53;553.972;2.22
1451;2069.57;581.561;2.22
1452;2082.09;603.29;2.22
1453;2082.09;540.056;2.22
1454;2047.3;575.701;2.22
1455;2017.69;577.654;2.22
1456;2010.37;589.618;2.22
1457;2042.41;569.842;2.22
1458;2049.74;575.701;2.22
1459;2052.48;552.019;2.22
1460;2035.09;595.477;2.22
1461;1990.53;579.608;2.22
1462;1958.49;546.159;2.22
1463;1990.53;597.43;2.23
1464;2027.76;585.467;2.23
1465;2042.41;585.467;2.23
1466;2049.74;567.888;2.23
1467;2032.65;593.524;2.23
1468;2000.6;577.654;2.23
1469;1995.41;605.243;2.23
1470;2047.3;563.738;2.23
1471;2076.9;575.701;2.23
1472;2091.85;609.149;2.23
1473;2086.97;555.925;2.23
1474;2057.37;571.795;2.23
1475;2015.25;571.795;2.23
1476;2015.25;587.42;2.24001
1477;2042.41;563.738;2.24001
1478;2052.48;577.654;2.24001
1479;2052.48;553.972;2.24001
1480;2035.09;603.29;2.24001
1481;1990.53;579.608;2.24001
1482;1958.49;544.206;2.24001
1483;1992.97;605.243;2.24001
1484;2027.76;583.514;2.24001
1485;2039.97;581.561;2.24001
1486;2047.3;565.935;2.24001
1487;2030.21;589.618;2.24001
1488;1998.16;577.654;2.25
1489;1995.41;603.29;2.25
1490;2047.3;552.019;2.25
1491;2076.9;573.748;2.25
1492;2091.85;609.149;2.25
1493;2086.97;550.066;2.25
1494;2062.25;575.701;2.25
1495;2022.58;571.795;2.25
1496;2020.13;589.618;2.25
1497;2049.74;567.888;2.25
1498;2059.81;573.748;2.25
1499;2057.37;557.878;2.25
1500;2039.97;605.243;2.26
1501;1998.16;579.608;2.26
1502;1968.25;550.066;2.26
1503;2000.6;611.347;2.26
1504;2035.09;579.608;2.26
1505;2047.3;579.608;2.26
1506;2049.74;567.888;2.26
1507;2035.09;587.42;2.26
1508;2000.6;579.608;2.26
1509;1998.16;599.384;2.26
1510;2049.74;550.066;2.26
1511;2079.65;577.654;2.26
1512;2094.29;603.29;2.26
1513;2086.97;538.102;2.27
1514;2059.81;577.654;2.27
1515;2020.13;575.701;2.27
1516;2020.13;587.42;2.27
1517;2049.74;567.888;2.27
1518;2059.81;567.888;2.27
1519;2057.37;559.832;2.27
1520;2035.09;607.196;2.27
1521;1992.97;579.608;2.27
1522;1965.81;546.159;2.27
1523;2000.6;607.196;2.27
1524;2035.09;581.561;2.27
1525;2047.3;579.608;2.28
1526;2052.48;565.935;2.28
1527;2032.65;591.571;2.28
1528;2005.49;579.608;2.28
1529;2005.49;599.384;2.28
1530;2059.81;552.019;2.28
1531;2086.97;573.748;2.28
1532;2096.74;605.243;2.28
1533;2091.85;540.056;2.28
1534;2059.81;575.701;2.28
1535;2022.58;573.748;2.28
1536;2025.32;587.42;2.28
1537;2054.93;569.842;2.28
1538;2064.69;573.748;2.29
1539;2064.69;557.878;2.29
1540;2042.41;603.29;2.29
1541;1998.16;577.654;2.29
1542;1971;552.019;2.29
1543;2007.93;617.206;2.29
1544;2042.41;577.654;2.29
1545;2057.37;575.701;2.29
1546;2059.81;569.842;2.29
1547;2042.41;587.42;2.29
1548;2007.93;581.561;2.29
1549;2010.37;593.524;2.29
1550;2062.25;552.019;2.3
1551;2089.41;573.748;2.3
1552;2101.62;609.149;2.3
1553;2094.29;559.832;2.3
1554;2067.13;567.888;2.3
1555;2027.76;567.888;2.3
1556;2035.09;585.467;2.3
1557;2064.69;563.738;2.3
1558;2072.02;575.701;2.3
1559;2069.57;552.019;2.3
1560;2049.74;597.43;2.3
1561;2003.04;581.561;2.3
1562;1978.32;546.159;2.31001
1563;2015.25;601.337;2.31001
1564;2047.3;581.561;2.31001
1565;2062.25;581.561;2.31001
1566;2062.25;563.738;2.31001
1567;2047.3;591.571;2.31001
1568;2012.81;575.701;2.31001
1569;2015.25;601.337;2.31001
1570;2069.57;557.878;2.31001
1571;2094.29;573.748;2.31001
1572;2109.25;607.196;2.31001
1573;2101.62;552.019;2.32
1574;2067.13;573.748;2.32
1575;2030.21;569.842;2.32
1576;2035.09;587.42;2.32
1577;2064.69;563.738;2.32
1578;2074.46;573.748;2.32
1579;2072.02;553.972;2.32
1580;2049.74;605.243;2.32
1581;2005.49;579.608;2.32
1582;1980.77;546.159;2.32
1583;2017.69;603.29;2.32
1584;2049.74;579.608;2.32
1585;2062.25;579.608;2.33
1586;2064.69;565.935;2.33
1587;2044.85;587.42;2.33
1588;2012.81;577.654;2.33
1589;2017.69;599.384;2.33
1590;2069.57;550.066;2.33
1591;2096.74;573.748;2.33
1592;2109.25;605.243;2.33
1593;2101.62;544.206;2.33
1594;2067.13;571.795;2.33
1595;2030.21;571.795;2.33
1596;2039.97;589.618;2.33
1597;2067.13;567.888;2.34
1598;2076.9;573.748;2.34
1599;2074.46;557.878;2.34
1600;2052.48;603.29;2.34
1601;2007.93;573.748;2.34
1602;1985.65;552.019;2.34
1603;2025.32;617.206;2.34
1604;2057.37;575.701;2.34
1605;2069.57;575.701;2.34
1606;2072.02;567.888;2.34
1607;2054.93;587.42;2.34
1608;2017.69;579.608;2.35
1609;2027.76;593.524;2.35
1610;2076.9;550.066;2.35
1611;2101.62;579.608;2.35
1612;2116.57;599.384;2.35
1613;2104.06;540.056;2.35
1614;2072.02;567.888;2.35
1615;2037.53;567.888;2.35
1616;2044.85;585.467;2.35
1617;2072.02;563.738;2.35
1618;2079.65;571.795;2.35
1619;2079.65;548.112;2.35
1620;2052.48;593.524;2.36
1621;2010.37;579.608;2.36
1622;1985.65;544.206;2.36
1623;2030.21;597.43;2.36
1624;2062.25;583.514;2.36
1625;2074.46;579.608;2.36
1626;2074.46;561.785;2.36
1627;2054.93;589.618;2.36
1628;2025.32;573.748;2.36
1629;2032.65;599.384;2.36
1630;2084.53;555.925;2.36
1631;2109.25;571.795;2.37
1632;2123.9;607.196;2.37
1633;2116.57;552.019;2.37
1634;2082.09;571.795;2.37
1635;2044.85;567.888;2.37
1636;2057.37;589.618;2.37
1637;2082.09;563.738;2.37
1638;2089.41;573.748;2.37
1639;2089.41;550.066;2.37
1640;2062.25;603.29;2.37
1641;2020.13;579.608;2.37
1642;1998.16;546.159;2.38
1643;2037.53;603.29;2.38
1644;2069.57;579.608;2.38
1645;2079.65;577.654;2.38
1646;2082.09;565.935;2.38
1647;2074.46;587.42;2.38
1648;2044.85;575.701;2.38
1649;2030.21;597.43;2.38
1650;2076.9;550.066;2.38
1651;2111.69;569.842;2.38
1652;2128.78;601.337;2.38
1653;2126.34;540.056;2.39
1654;2101.62;571.795;2.39
1655;2064.69;569.842;2.39
1656;2052.48;587.42;2.39
1657;2082.09;563.738;2.39
1658;2101.62;573.748;2.39
1659;2101.62;557.878;2.39
1660;2086.97;603.29;2.39
1661;2049.74;573.748;2.39
1662;2007.93;548.112;2.39
1663;2035.09;613.3;2.39
1664;2076.9;575.701;2.4
1665;2091.85;573.748;2.4
1666;2099.18;565.935;2.4
1667;2089.41;585.467;2.4
1668;2054.93;577.654;2.4
1669;2044.85;595.477;2.4
1670;2086.97;548.112;2.4
1671;2121.46;579.608;2.4
1672;2141.29;597.43;2.4
1673;2138.85;538.102;2.4
1674;2114.13;573.748;2.4
