<WeldAnalyseData xmlns:i="http:www.w3.org/2001/XMLSchema-instance">
<WeldParameter>
<TimeStamp>DT#2024-01-25-14:46:16</TimeStamp>
<Generator>SG-22-10000</Generator>
<GenFreq>20</GenFreq>
<MaxForce>8000</MaxForce>
<MaxPower>10000</MaxPower>
<RunupPressure>1.5</RunupPressure>
<RunupDist>10</RunupDist>
<RunPress>0.8</RunPress>
<ShakeDelay>0.03</ShakeDelay>
<ShakeTime>0.3</ShakeTime>
<RunBackPress1>6</RunBackPress1>
<RunBackPress2>2</RunBackPress2>
<RunBackDist>1</RunBackDist>
<TrigValue>500</TrigValue>
<TrigModeUnit>W</TrigModeUnit>
<WeldModeUnit>Ws</WeldModeUnit>
<PressNr>0</PressNr>
<MaxLoss>1500</MaxLoss>
</WeldParameter>
<WeldSets>
<WeldSet>
<PressRiseTime>0</PressRiseTime>
<RunPressure>1</RunPressure>
<Amplitude>86</Amplitude>
<WeldMode>3270</WeldMode>
</WeldSet>
</WeldSets>
<WeldValue>
<WeldNr>3036</WeldNr>
<RecipeName>RickStyle</RecipeName>
<WeldTime>1648</WeldTime>
<DistDiff>2.33</DistDiff>
<DistAbs>78.15</DistAbs>
<Energy>3271.67</Energy>
<MaxPower>2248.97</MaxPower>
<CycleTime>5980</CycleTime>
<TrigForce>506.607</TrigForce>
<TrigDist>75.82</TrigDist>
<RunSpeed>68.7398</RunSpeed>
<MaxForce>625.019</MaxForce>
<LossPower>326.186</LossPower>
</WeldValue>
</WeldAnalyseData>
#CSV-START#
ms;Power[W];Force[N];Distance[mm]
1;0;0;0
2;0;508.56;0
3;0;504.654;0
4;0;506.607;0
5;0;506.607;0
6;0;506.607;0
7;0;508.56;0
8;0;470.962;0
9;0;425.55;0.0100021
10;0;403.821;0.0400009
11;0;372.326;0.0699997
12;39.1209;354.503;0.0999985
13;108.093;334.727;0.139999
14;189.577;330.821;0.18
15;253.971;314.951;0.230003
16;315.619;291.269;0.269997
17;379.707;314.951;0.32
18;446.543;293.222;0.360001
19;510.632;297.372;0.400002
20;577.467;299.326;0.440002
21;636.673;312.998;0.470001
22;698.321;324.961;0.5
23;782.247;334.727;0.529999
24;866.172;330.821;0.550003
25;935.449;360.363;0.57
26;997.097;368.419;0.580002
27;1046.54;350.597;0.590004
28;1078.58;382.092;0.599998
29;1105.74;396.008;0.610001
30;1155.18;409.925;0.620003
31;1202.18;407.971;0.620003
32;1234.23;401.868;0.629997
33;1266.27;419.691;0.629997
34;1276.04;431.654;0.629997
35;1278.48;403.821;0.639999
36;1303.2;419.691;0.639999
37;1362.4;443.373;0.650002
38;1399.64;427.503;0.650002
39;1436.56;421.644;0.660004
40;1463.72;427.503;0.660004
41;1476.24;433.607;0.669998
42;1483.56;451.186;0.68
43;1533;435.56;0.68
44;1584.88;413.831;0.690002
45;1619.37;437.513;0.690002
46;1648.97;457.289;0.699997
47;1658.74;401.868;0.699997
48;1646.53;437.513;0.709999
49;1648.97;435.56;0.720001
50;1691.09;449.232;0.720001
51;1725.57;435.56;0.730003
52;1750.29;435.56;0.739998
53;1767.38;431.654;0.75
54;1757.62;467.055;0.75
55;1740.22;441.42;0.760002
56;1762.5;427.503;0.769997
57;1824.15;484.878;0.769997
58;1861.38;455.336;0.779999
59;1888.54;453.383;0.790001
60;1900.75;451.186;0.790001
61;1890.98;467.055;0.800003
62;1880.91;472.915;0.800003
63;1915.7;479.019;0.809998
64;1972.47;447.279;0.809998
65;2004.51;482.925;0.82
66;2019.47;486.831;0.82
67;2011.84;443.373;0.830002
68;1984.68;475.112;0.830002
69;1967.59;480.972;0.830002
70;2002.07;486.831;0.840004
71;2031.67;477.065;0.840004
72;2049.07;467.055;0.849998
73;2049.07;477.065;0.849998
74;2024.35;502.701;0.849998
75;1989.56;470.962;0.860001
76;1999.63;475.112;0.860001
77;2056.39;520.524;0.870003
78;2086;488.784;0.870003
79;2100.95;484.878;0.879997
80;2100.95;484.878;0.879997
81;2078.67;498.795;0.879997
82;2058.84;512.467;0.889999
83;2093.32;502.701;0.889999
84;2145.2;482.925;0.900002
85;2172.36;518.326;0.900002
86;2179.69;506.607;0.900002
87;2162.6;475.112;0.910004
88;2125.37;498.795;0.910004
89;2100.95;510.514;0.919998
90;2133;512.467;0.919998
91;2157.72;498.795;0.919998
92;2167.48;488.784;0.93
93;2165.04;508.56;0.93
94;2133;520.524;0.93
95;2093.32;486.831;0.940002
96;2088.44;506.607;0.940002
97;2135.44;536.149;0.949997
98;2172.36;514.42;0.949997
99;2192.2;500.748;0.949997
100;2194.64;506.607;0.959999
101;2174.81;514.42;0.959999
102;2140.32;534.196;0.959999
103;2145.2;514.42;0.970001
104;2199.53;502.701;0.970001
105;2221.8;540.056;0.970001
106;2234.01;538.102;0.980003
107;2224.25;477.065;0.980003
108;2187.32;512.467;0.980003
109;2147.64;514.42;0.989998
110;2155.27;524.43;0.989998
111;2187.32;506.607;0.989998
112;2197.08;508.56;1
113;2199.53;502.701;1
114;2172.36;542.009;1
115;2125.37;514.42;1
116;2103.39;494.644;1.01
117;2147.64;559.832;1.01
118;2187.32;522.477;1.01
119;2201.97;520.524;1.02
120;2206.85;512.467;1.02
121;2187.32;528.336;1.02
122;2157.72;532.243;1.02
123;2165.04;538.102;1.03
124;2216.92;500.748;1.03
125;2236.76;532.243;1.03
126;2248.97;542.009;1.03
127;2236.76;490.738;1.04
128;2197.08;524.43;1.04
129;2155.27;532.243;1.04
130;2160.16;536.149;1.04
131;2187.32;518.326;1.05
132;2197.08;514.42;1.05
133;2192.2;518.326;1.05
134;2165.04;546.159;1.06
135;2115.6;514.42;1.06
136;2088.44;514.42;1.06
137;2135.44;561.785;1.06
138;2165.04;528.336;1.06
139;2179.69;522.477;1.07
140;2179.69;522.477;1.07
141;2155.27;536.149;1.07
142;2120.48;546.159;1.07
143;2125.37;538.102;1.08
144;2177.25;514.42;1.08
145;2201.97;546.159;1.08
146;2216.92;540.056;1.08
147;2206.85;506.607;1.08
148;2167.48;532.243;1.09
149;2125.37;538.102;1.09
150;2133;542.009;1.09
151;2160.16;526.383;1.09
152;2169.92;514.42;1.09
153;2165.04;532.243;1.1
154;2137.88;548.112;1.1
155;2086;514.42;1.1
156;2063.72;530.29;1.1
157;2113.16;563.738;1.1
158;2140.32;536.149;1.11
159;2155.27;528.336;1.11
160;2152.53;528.336;1.11
161;2128.11;540.056;1.11
162;2095.76;557.878;1.12
163;2100.95;540.056;1.12
164;2150.09;524.43;1.12
165;2172.36;561.785;1.12
166;2184.88;538.102;1.12
167;2172.36;520.524;1.13
168;2130.55;534.196;1.13
169;2093.32;544.206;1.13
170;2100.95;548.112;1.13
171;2128.11;534.196;1.13
172;2135.44;526.383;1.13
173;2135.44;534.196;1.14
174;2108.28;559.832;1.14
175;2061.28;526.383;1.14
176;2041.44;532.243;1.14
177;2086;575.701;1.14
178;2115.6;544.206;1.15
179;2128.11;534.196;1.15
180;2130.55;536.149;1.15
181;2103.39;548.112;1.15
182;2068.6;559.832;1.15
183;2073.79;550.066;1.15
184;2122.92;526.383;1.16
185;2150.09;563.738;1.16
186;2160.16;552.019;1.16
187;2147.64;518.326;1.16
188;2108.28;544.206;1.16
189;2071.04;552.019;1.16
190;2081.11;553.972;1.17
191;2105.83;540.056;1.17
192;2110.72;526.383;1.17
193;2110.72;546.159;1.17
194;2081.11;557.878;1.17
195;2039;524.43;1.17
196;2016.72;544.206;1.18
197;2061.28;571.795;1.18
198;2088.44;550.066;1.18
199;2100.95;540.056;1.18
200;2103.39;538.102;1.18
201;2078.67;557.878;1.18
202;2046.63;552.019;1.19
203;2053.95;569.842;1.19
204;2100.95;520.524;1.19
205;2122.92;552.019;1.19
206;2133;573.748;1.19
207;2120.48;512.467;1.19
208;2086;548.112;1.2
209;2049.07;548.112;1.2
210;2056.39;559.832;1.2
211;2081.11;544.206;1.2
212;2090.88;540.056;1.2
213;2088.44;536.149;1.2
214;2061.28;575.701;1.2
215;2016.72;546.159;1.21
216;1997.19;528.336;1.21
217;2041.44;593.524;1.21
218;2071.04;552.019;1.21
219;2083.56;548.112;1.21
220;2086;546.159;1.21
221;2063.72;557.878;1.22
222;2029.23;557.878;1.22
223;2039;569.842;1.22
224;2086;530.29;1.22
225;2110.72;559.832;1.22
226;2120.48;571.795;1.22
227;2110.72;520.524;1.22
228;2071.04;552.019;1.23
229;2036.56;555.925;1.23
230;2043.88;563.738;1.23
231;2071.04;548.112;1.23
232;2076.23;544.206;1.23
233;2073.79;544.206;1.23
234;2046.63;575.701;1.23
235;1999.63;544.206;1.24
236;1984.68;542.009;1.24
237;2026.79;589.618;1.24
238;2056.39;555.925;1.24
239;2066.16;548.112;1.24
240;2066.16;548.112;1.24
241;2046.63;559.832;1.24
242;2011.84;571.795;1.25
243;2021.91;565.935;1.25
244;2071.04;540.056;1.25
245;2093.32;571.795;1.25
246;2100.95;569.842;1.25
247;2088.44;530.29;1.25
248;2053.95;555.925;1.25
249;2019.47;565.935;1.25
250;2029.23;565.935;1.26
251;2053.95;553.972;1.26
252;2058.84;544.206;1.26
253;2056.39;553.972;1.26
254;2029.23;575.701;1.26
255;1984.68;542.009;1.26
256;1970.03;555.925;1.26
257;2009.4;591.571;1.27
258;2039;561.785;1.27
259;2053.95;553.972;1.27
260;2051.51;553.972;1.27
261;2029.23;563.738;1.27
262;1999.63;579.608;1.27
263;2009.4;583.514;1.27
264;2053.95;536.149;1.27
265;2078.67;563.738;1.28
266;2090.88;593.524;1.28
267;2078.67;526.383;1.28
268;2041.44;561.785;1.28
269;2006.95;561.785;1.28
270;2019.47;575.701;1.28
271;2043.88;555.925;1.28
272;2049.07;559.832;1.28
273;2046.63;548.112;1.29
274;2019.47;593.524;1.29
275;1977.35;565.935;1.29
276;1962.4;542.009;1.29
277;2004.51;609.149;1.29
278;2031.67;565.935;1.29
279;2043.88;567.888;1.29
280;2046.63;557.878;1.29
281;2019.47;573.748;1.29
282;1989.56;573.748;1.3
283;2002.07;587.42;1.3
284;2049.07;544.206;1.3
285;2073.79;573.748;1.3
286;2083.56;589.618;1.3
287;2073.79;534.196;1.3
288;2039;567.888;1.3
289;2004.51;573.748;1.3
290;2016.72;579.608;1.31
291;2041.44;565.935;1.31
292;2046.63;559.832;1.31
293;2043.88;559.832;1.31
294;2019.47;591.571;1.31
295;1977.35;563.738;1.31
296;1959.96;557.878;1.31
297;2002.07;613.3;1.31
298;2031.67;571.795;1.32
299;2043.88;567.888;1.32
300;2043.88;565.935;1.32
301;2019.47;579.608;1.32
302;1989.56;583.514;1.32
303;2002.07;585.467;1.32
304;2049.07;552.019;1.32
305;2073.79;585.467;1.32
306;2081.11;587.42;1.32
307;2066.16;544.206;1.33
308;2031.67;573.748;1.33
309;1994.75;579.608;1.33
310;2011.84;583.514;1.33
311;2034.12;573.748;1.33
312;2039;561.785;1.33
313;2039;569.842;1.33
314;2011.84;593.524;1.33
315;1970.03;561.785;1.33
316;1955.07;567.888;1.34
317;1997.19;607.196;1.34
318;2024.35;577.654;1.34
319;2036.56;569.842;1.34
320;2036.56;571.795;1.34
321;2011.84;579.608;1.34
322;1984.68;593.524;1.34
323;1994.75;585.467;1.34
324;2041.44;563.738;1.34
325;2063.72;583.514;1.34
326;2073.79;599.384;1.35
327;2061.28;542.009;1.35
328;2024.35;579.608;1.35
329;1989.56;579.608;1.35
330;2006.95;587.42;1.35
331;2029.23;571.795;1.35
332;2034.12;567.888;1.35
333;2029.23;569.842;1.35
334;2004.51;597.43;1.35
335;1962.4;569.842;1.36
336;1950.19;563.738;1.36
337;1994.75;615.253;1.36
338;2021.91;577.654;1.36
339;2034.12;575.701;1.36
340;2036.56;575.701;1.36
341;2006.95;583.514;1.36
342;1979.79;591.571;1.36
343;1994.75;591.571;1.36
344;2041.44;563.738;1.36
345;2061.28;593.524;1.37
346;2068.6;591.571;1.37
347;2056.39;553.972;1.37
348;2024.35;577.654;1.37
349;1987.12;587.42;1.37
350;2004.51;589.618;1.37
351;2026.79;575.701;1.37
352;2031.67;565.935;1.37
353;2031.67;579.608;1.37
354;2004.51;595.477;1.37
355;1957.51;563.738;1.37
356;1945.31;552.019;1.38
357;1989.56;613.3;1.38
358;2016.72;585.467;1.38
359;2029.23;585.467;1.38
360;2029.23;569.842;1.38
361;2004.51;591.571;1.38
362;1977.35;583.514;1.38
363;1992.31;603.29;1.38
364;2036.56;555.925;1.38
365;2058.84;579.608;1.38
366;2068.6;609.149;1.38
367;2056.39;548.112;1.39
368;2019.47;577.654;1.39
369;1987.12;577.654;1.39
370;2002.07;593.524;1.39
371;2024.35;573.748;1.39
372;2029.23;577.654;1.39
373;2029.23;565.935;1.39
374;1997.19;607.196;1.39
375;1957.51;579.608;1.39
376;1942.87;557.878;1.39
377;1987.12;625.019;1.39
378;2014.28;583.514;1.4
379;2026.79;583.514;1.4
380;2024.35;573.748;1.4
381;2004.51;591.571;1.4
382;1974.91;587.42;1.4
383;1989.56;599.384;1.4
384;2034.12;557.878;1.4
385;2061.28;587.42;1.4
386;2066.16;605.243;1.4
387;2056.39;548.112;1.4
388;2016.72;583.514;1.4
389;1984.68;585.467;1.41
390;1999.63;591.571;1.41
391;2021.91;577.654;1.41
392;2026.79;575.701;1.41
393;2024.35;569.842;1.41
394;1994.75;603.29;1.41
395;1952.63;573.748;1.41
396;1945.31;565.935;1.41
397;1984.68;619.16;1.41
398;2011.84;581.561;1.41
399;2024.35;579.608;1.41
400;2024.35;573.748;1.41
401;1999.63;587.42;1.42
402;1970.03;593.524;1.42
403;1987.12;595.477;1.42
404;2034.12;563.738;1.42
405;2053.95;593.524;1.42
406;2063.72;597.43;1.42
407;2051.51;552.019;1.42
408;2014.28;581.561;1.42
409;1982.23;587.42;1.42
410;1997.19;593.524;1.42
411;2021.91;577.654;1.42
412;2026.79;567.888;1.43
413;2024.35;575.701;1.43
414;1994.75;597.43;1.43
415;1952.63;569.842;1.43
416;1940.42;571.795;1.43
417;1987.12;613.3;1.43
418;2009.4;583.514;1.43
419;2021.91;589.618;1.43
420;2024.35;569.842;1.43
421;1997.19;595.477;1.43
422;1967.59;581.561;1.43
423;1989.56;607.196;1.43
424;2031.67;555.925;1.44
425;2053.95;579.608;1.44
426;2063.72;611.347;1.44
427;2049.07;548.112;1.44
428;2011.84;581.561;1.44
429;1979.79;577.654;1.44
430;1994.75;595.477;1.44
431;2016.72;573.748;1.44
432;2024.35;579.608;1.44
433;2019.47;563.738;1.44
434;1989.56;611.347;1.44
435;1947.75;581.561;1.44
436;1940.42;555.925;1.45
437;1984.68;623.066;1.45
438;2006.95;585.467;1.45
439;2021.91;583.514;1.45
440;2019.47;571.795;1.45
441;1994.75;591.571;1.45
442;1965.14;585.467;1.45
443;1984.68;603.29;1.45
444;2029.23;557.878;1.45
445;2046.63;585.467;1.45
446;2061.28;607.196;1.45
447;2049.07;546.159;1.45
448;2016.72;581.561;1.46
449;1979.79;581.561;1.46
450;1989.56;593.524;1.46
451;2014.28;573.748;1.46
452;2021.91;575.701;1.46
453;2021.91;569.842;1.46
454;1999.63;607.196;1.46
455;1955.07;577.654;1.46
456;1935.24;563.738;1.46
457;1979.79;621.113;1.46
458;2006.95;583.514;1.46
459;2019.47;581.561;1.46
460;2021.91;575.701;1.47
461;2002.07;591.571;1.47
462;1972.47;589.618;1.47
463;1977.35;597.43;1.47
464;2026.79;565.935;1.47
465;2049.07;591.571;1.47
466;2056.39;599.384;1.47
467;2051.51;550.066;1.47
468;2014.28;581.561;1.47
469;1982.23;585.467;1.47
470;1992.31;593.524;1.47
471;2014.28;575.701;1.47
472;2021.91;571.795;1.47
473;2024.35;575.701;1.48
474;1997.19;603.29;1.48
475;1955.07;571.795;1.48
476;1937.98;571.795;1.48
477;1982.23;617.206;1.48
478;2004.51;581.561;1.48
479;2021.91;577.654;1.48
480;2024.35;575.701;1.48
481;2002.07;591.571;1.48
482;1972.47;589.618;1.48
483;1979.79;601.337;1.48
484;2026.79;559.832;1.48
485;2049.07;587.42;1.49
486;2063.72;605.243;1.49
487;2053.95;548.112;1.49
488;2014.28;585.467;1.49
489;1982.23;583.514;1.49
490;1989.56;593.524;1.49
491;2011.84;577.654;1.49
492;2021.91;575.701;1.49
493;2021.91;571.795;1.49
494;1997.19;603.29;1.49
495;1955.07;579.608;1.49
496;1937.98;565.935;1.49
497;1977.35;625.019;1.5
498;2006.95;583.514;1.5
499;2019.47;581.561;1.5
500;2024.35;575.701;1.5
501;2004.51;593.524;1.5
502;1972.47;593.524;1.5
503;1982.23;597.43;1.5
504;2026.79;563.738;1.5
505;2051.51;595.477;1.5
506;2063.72;601.337;1.5
507;2051.51;553.972;1.5
508;2016.72;583.514;1.5
509;1984.68;589.618;1.5
510;1992.31;593.524;1.51
511;2016.72;577.654;1.51
512;2021.91;583.514;1.51
513;2021.91;561.785;1.51
514;1997.19;611.347;1.51
515;1957.51;587.42;1.51
516;1937.98;555.925;1.51
517;1977.35;615.253;1.51
518;2006.95;587.42;1.51
519;2019.47;589.618;1.51
520;2021.91;573.748;1.51
521;1997.19;595.477;1.51
522;1970.03;585.467;1.51
523;1979.79;609.149;1.52
524;2026.79;557.878;1.52
525;2046.63;583.514;1.52
526;2058.84;613.3;1.52
527;2049.07;550.066;1.52
528;2014.28;581.561;1.52
529;1982.23;579.608;1.52
530;1992.31;597.43;1.52
531;2014.28;573.748;1.52
532;2021.91;583.514;1.52
533;2019.47;563.738;1.52
534;1994.75;611.347;1.52
535;1955.07;583.514;1.52
536;1937.98;557.878;1.53
537;1979.79;621.113;1.53
538;2004.51;587.42;1.53
539;2021.91;585.467;1.53
540;2021.91;573.748;1.53
541;1997.19;595.477;1.53
542;1970.03;587.42;1.53
543;1979.79;605.243;1.53
544;2026.79;559.832;1.53
545;2049.07;587.42;1.53
546;2061.28;607.196;1.53
547;2049.07;548.112;1.53
548;2014.28;581.561;1.53
549;1979.79;585.467;1.54
550;1987.12;593.524;1.54
551;2014.28;577.654;1.54
552;2019.47;579.608;1.54
553;2019.47;571.795;1.54
554;1994.75;609.149;1.54
555;1952.63;581.561;1.54
556;1935.24;563.738;1.54
557;1977.35;623.066;1.54
558;2004.51;583.514;1.54
559;2019.47;583.514;1.54
560;2021.91;575.701;1.54
561;2002.07;591.571;1.54
562;1970.03;591.571;1.54
563;1979.79;599.384;1.55
564;2026.79;563.738;1.55
565;2051.51;593.524;1.55
566;2056.39;601.337;1.55
567;2049.07;552.019;1.55
568;2014.28;583.514;1.55
569;1982.23;587.42;1.55
570;1994.75;595.477;1.55
571;2019.47;579.608;1.55
572;2021.91;573.748;1.55
573;2024.35;575.701;1.55
574;1997.19;607.196;1.55
575;1955.07;585.467;1.55
576;1937.98;548.112;1.55
577;1979.79;611.347;1.56
578;2006.95;589.618;1.56
579;2021.91;587.42;1.56
580;2021.91;573.748;1.56
581;1997.19;595.477;1.56
582;1970.03;581.561;1.56
583;1979.79;609.149;1.56
584;2026.79;559.832;1.56
585;2046.63;581.561;1.56
586;2058.84;615.253;1.56
587;2046.63;553.972;1.56
588;2011.84;579.608;1.56
589;1977.35;577.654;1.56
590;1994.75;593.524;1.56
591;2014.28;571.795;1.57
592;2021.91;581.561;1.57
593;2019.47;563.738;1.57
594;1992.31;611.347;1.57
595;1950.19;583.514;1.57
596;1935.24;555.925;1.57
597;1979.79;617.206;1.57
598;2004.51;585.467;1.57
599;2016.72;585.467;1.57
600;2021.91;573.748;1.57
601;1999.63;593.524;1.57
602;1970.03;583.514;1.57
603;1982.23;603.29;1.57
604;2029.23;557.878;1.57
605;2046.63;581.561;1.57
606;2061.28;613.3;1.58
607;2046.63;546.159;1.58
608;2011.84;581.561;1.58
609;1979.79;579.608;1.58
610;1992.31;593.524;1.58
611;2014.28;573.748;1.58
612;2021.91;577.654;1.58
613;2021.91;567.888;1.58
614;1989.56;609.149;1.58
615;1965.14;577.654;1.58
616;1932.79;559.832;1.58
617;1959.96;623.066;1.58
618;1997.19;583.514;1.58
619;2011.84;583.514;1.58
620;2016.72;573.748;1.58
621;2004.51;589.618;1.59
622;1974.91;589.618;1.59
623;1965.14;601.337;1.59
624;2006.95;559.832;1.59
625;2036.56;589.618;1.59
626;2053.95;601.337;1.59
627;2051.51;550.066;1.59
628;2024.35;581.561;1.59
629;1984.68;581.561;1.59
630;1977.35;591.571;1.59
631;2004.51;573.748;1.59
632;2016.72;571.795;1.59
633;2019.47;573.748;1.59
634;2004.51;603.29;1.59
635;1967.59;575.701;1.59
636;1930.35;553.972;1.6
637;1959.96;619.16;1.6
638;1997.19;581.561;1.6
639;2011.84;583.514;1.6
640;2019.47;571.795;1.6
641;2006.95;591.571;1.6
642;1974.91;583.514;1.6
643;1962.4;601.337;1.6
644;2011.84;557.878;1.6
645;2041.44;581.561;1.6
646;2053.95;605.243;1.6
647;2053.95;546.159;1.6
648;2024.35;579.608;1.6
649;1987.12;581.561;1.6
650;1977.35;591.571;1.61
651;2006.95;573.748;1.61
652;2014.28;571.795;1.61
653;2019.47;565.935;1.61
654;1999.63;607.196;1.61
655;1962.4;575.701;1.61
656;1927.91;557.878;1.61
657;1957.51;621.113;1.61
658;1997.19;581.561;1.61
659;2009.4;577.654;1.61
660;2016.72;571.795;1.61
661;2002.07;587.42;1.61
662;1974.91;589.618;1.61
663;1965.14;597.43;1.61
664;2009.4;557.878;1.61
665;2039;587.42;1.62
666;2051.51;599.384;1.62
667;2049.07;555.925;1.62
668;2021.91;575.701;1.62
669;1984.68;571.795;1.62
670;1979.79;589.618;1.62
671;2006.95;567.888;1.62
672;2016.72;577.654;1.62
673;2019.47;555.925;1.62
674;2002.07;605.243;1.62
675;1962.4;581.561;1.62
676;1930.35;548.112;1.62
677;1959.96;607.196;1.62
678;1997.19;585.467;1.62
679;2011.84;585.467;1.63
680;2016.72;569.842;1.63
681;2004.51;595.477;1.63
682;1972.47;579.608;1.63
683;1962.4;603.29;1.63
684;2004.51;555.925;1.63
685;2036.56;577.654;1.63
686;2049.07;609.149;1.63
687;2046.63;550.066;1.63
688;2019.47;573.748;1.63
689;1982.23;573.748;1.63
690;1974.91;591.571;1.63
691;2006.95;567.888;1.63
692;2016.72;579.608;1.63
693;2016.72;561.785;1.63
694;1999.63;607.196;1.64
695;1959.96;581.561;1.64
696;1930.35;552.019;1.64
697;1957.51;615.253;1.64
698;1997.19;581.561;1.64
699;2009.4;583.514;1.64
700;2014.28;567.888;1.64
701;2002.07;589.618;1.64
702;1972.47;579.608;1.64
703;1962.4;601.337;1.64
704;2009.4;552.019;1.64
705;2036.56;581.561;1.64
706;2051.51;607.196;1.64
707;2046.63;542.009;1.64
708;2016.72;575.701;1.64
709;1982.23;577.654;1.65
710;1977.35;589.618;1.65
711;2002.07;571.795;1.65
712;2014.28;573.748;1.65
713;2014.28;565.935;1.65
714;1997.19;605.243;1.65
715;1955.07;577.654;1.65
716;1927.91;555.925;1.65
717;1957.51;621.113;1.65
718;1992.31;579.608;1.65
719;2006.95;577.654;1.65
720;2014.28;569.842;1.65
721;1999.63;587.42;1.65
722;1967.59;587.42;1.65
723;1957.51;593.524;1.65
724;2004.51;555.925;1.66
725;2031.67;581.561;1.66
726;2046.63;599.384;1.66
727;2043.88;544.206;1.66
728;2016.72;577.654;1.66
729;1977.35;571.795;1.66
730;1974.91;589.618;1.66
731;2002.07;565.935;1.66
732;2011.84;577.654;1.66
733;2016.72;552.019;1.66
734;1997.19;595.477;1.66
735;1959.96;581.561;1.66
736;1930.35;546.159;1.66
737;1957.51;603.29;1.66
738;1994.75;583.514;1.66
739;2006.95;585.467;1.67
740;2011.84;565.935;1.67
741;1997.19;591.571;1.67
742;1967.59;579.608;1.67
743;1959.96;603.29;1.67
744;2004.51;559.832;1.67
745;2031.67;575.701;1.67
746;2046.63;613.3;1.67
747;2043.88;552.019;1.67
748;2016.72;575.701;1.67
749;1977.35;571.795;1.67
750;1970.03;587.42;1.67
751;2002.07;565.935;1.67
752;2009.4;577.654;1.67
753;2011.84;557.878;1.68
754;1994.75;605.243;1.68
755;1955.07;579.608;1.68
756;1923.03;548.112;1.68
757;1955.07;609.149;1.68
758;1989.56;579.608;1.68
759;2002.07;583.514;1.68
760;2006.95;567.888;1.68
761;1992.31;589.618;1.68
762;1962.4;579.608;1.68
763;1957.51;599.384;1.68
764;2004.51;553.972;1.68
765;2034.12;577.654;1.68
766;2046.63;605.243;1.68
767;2043.88;544.206;1.68
768;2014.28;575.701;1.69
769;1977.35;573.748;1.69
770;1972.47;587.42;1.69
771;2002.07;569.842;1.69
772;2009.4;575.701;1.69
773;2011.84;557.878;1.69
774;1992.31;605.243;1.69
775;1952.63;577.654;1.69
776;1920.59;552.019;1.69
777;1955.07;619.16;1.69
778;1987.12;579.608;1.69
779;2002.07;579.608;1.69
780;2006.95;567.888;1.69
781;1992.31;585.467;1.69
782;1965.14;579.608;1.7
783;1957.51;597.43;1.7
784;2004.51;553.972;1.7
785;2029.23;581.561;1.7
786;2043.88;599.384;1.7
787;2041.44;540.056;1.7
788;2006.95;577.654;1.7
789;1972.47;579.608;1.7
790;1967.59;589.618;1.7
791;1997.19;565.935;1.7
792;2009.4;573.748;1.7
793;2011.84;557.878;1.7
794;1992.31;605.243;1.7
795;1952.63;577.654;1.7
796;1925.47;550.066;1.7
797;1957.51;613.3;1.7
798;1992.31;581.561;1.71
799;2006.95;583.514;1.71
800;2011.84;565.935;1.71
801;1997.19;591.571;1.71
802;1967.59;581.561;1.71
803;1959.96;599.384;1.71
804;2006.95;552.019;1.71
805;2031.67;575.701;1.71
806;2041.44;605.243;1.71
807;2041.44;540.056;1.71
808;2011.84;575.701;1.71
809;1972.47;573.748;1.71
810;1972.47;585.467;1.71
811;1997.19;567.888;1.71
812;2004.51;573.748;1.71
813;2009.4;559.832;1.72
814;1989.56;603.29;1.72
815;1952.63;575.701;1.72
816;1923.03;553.972;1.72
817;1957.51;619.16;1.72
818;1989.56;579.608;1.72
819;2004.51;577.654;1.72
820;2006.95;567.888;1.72
821;1992.31;585.467;1.72
822;1962.4;583.514;1.72
823;1957.51;603.29;1.72
824;2004.51;565.935;1.72
825;2036.56;571.795;1.72
826;2043.88;611.347;1.72
827;2041.44;557.878;1.73
828;2009.4;571.795;1.73
829;1972.47;569.842;1.73
830;1972.47;587.42;1.73
831;1999.63;565.935;1.73
832;2009.4;575.701;1.73
833;2009.4;552.019;1.73
834;1989.56;599.384;1.73
835;1950.19;579.608;1.73
836;1923.03;542.009;1.73
837;1957.51;599.384;1.73
838;1989.56;583.514;1.73
839;2002.07;583.514;1.73
840;2006.95;565.935;1.73
841;1994.75;589.618;1.73
842;1959.96;577.654;1.74
843;1955.07;603.29;1.74
844;2004.51;557.878;1.74
845;2029.23;573.748;1.74
846;2041.44;611.347;1.74
847;2039;550.066;1.74
848;2004.51;575.701;1.74
849;1970.03;569.842;1.74
850;1970.03;587.42;1.74
851;1994.75;563.738;1.74
852;2004.51;575.701;1.74
853;2009.4;555.925;1.74
854;1989.56;603.29;1.74
855;1950.19;581.561;1.74
856;1920.59;544.206;1.74
857;1957.51;607.196;1.75
858;1989.56;581.561;1.75
859;2002.07;581.561;1.75
860;2006.95;563.738;1.75
861;1989.56;589.618;1.75
862;1959.96;575.701;1.75
863;1957.51;599.384;1.75
864;2004.51;552.019;1.75
865;2031.67;573.748;1.75
866;2043.88;607.196;1.75
867;2036.56;544.206;1.75
868;2006.95;575.701;1.75
869;1970.03;571.795;1.75
870;1972.47;587.42;1.75
871;1999.63;567.888;1.75
872;2006.95;571.795;1.76
873;2004.51;555.925;1.76
874;1987.12;603.29;1.76
875;1945.31;575.701;1.76
876;1918.15;548.112;1.76
877;1955.07;613.3;1.76
878;1984.68;577.654;1.76
879;1997.19;575.701;1.76
880;2004.51;567.888;1.76
881;1987.12;585.467;1.76
882;1955.07;579.608;1.76
883;1957.51;595.477;1.76
884;2004.51;567.888;1.76
885;2026.79;571.795;1.76
886;2041.44;609.149;1.76
887;2034.12;559.832;1.77
888;2004.51;565.935;1.77
889;1967.59;569.842;1.77
890;1967.59;587.42;1.77
891;1997.19;565.935;1.77
892;2004.51;573.748;1.77
893;2006.95;550.066;1.77
894;1984.68;591.571;1.77
895;1947.75;577.654;1.77
896;1920.59;540.056;1.77
897;1957.51;597.43;1.77
898;1987.12;583.514;1.77
899;2002.07;581.561;1.77
900;2004.51;563.738;1.77
901;1989.56;587.42;1.77
902;1957.51;577.654;1.78
903;1959.96;603.29;1.78
904;2004.51;559.832;1.78
905;2031.67;571.795;1.78
906;2041.44;609.149;1.78
907;2036.56;553.972;1.78
908;2006.95;569.842;1.78
909;1970.03;567.888;1.78
910;1972.47;587.42;1.78
911;1997.19;561.785;1.78
912;2004.51;573.748;1.78
913;2006.95;553.972;1.78
914;1984.68;601.337;1.78
915;1942.87;577.654;1.78
916;1918.15;542.009;1.78
917;1957.51;603.29;1.79
918;1987.12;581.561;1.79
919;2002.07;583.514;1.79
920;2002.07;565.935;1.79
921;1987.12;587.42;1.79
922;1957.51;573.748;1.79
923;1957.51;599.384;1.79
924;2004.51;552.019;1.79
925;2031.67;571.795;1.79
926;2043.88;607.196;1.79
927;2039;546.159;1.79
928;2006.95;573.748;1.79
929;1970.03;571.795;1.79
930;1974.91;587.42;1.79
931;1997.19;565.935;1.79
932;2006.95;573.748;1.8
933;2006.95;553.972;1.8
934;1987.12;603.29;1.8
935;1945.31;577.654;1.8
936;1920.59;546.159;1.8
937;1955.07;611.347;1.8
938;1984.68;577.654;1.8
939;1997.19;579.608;1.8
940;2004.51;565.935;1.8
941;1984.68;583.514;1.8
942;1957.51;575.701;1.8
943;1955.07;597.43;1.8
944;2004.51;550.066;1.8
945;2031.67;575.701;1.8
946;2039;599.384;1.8
947;2039;548.112;1.81
948;2004.51;569.842;1.81
949;1967.59;567.888;1.81
950;1974.91;587.42;1.81
951;1994.75;563.738;1.81
952;2004.51;571.795;1.81
953;2004.51;552.019;1.81
954;1982.23;601.337;1.81
955;1940.42;577.654;1.81
956;1918.15;544.206;1.81
957;1955.07;605.243;1.81
958;1984.68;579.608;1.81
959;1999.63;577.654;1.81
960;2002.07;563.738;1.81
961;1994.75;585.467;1.81
962;1967.59;577.654;1.81
963;1947.75;597.43;1.82
964;1987.12;550.066;1.82
965;2021.91;573.748;1.82
966;2036.56;603.29;1.82
967;2041.44;540.056;1.82
968;2021.91;571.795;1.82
969;1979.79;569.842;1.82
970;1965.14;585.467;1.82
971;1984.68;563.738;1.82
972;2004.51;571.795;1.82
973;2004.51;557.878;1.82
974;1997.19;601.337;1.82
975;1959.96;573.748;1.82
976;1925.47;546.159;1.82
977;1937.98;613.3;1.82
978;1979.79;587.42;1.82
979;1994.75;579.608;1.82
980;2002.07;565.935;1.83
981;1994.75;585.467;1.83
982;1967.59;575.701;1.83
983;1947.75;601.337;1.83
984;1984.68;565.935;1.83
985;2019.47;569.842;1.83
986;2034.12;609.149;1.83
987;2039;559.832;1.83
988;2019.47;565.935;1.83
989;1982.23;569.842;1.83
990;1962.4;585.467;1.83
991;1989.56;565.935;1.83
992;2002.07;571.795;1.83
993;2009.4;550.066;1.83
994;1994.75;589.618;1.83
995;1962.4;577.654;1.83
996;1923.03;542.009;1.84
997;1940.42;593.524;1.84
998;1982.23;583.514;1.84
999;1997.19;581.561;1.84
1000;2006.95;561.785;1.84
1001;1994.75;585.467;1.84
1002;1967.59;577.654;1.84
1003;1950.19;601.337;1.84
1004;1989.56;559.832;1.84
1005;2019.47;569.842;1.84
1006;2036.56;609.149;1.84
1007;2036.56;550.066;1.84
1008;2016.72;567.888;1.84
1009;1977.35;567.888;1.84
1010;1962.4;585.467;1.84
1011;1989.56;563.738;1.84
1012;2002.07;571.795;1.85
1013;2006.95;550.066;1.85
1014;1994.75;599.384;1.85
1015;1959.96;577.654;1.85
1016;1923.03;544.206;1.85
1017;1942.87;601.337;1.85
1018;1979.79;577.654;1.85
1019;1997.19;579.608;1.85
1020;2002.07;561.785;1.85
1021;1994.75;587.42;1.85
1022;1967.59;575.701;1.85
1023;1945.31;599.384;1.85
1024;1987.12;548.112;1.85
1025;2021.91;573.748;1.85
1026;2036.56;605.243;1.85
1027;2039;546.159;1.86
1028;2014.28;571.795;1.86
1029;1974.91;567.888;1.86
1030;1959.96;587.42;1.86
1031;1989.56;561.785;1.86
1032;1999.63;571.795;1.86
1033;2004.51;553.972;1.86
1034;1994.75;603.29;1.86
1035;1959.96;577.654;1.86
1036;1918.15;544.206;1.86
1037;1937.98;609.149;1.86
1038;1977.35;573.748;1.86
1039;1994.75;575.701;1.86
1040;2004.51;563.738;1.86
1041;1994.75;581.561;1.86
1042;1967.59;577.654;1.86
1043;1947.75;599.384;1.87
1044;1987.12;567.888;1.87
1045;2021.91;567.888;1.87
1046;2034.12;605.243;1.87
1047;2036.56;559.832;1.87
1048;2014.28;563.738;1.87
1049;1974.91;567.888;1.87
1050;1962.4;585.467;1.87
1051;1989.56;565.935;1.87
1052;2002.07;571.795;1.87
1053;2004.51;548.112;1.87
1054;1994.75;585.467;1.87
1055;1959.96;579.608;1.87
1056;1923.03;542.009;1.87
1057;1942.87;591.571;1.87
1058;1982.23;583.514;1.88
1059;1999.63;579.608;1.88
1060;2004.51;561.785;1.88
1061;1994.75;585.467;1.88
1062;1967.59;575.701;1.88
1063;1950.19;601.337;1.88
1064;1989.56;563.738;1.88
1065;2024.35;567.888;1.88
1066;2036.56;607.196;1.88
1067;2039;553.972;1.88
1068;2014.28;565.935;1.88
1069;1974.91;567.888;1.88
1070;1962.4;587.42;1.88
1071;1992.31;563.738;1.88
1072;2002.07;571.795;1.88
1073;2004.51;550.066;1.89
1074;1992.31;595.477;1.89
1075;1959.96;577.654;1.89
1076;1920.59;542.009;1.89
1077;1940.42;597.43;1.89
1078;1979.79;581.561;1.89
1079;1997.19;579.608;1.89
1080;2002.07;563.738;1.89
1081;1992.31;587.42;1.89
1082;1965.14;577.654;1.89
1083;1950.19;597.43;1.89
1084;1989.56;553.972;1.89
1085;2024.35;569.842;1.89
1086;2041.44;605.243;1.89
1087;2043.88;548.112;1.89
1088;2016.72;571.795;1.9
1089;1979.79;567.888;1.9
1090;1967.59;585.467;1.9
1091;1994.75;561.785;1.9
1092;2006.95;573.748;1.9
1093;2011.84;553.972;1.9
1094;1997.19;601.337;1.9
1095;1962.4;577.654;1.9
1096;1925.47;544.206;1.9
1097;1945.31;607.196;1.9
1098;1984.68;575.701;1.9
1099;2002.07;577.654;1.9
1100;2011.84;563.738;1.9
1101;1997.19;585.467;1.9
1102;1970.03;573.748;1.91
1103;1952.63;599.384;1.91
1104;1994.75;559.832;1.91
1105;2026.79;567.888;1.91
1106;2041.44;607.196;1.91
1107;2041.44;552.019;1.91
1108;2016.72;569.842;1.91
1109;1979.79;565.935;1.91
1110;1965.14;583.514;1.91
1111;1994.75;563.738;1.91
1112;2006.95;571.795;1.91
1113;2006.95;550.066;1.91
1114;1994.75;597.43;1.91
1115;1959.96;577.654;1.91
1116;1925.47;542.009;1.91
1117;1945.31;601.337;1.92
1118;1984.68;577.654;1.92
1119;2002.07;575.701;1.92
1120;2006.95;561.785;1.92
1121;1997.19;587.42;1.92
1122;1970.03;575.701;1.92
1123;1952.63;597.43;1.92
1124;1994.75;548.112;1.92
1125;2026.79;569.842;1.92
1126;2041.44;603.29;1.92
1127;2046.63;546.159;1.92
1128;2016.72;571.795;1.92
1129;1979.79;567.888;1.92
1130;1967.59;585.467;1.92
1131;1994.75;561.785;1.93
1132;2006.95;571.795;1.93
1133;2011.84;553.972;1.93
1134;1994.75;579.608;1.93
1135;1959.96;581.561;1.93
1136;1923.03;546.159;1.93
1137;1947.75;581.561;1.93
1138;1984.68;589.618;1.93
1139;1999.63;579.608;1.93
1140;2006.95;563.738;1.93
1141;1997.19;581.561;1.93
1142;1967.59;577.654;1.93
1143;1955.07;599.384;1.93
1144;1994.75;569.842;1.93
1145;2029.23;565.935;1.94
1146;2041.44;605.243;1.94
1147;2043.88;559.832;1.94
1148;2014.28;563.738;1.94
1149;1977.35;567.888;1.94
1150;1965.14;583.514;1.94
1151;1994.75;565.935;1.94
1152;2006.95;569.842;1.94
1153;2009.4;548.112;1.94
1154;1994.75;585.467;1.94
1155;1959.96;579.608;1.94
1156;1925.47;542.009;1.94
1157;1950.19;589.618;1.94
1158;1984.68;583.514;1.94
1159;2002.07;579.608;1.95
1160;2009.4;561.785;1.95
1161;1997.19;585.467;1.95
1162;1967.59;575.701;1.95
1163;1955.07;599.384;1.95
1164;1997.19;561.785;1.95
1165;2026.79;569.842;1.95
1166;2043.88;607.196;1.95
1167;2043.88;555.925;1.95
1168;2019.47;567.888;1.95
1169;1977.35;565.935;1.95
1170;1970.03;581.561;1.95
1171;1997.19;561.785;1.95
1172;2006.95;571.795;1.95
1173;2009.4;548.112;1.95
1174;1994.75;593.524;1.96
1175;1959.96;577.654;1.96
1176;1927.91;538.102;1.96
1177;1950.19;597.43;1.96
1178;1989.56;579.608;1.96
1179;2002.07;577.654;1.96
1180;2009.4;561.785;1.96
1181;1999.63;585.467;1.96
1182;1967.59;573.748;1.96
1183;1955.07;599.384;1.96
1184;1999.63;552.019;1.96
1185;2026.79;569.842;1.96
1186;2043.88;603.29;1.96
1187;2043.88;546.159;1.96
1188;2016.72;567.888;1.97
1189;1977.35;567.888;1.97
1190;1972.47;583.514;1.97
1191;1997.19;561.785;1.97
1192;2009.4;571.795;1.97
1193;2014.28;550.066;1.97
1194;1997.19;601.337;1.97
1195;1959.96;575.701;1.97
1196;1925.47;544.206;1.97
1197;1952.63;579.608;1.97
1198;1989.56;591.571;1.97
1199;2004.51;579.608;1.97
1200;2009.4;561.785;1.97
1201;1997.19;577.654;1.97
1202;1970.03;575.701;1.98
1203;1955.07;597.43;1.98
1204;1999.63;569.842;1.98
1205;2029.23;565.935;1.98
1206;2043.88;601.337;1.98
1207;2043.88;563.738;1.98
1208;2016.72;561.785;1.98
1209;1977.35;565.935;1.98
1210;1970.03;583.514;1.98
1211;1999.63;571.795;1.98
1212;2011.84;567.888;1.98
1213;2011.84;548.112;1.98
1214;1997.19;583.514;1.98
1215;1959.96;579.608;1.98
1216;1927.91;544.206;1.99
1217;1952.63;587.42;1.99
1218;1992.31;585.467;1.99
1219;2004.51;579.608;1.99
1220;2011.84;563.738;1.99
1221;2002.07;585.467;1.99
1222;1970.03;575.701;1.99
1223;1957.51;599.384;1.99
1224;2002.07;565.935;1.99
1225;2031.67;569.842;1.99
1226;2043.88;605.243;1.99
1227;2046.63;555.925;1.99
1228;2019.47;565.935;1.99
1229;1982.23;565.935;1.99
1230;1974.91;583.514;2
1231;2004.51;559.832;2
1232;2014.28;567.888;2
1233;2016.72;548.112;2
1234;1999.63;589.618;2
1235;1962.4;577.654;2
1236;1930.35;538.102;2
1237;1955.07;593.524;2
1238;1994.75;583.514;2
1239;2006.95;579.608;2
1240;2011.84;561.785;2
1241;1999.63;585.467;2
1242;1970.03;571.795;2
1243;1957.51;601.337;2
1244;2004.51;557.878;2.01
1245;2034.12;567.888;2.01
1246;2049.07;605.243;2.01
1247;2046.63;548.112;2.01
1248;2019.47;569.842;2.01
1249;1984.68;565.935;2.01
1250;1977.35;583.514;2.01
1251;2004.51;561.785;2.01
1252;2014.28;571.795;2.01
1253;2016.72;548.112;2.01
1254;1999.63;601.337;2.01
1255;1965.14;573.748;2.01
1256;1932.79;540.056;2.01
1257;1957.51;603.29;2.01
1258;1997.19;577.654;2.02
1259;2009.4;579.608;2.02
1260;2019.47;563.738;2.02
1261;2004.51;587.42;2.02
1262;1974.91;575.701;2.02
1263;1965.14;599.384;2.02
1264;2009.4;561.785;2.02
1265;2039;569.842;2.02
1266;2051.51;605.243;2.02
1267;2051.51;552.019;2.02
1268;2024.35;567.888;2.02
1269;1984.68;565.935;2.02
1270;1979.79;585.467;2.02
1271;2009.4;561.785;2.02
1272;2019.47;573.748;2.02
1273;2019.47;548.112;2.03
1274;2002.07;593.524;2.03
1275;1965.14;577.654;2.03
1276;1930.35;540.056;2.03
1277;1959.96;597.43;2.03
1278;1999.63;579.608;2.03
1279;2011.84;581.561;2.03
1280;2016.72;559.832;2.03
1281;2006.95;585.467;2.03
1282;1974.91;573.748;2.03
1283;1965.14;599.384;2.03
1284;2011.84;553.972;2.03
1285;2039;571.795;2.03
1286;2051.51;607.196;2.03
1287;2051.51;548.112;2.04
1288;2024.35;569.842;2.04
1289;1984.68;567.888;2.04
1290;1982.23;581.561;2.04
1291;2006.95;579.608;2.04
1292;2019.47;569.842;2.04
1293;2024.35;552.019;2.04
1294;2006.95;575.701;2.04
1295;1967.59;581.561;2.04
1296;1937.98;548.112;2.04
1297;1965.14;577.654;2.04
1298;2002.07;589.618;2.04
1299;2016.72;575.701;2.04
1300;2021.91;563.738;2.04
1301;2009.4;575.701;2.05
1302;1977.35;573.748;2.05
1303;1965.14;597.43;2.05
1304;2016.72;569.842;2.05
1305;2043.88;563.738;2.05
1306;2056.39;601.337;2.05
1307;2053.95;563.738;2.05
1308;2026.79;561.785;2.05
1309;1989.56;565.935;2.05
1310;1979.79;579.608;2.05
1311;2009.4;567.888;2.05
1312;2019.47;569.842;2.05
1313;2024.35;548.112;2.05
1314;2011.84;583.514;2.05
1315;1974.91;581.561;2.05
1316;1940.42;542.009;2.06
1317;1957.51;587.42;2.06
1318;1999.63;583.514;2.06
1319;2014.28;577.654;2.06
1320;2021.91;561.785;2.06
1321;2011.84;583.514;2.06
1322;1984.68;573.748;2.06
1323;1965.14;601.337;2.06
1324;2006.95;565.935;2.06
1325;2041.44;567.888;2.06
1326;2053.95;607.196;2.06
1327;2056.39;553.972;2.06
1328;2036.56;565.935;2.06
1329;1997.19;565.935;2.06
1330;1979.79;583.514;2.07
1331;2009.4;561.785;2.07
1332;2021.91;571.795;2.07
1333;2026.79;546.159;2.07
1334;2014.28;589.618;2.07
1335;1979.79;577.654;2.07
1336;1942.87;542.009;2.07
1337;1959.96;595.477;2.07
1338;1997.19;581.561;2.07
1339;2016.72;575.701;2.07
1340;2024.35;559.832;2.07
1341;2016.72;587.42;2.07
1342;1984.68;575.701;2.07
1343;1967.59;597.43;2.07
1344;2009.4;555.925;2.07
1345;2043.88;567.888;2.08
1346;2058.84;605.243;2.08
1347;2061.28;548.112;2.08
1348;2036.56;567.888;2.08
1349;1999.63;565.935;2.08
1350;1982.23;585.467;2.08
1351;2009.4;559.832;2.08
1352;2024.35;569.842;2.08
1353;2026.79;552.019;2.08
1354;2014.28;571.795;2.08
1355;1982.23;585.467;2.08
1356;1942.87;548.112;2.08
1357;1959.96;571.795;2.08
1358;2002.07;593.524;2.08
1359;2019.47;573.748;2.09
1360;2024.35;561.785;2.09
1361;2016.72;571.795;2.09
1362;1987.12;575.701;2.09
1363;1970.03;595.477;2.09
1364;2009.4;571.795;2.09
1365;2046.63;563.738;2.09
1366;2056.39;601.337;2.09
1367;2061.28;565.935;2.09
1368;2039;557.878;2.09
1369;1994.75;565.935;2.09
1370;1984.68;581.561;2.09
1371;2014.28;573.748;2.09
1372;2026.79;567.888;2.09
1373;2026.79;546.159;2.1
1374;2016.72;579.608;2.1
1375;1979.79;581.561;2.1
1376;1945.31;542.009;2.1
1377;1965.14;583.514;2.1
1378;2006.95;585.467;2.1
1379;2021.91;577.654;2.1
1380;2029.23;561.785;2.1
1381;2021.91;581.561;2.1
1382;1989.56;573.748;2.1
1383;1977.35;599.384;2.1
1384;2016.72;567.888;2.1
1385;2046.63;565.935;2.1
1386;2063.72;603.29;2.11
1387;2063.72;559.832;2.11
1388;2041.44;563.738;2.11
1389;2002.07;565.935;2.11
1390;1989.56;583.514;2.11
1391;2019.47;563.738;2.11
1392;2031.67;569.842;2.11
1393;2034.12;544.206;2.11
1394;2019.47;587.42;2.11
1395;1984.68;577.654;2.11
1396;1950.19;538.102;2.11
1397;1970.03;593.524;2.11
1398;2011.84;583.514;2.11
1399;2026.79;579.608;2.11
1400;2034.12;561.785;2.12
1401;2024.35;585.467;2.12
1402;1994.75;571.795;2.12
1403;1977.35;599.384;2.12
1404;2019.47;559.832;2.12
1405;2053.95;567.888;2.12
1406;2063.72;603.29;2.12
1407;2068.6;550.066;2.12
1408;2041.44;565.935;2.12
1409;2004.51;565.935;2.12
1410;1994.75;583.514;2.12
1411;2021.91;559.832;2.12
1412;2034.12;571.795;2.12
1413;2036.56;548.112;2.13
1414;2026.79;581.561;2.13
1415;1989.56;577.654;2.13
1416;1950.19;544.206;2.13
1417;1974.91;585.467;2.13
1418;2014.28;585.467;2.13
1419;2031.67;579.608;2.13
1420;2036.56;561.785;2.13
1421;2029.23;581.561;2.13
1422;2002.07;575.701;2.13
1423;1984.68;597.43;2.13
1424;2026.79;567.888;2.13
1425;2058.84;567.888;2.13
1426;2073.79;607.196;2.14
1427;2076.23;557.878;2.14
1428;2049.07;565.935;2.14
1429;2014.28;565.935;2.14
1430;2002.07;581.561;2.14
1431;2026.79;561.785;2.14
1432;2041.44;567.888;2.14
1433;2046.63;546.159;2.14
1434;2034.12;589.618;2.14
1435;1994.75;575.701;2.14
1436;1959.96;542.009;2.14
1437;1979.79;593.524;2.14
1438;2021.91;579.608;2.14
1439;2039;579.608;2.15
1440;2046.63;561.785;2.15
1441;2034.12;585.467;2.15
1442;2004.51;575.701;2.15
1443;1989.56;599.384;2.15
1444;2034.12;557.878;2.15
1445;2066.16;559.832;2.15
1446;2081.11;591.571;2.15
1447;2083.56;573.748;2.15
1448;2056.39;552.019;2.15
1449;2021.91;569.842;2.15
1450;2006.95;579.608;2.15
1451;2034.12;579.608;2.15
1452;2049.07;569.842;2.16
1453;2051.51;550.066;2.16
1454;2036.56;575.701;2.16
1455;1999.63;581.561;2.16
1456;1962.4;546.159;2.16
1457;1987.12;575.701;2.16
1458;2026.79;591.571;2.16
1459;2041.44;575.701;2.16
1460;2049.07;561.785;2.16
1461;2036.56;569.842;2.16
1462;2006.95;573.748;2.16
1463;1997.19;595.477;2.16
1464;2041.44;571.795;2.17
1465;2073.79;563.738;2.17
1466;2088.44;599.384;2.17
1467;2088.44;563.738;2.17
1468;2061.28;557.878;2.17
1469;2024.35;569.842;2.17
1470;2011.84;581.561;2.17
1471;2043.88;571.795;2.17
1472;2051.51;567.888;2.17
1473;2056.39;548.112;2.17
1474;2043.88;581.561;2.17
1475;2002.07;579.608;2.17
1476;1967.59;542.009;2.17
1477;1994.75;583.514;2.18
1478;2034.12;585.467;2.18
1479;2051.51;577.654;2.18
1480;2056.39;559.832;2.18
1481;2046.63;581.561;2.18
1482;2026.79;575.701;2.18
1483;2002.07;597.43;2.18
1484;2029.23;563.738;2.18
1485;2068.6;565.935;2.18
1486;2093.32;603.29;2.18
1487;2098.2;559.832;2.18
1488;2081.11;561.785;2.18
1489;2043.88;565.935;2.19
1490;2016.72;583.514;2.19
1491;2039;563.738;2.19
1492;2058.84;567.888;2.19
1493;2061.28;546.159;2.19
1494;2058.84;587.42;2.19
1495;2024.35;577.654;2.19
1496;1984.68;540.056;2.19
1497;1982.23;591.571;2.19
1498;2029.23;583.514;2.19
1499;2051.51;575.701;2.19
1500;2061.28;561.785;2.19
1501;2056.39;585.467;2.19
1502;2031.67;573.748;2.2
1503;2006.95;599.384;2.2
1504;2031.67;559.832;2.2
1505;2076.23;565.935;2.2
1506;2095.76;605.243;2.2
1507;2103.39;548.112;2.2
1508;2086;548.112;2.2
1509;2049.07;569.842;2.2
1510;2024.35;579.608;2.2
1511;2046.63;579.608;2.2
1512;2063.72;567.888;2.2
1513;2071.04;552.019;2.2
1514;2063.72;571.795;2.21
1515;2034.12;583.514;2.21
1516;1992.31;546.159;2.21
1517;1992.31;569.842;2.21
1518;2041.44;595.477;2.21
1519;2061.28;573.748;2.21
1520;2073.79;561.785;2.21
1521;2071.04;567.888;2.21
1522;2043.88;573.748;2.21
1523;2016.72;593.524;2.21
1524;2041.44;571.795;2.21
1525;2088.44;561.785;2.21
1526;2103.39;597.43;2.22
1527;2113.16;569.842;2.22
1528;2093.32;552.019;2.22
1529;2058.84;567.888;2.22
1530;2026.79;583.514;2.22
1531;2053.95;575.701;2.22
1532;2073.79;567.888;2.22
1533;2078.67;548.112;2.22
1534;2071.04;577.654;2.22
1535;2041.44;579.608;2.22
1536;1999.63;542.009;2.22
1537;1999.63;577.654;2.22
1538;2046.63;589.618;2.23
1539;2068.6;575.701;2.23
1540;2078.67;559.832;2.23
1541;2076.23;577.654;2.23
1542;2051.51;573.748;2.23
1543;2024.35;597.43;2.23
1544;2046.63;567.888;2.23
1545;2093.32;565.935;2.23
1546;2110.72;603.29;2.23
1547;2120.48;563.738;2.23
1548;2100.95;559.832;2.23
1549;2061.28;563.738;2.24
1550;2036.56;581.561;2.24
1551;2061.28;565.935;2.24
1552;2078.67;565.935;2.24
1553;2083.56;546.159;2.24
1554;2078.67;581.561;2.24
1555;2046.63;577.654;2.24
1556;2004.51;540.056;2.24
1557;2004.51;585.467;2.24
1558;2053.95;581.561;2.24
1559;2073.79;575.701;2.24
1560;2086;559.832;2.24
1561;2078.67;583.514;2.25
1562;2056.39;573.748;2.25
1563;2029.23;597.43;2.25
1564;2056.39;559.832;2.25
1565;2100.95;567.888;2.25
1566;2118.04;605.243;2.25
1567;2125.37;552.019;2.25
1568;2108.28;563.738;2.25
1569;2066.16;561.785;2.25
1570;2041.44;579.608;2.25
1571;2066.16;571.795;2.25
1572;2086;567.888;2.25
1573;2093.32;544.206;2.26
1574;2083.56;577.654;2.26
1575;2051.51;577.654;2.26
1576;2009.4;540.056;2.26
1577;2011.84;581.561;2.26
1578;2061.28;585.467;2.26
1579;2083.56;577.654;2.26
1580;2093.32;559.832;2.26
1581;2088.44;579.608;2.26
1582;2061.28;571.795;2.26
1583;2031.67;599.384;2.26
1584;2063.72;565.935;2.27
1585;2105.83;563.738;2.27
1586;2125.37;601.337;2.27
1587;2130.55;557.878;2.27
1588;2113.16;559.832;2.27
1589;2073.79;563.738;2.27
1590;2046.63;581.561;2.27
1591;2073.79;559.832;2.27
1592;2095.76;567.888;2.27
1593;2098.2;546.159;2.27
1594;2090.88;583.514;2.27
1595;2058.84;577.654;2.27
1596;2016.72;536.149;2.28
1597;2019.47;589.618;2.28
1598;2066.16;579.608;2.28
1599;2088.44;577.654;2.28
1600;2098.2;559.832;2.28
1601;2093.32;565.935;2.28
1602;2063.72;575.701;2.28
1603;2041.44;585.467;2.28
1604;2068.6;575.701;2.28
1605;2110.72;555.925;2.28
1606;2133;589.618;2.28
1607;2137.88;575.701;2.29
1608;2118.04;546.159;2.29
1609;2081.11;571.795;2.29
1610;2053.95;579.608;2.29
1611;2081.11;577.654;2.29
1612;2100.95;565.935;2.29
1613;2103.39;550.066;2.29
1614;2098.2;571.795;2.29
1615;2063.72;583.514;2.29
1616;2021.91;546.159;2.29
1617;2024.35;569.842;2.29
1618;2073.79;595.477;2.3
1619;2095.76;569.842;2.3
1620;2105.83;557.878;2.3
1621;2098.2;565.935;2.3
1622;2073.79;571.795;2.3
1623;2046.63;593.524;2.3
1624;2073.79;569.842;2.3
1625;2120.48;559.832;2.3
1626;2140.32;595.477;2.3
1627;2142.76;567.888;2.3
1628;2122.92;553.972;2.3
1629;2083.56;567.888;2.31
1630;2058.84;579.608;2.31
1631;2083.56;573.748;2.31
1632;2105.83;567.888;2.31
1633;2110.72;546.159;2.31
1634;2100.95;575.701;2.31
1635;2066.16;579.608;2.31
1636;2024.35;540.056;2.31
1637;2031.67;577.654;2.31
1638;2081.11;585.467;2.31
1639;2098.2;575.701;2.31
1640;2110.72;557.878;2.32
1641;2103.39;575.701;2.32
1642;2073.79;573.748;2.32
1643;2051.51;595.477;2.32
1644;2083.56;565.935;2.32
1645;2125.37;561.785;2.32
1646;2142.76;599.384;2.32
1647;2147.64;559.832;2.32
1648;2125.37;557.878;2.32
