<WeldAnalyseData xmlns:i="http:www.w3.org/2001/XMLSchema-instance">
<WeldParameter>
<TimeStamp>DT#2024-01-24-13:55:53</TimeStamp>
<Generator>SG-22-10000</Generator>
<GenFreq>20</GenFreq>
<MaxForce>8000</MaxForce>
<MaxPower>10000</MaxPower>
<RunupPressure>1.5</RunupPressure>
<RunupDist>10</RunupDist>
<RunPress>0.8</RunPress>
<ShakeDelay>0.03</ShakeDelay>
<ShakeTime>0.3</ShakeTime>
<RunBackPress1>6</RunBackPress1>
<RunBackPress2>2</RunBackPress2>
<RunBackDist>1</RunBackDist>
<TrigValue>500</TrigValue>
<TrigModeUnit>W</TrigModeUnit>
<WeldModeUnit>Ws</WeldModeUnit>
<PressNr>0</PressNr>
<MaxLoss>1500</MaxLoss>
</WeldParameter>
<WeldSets>
<WeldSet>
<PressRiseTime>0</PressRiseTime>
<RunPressure>1</RunPressure>
<Amplitude>86</Amplitude>
<WeldMode>3270</WeldMode>
</WeldSet>
</WeldSets>
<WeldValue>
<WeldNr>2951</WeldNr>
<RecipeName>RickStyle</RecipeName>
<WeldTime>1688</WeldTime>
<DistDiff>2.34</DistDiff>
<DistAbs>78.05</DistAbs>
<Energy>3271.3</Energy>
<MaxPower>2129.7</MaxPower>
<CycleTime>6020</CycleTime>
<TrigForce>506.607</TrigForce>
<TrigDist>75.71</TrigDist>
<RunSpeed>67.5982</RunSpeed>
<MaxForce>621.113</MaxForce>
<LossPower>329.485</LossPower>
</WeldValue>
</WeldAnalyseData>
#CSV-START#
ms;Power[W];Force[N];Distance[mm]
1;0;0;0
2;0;506.607;0
3;0;508.56;0
4;0;510.514;0
5;0;512.467;0
6;0;510.514;0
7;0;508.56;0
8;0;486.831;0
9;0;427.503;0.0200043
10;0;407.971;0.0400009
11;0;372.326;0.0699997
12;30.9381;362.56;0.110001
13;90.1441;332.774;0.150002
14;174.07;319.102;0.190002
15;245.788;291.269;0.239998
16;304.994;301.279;0.290001
17;354.434;283.456;0.340004
18;411.199;265.633;0.400002
19;487.495;309.091;0.450005
20;551.889;293.222;0.489998
21;618.419;301.279;0.529999
22;685.255;301.279;0.57
23;749.344;321.055;0.599998
24;813.433;328.867;0.629997
25;890.034;352.55;0.650002
26;969.077;336.68;0.669998
27;1033.17;364.513;0.690002
28;1092.68;390.149;0.700005
29;1141.81;360.363;0.709999
30;1164.09;396.008;0.709999
31;1181.49;403.821;0.720001
32;1220.85;415.784;0.720001
33;1260.53;409.925;0.730003
34;1290.13;411.878;0.730003
35;1319.73;409.925;0.730003
36;1331.94;437.513;0.739998
37;1331.94;421.644;0.739998
38;1349.34;411.878;0.75
39;1398.78;457.289;0.75
40;1438.15;427.503;0.760002
41;1470.5;429.456;0.760002
42;1500.1;425.55;0.770004
43;1504.98;439.467;0.770004
44;1507.42;443.373;0.779999
45;1541.91;445.326;0.779999
46;1598.67;419.691;0.790001
47;1638.35;445.326;0.800003
48;1667.95;453.383;0.800003
49;1687.79;411.878;0.809998
50;1682.6;439.467;0.809998
51;1672.83;445.326;0.82
52;1700;453.383;0.830002
53;1739.36;439.467;0.830002
54;1761.64;435.56;0.840004
55;1781.48;441.42;0.849998
56;1776.6;467.055;0.849998
57;1754.32;445.326;0.860001
58;1749.44;433.607;0.870003
59;1798.88;494.644;0.870003
60;1840.69;461.196;0.879997
61;1865.41;465.102;0.889999
62;1877.61;457.289;0.889999
63;1870.29;475.112;0.900002
64;1855.64;470.962;0.900002
65;1877.61;488.784;0.910004
66;1931.94;447.279;0.910004
67;1971.61;477.065;0.919998
68;1991.45;498.795;0.919998
69;1996.33;439.467;0.919998
70;1974.05;477.065;0.93
71;1949.33;480.972;0.93
72;1964.29;490.738;0.940002
73;1998.77;477.065;0.940002
74;2016.17;477.065;0.940002
75;2018.61;470.962;0.950005
76;2003.65;512.467;0.950005
77;1966.73;482.925;0.959999
78;1949.33;470.962;0.959999
79;1993.89;528.336;0.970001
80;2028.37;494.644;0.970001
81;2043.33;490.738;0.970001
82;2050.65;486.831;0.980003
83;2033.26;502.701;0.980003
84;2003.65;506.607;0.989998
85;2018.61;512.467;0.989998
86;2070.49;475.112;0.989998
87;2097.65;506.607;1
88;2114.74;520.524;1
89;2109.86;469.008;1.01
90;2080.26;502.701;1.01
91;2048.21;504.654;1.02
92;2053.09;514.42;1.02
93;2082.7;500.748;1.02
94;2090.02;496.597;1.03
95;2092.46;500.748;1.03
96;2067.74;530.29;1.03
97;2025.93;502.701;1.04
98;2001.21;494.644;1.04
99;2040.58;546.159;1.04
100;2070.49;512.467;1.05
101;2087.58;508.56;1.05
102;2087.58;506.607;1.06
103;2065.3;520.524;1.06
104;2035.7;524.43;1.06
105;2040.58;524.43;1.07
106;2090.02;494.644;1.07
107;2117.18;526.383;1.07
108;2129.7;530.29;1.08
109;2119.63;486.831;1.08
110;2087.58;516.373;1.08
111;2050.65;520.524;1.09
112;2057.98;524.43;1.09
113;2082.7;510.514;1.09
114;2090.02;500.748;1.1
115;2090.02;510.514;1.1
116;2065.3;536.149;1.1
117;2021.05;508.56;1.1
118;1991.45;508.56;1.11
119;2028.37;555.925;1.11
120;2060.42;526.383;1.11
121;2065.3;528.336;1.11
122;2070.49;514.42;1.12
123;2050.65;536.149;1.12
124;2021.05;524.43;1.12
125;2023.49;548.112;1.12
126;2070.49;502.701;1.13
127;2097.65;524.43;1.13
128;2109.86;557.878;1.13
129;2100.09;498.795;1.13
130;2065.3;522.477;1.14
131;2025.93;522.477;1.14
132;2033.26;540.056;1.14
133;2055.54;514.42;1.14
134;2062.86;526.383;1.15
135;2060.42;504.654;1.15
136;2038.14;555.925;1.15
137;1991.45;530.29;1.15
138;1964.29;500.748;1.16
139;1998.77;559.832;1.16
140;2028.37;536.149;1.16
141;2040.58;536.149;1.16
142;2038.14;522.477;1.17
143;2018.61;542.009;1.17
144;1986.26;530.29;1.17
145;1986.26;553.972;1.17
146;2035.7;506.607;1.17
147;2062.86;526.383;1.18
148;2075.37;563.738;1.18
149;2067.74;504.654;1.18
150;2035.7;532.243;1.18
151;2001.21;530.29;1.18
152;2006.1;546.159;1.18
153;2033.26;524.43;1.19
154;2038.14;530.29;1.19
155;2038.14;516.373;1.19
156;2018.61;561.785;1.19
157;1974.05;538.102;1.19
158;1946.89;508.56;1.2
159;1978.93;573.748;1.2
160;2008.54;542.009;1.2
161;2021.05;538.102;1.2
162;2021.05;526.383;1.2
163;2003.65;546.159;1.21
164;1971.61;540.056;1.21
165;1971.61;557.878;1.21
166;2023.49;514.42;1.21
167;2050.65;538.102;1.21
168;2062.86;565.935;1.22
169;2060.42;506.607;1.22
170;2025.93;538.102;1.22
171;1993.89;540.056;1.22
172;1993.89;552.019;1.22
173;2016.17;532.243;1.22
174;2021.05;538.102;1.23
175;2021.05;526.383;1.23
176;1998.77;567.888;1.23
177;1954.21;542.009;1.23
178;1924.61;520.524;1.23
179;1951.77;581.561;1.24
180;1981.38;546.159;1.24
181;1991.45;544.206;1.24
182;1993.89;536.149;1.24
183;1976.49;553.972;1.24
184;1944.45;550.066;1.24
185;1942.01;563.738;1.25
186;1989.01;520.524;1.25
187;2016.17;550.066;1.25
188;2028.37;567.888;1.25
189;2023.49;510.514;1.25
190;1993.89;546.159;1.25
191;1959.1;546.159;1.26
192;1956.66;555.925;1.26
193;1983.82;538.102;1.26
194;1993.89;538.102;1.26
195;1991.45;532.243;1.26
196;1971.61;569.842;1.26
197;1931.94;546.159;1.27
198;1902.33;524.43;1.27
199;1931.94;587.42;1.27
200;1964.29;548.112;1.27
201;1978.93;548.112;1.27
202;1981.38;540.056;1.27
203;1966.73;555.925;1.27
204;1934.68;555.925;1.28
205;1934.68;567.888;1.28
206;1978.93;526.383;1.28
207;2006.1;553.972;1.28
208;2021.05;569.842;1.28
209;2018.61;516.373;1.28
210;1986.26;550.066;1.28
211;1951.77;552.019;1.29
212;1946.89;559.832;1.29
213;1969.17;542.009;1.29
214;1978.93;540.056;1.29
215;1981.38;540.056;1.29
216;1959.1;573.748;1.29
217;1917.29;542.009;1.3
218;1890.13;536.149;1.3
219;1917.29;587.42;1.3
220;1944.45;552.019;1.3
221;1956.66;550.066;1.3
222;1959.1;546.159;1.3
223;1946.89;557.878;1.3
224;1914.85;563.738;1.31
225;1907.52;567.888;1.31
226;1951.77;534.196;1.31
227;1978.93;563.738;1.31
228;1993.89;571.795;1.31
229;1991.45;524.43;1.31
230;1966.73;553.972;1.31
231;1931.94;555.925;1.32
232;1927.05;561.785;1.32
233;1954.21;550.066;1.32
234;1961.84;542.009;1.32
235;1959.1;546.159;1.32
236;1929.49;573.748;1.32
237;1892.57;544.206;1.32
238;1880.36;544.206;1.32
239;1917.29;589.618;1.33
240;1937.12;557.878;1.33
241;1949.33;552.019;1.33
242;1946.89;550.066;1.33
243;1924.61;559.832;1.33
244;1897.45;555.925;1.33
245;1914.85;579.608;1.33
246;1959.1;536.149;1.34
247;1981.38;553.972;1.34
248;1989.01;587.42;1.34
249;1978.93;532.243;1.34
250;1946.89;553.972;1.34
251;1917.29;553.972;1.34
252;1929.49;571.795;1.34
253;1951.77;546.159;1.34
254;1954.21;555.925;1.35
255;1951.77;534.196;1.35
256;1927.05;587.42;1.35
257;1887.68;559.832;1.35
258;1872.73;530.29;1.35
259;1912.4;591.571;1.35
260;1931.94;561.785;1.35
261;1944.45;563.738;1.35
262;1944.45;548.112;1.36
263;1922.17;571.795;1.36
264;1895.01;561.785;1.36
265;1909.96;579.608;1.36
266;1954.21;534.196;1.36
267;1974.05;557.878;1.36
268;1983.82;589.618;1.36
269;1976.49;530.29;1.36
270;1942.01;559.832;1.36
271;1914.85;557.878;1.37
272;1924.61;573.748;1.37
273;1949.33;550.066;1.37
274;1949.33;557.878;1.37
275;1949.33;542.009;1.37
276;1922.17;589.618;1.37
277;1882.8;563.738;1.37
278;1865.41;534.196;1.37
279;1902.33;597.43;1.37
280;1924.61;563.738;1.38
281;1934.68;567.888;1.38
282;1934.68;553.972;1.38
283;1914.85;573.748;1.38
284;1885.24;561.785;1.38
285;1899.89;583.514;1.38
286;1944.45;542.009;1.38
287;1964.29;563.738;1.38
288;1976.49;591.571;1.39
289;1966.73;530.29;1.39
290;1934.68;561.785;1.39
291;1902.33;561.785;1.39
292;1917.29;575.701;1.39
293;1937.12;557.878;1.39
294;1942.01;561.785;1.39
295;1942.01;548.112;1.39
296;1914.85;593.524;1.39
297;1880.36;569.842;1.4
298;1860.52;542.009;1.4
299;1895.01;605.243;1.4
300;1917.29;569.842;1.4
301;1929.49;567.888;1.4
302;1929.49;557.878;1.4
303;1912.4;577.654;1.4
304;1885.24;571.795;1.4
305;1895.01;587.42;1.4
306;1942.01;546.159;1.41
307;1961.84;571.795;1.41
308;1974.05;593.524;1.41
309;1964.29;536.149;1.41
310;1934.68;567.888;1.41
311;1902.33;569.842;1.41
312;1912.4;581.561;1.41
313;1934.68;563.738;1.41
314;1942.01;565.935;1.41
315;1942.01;555.925;1.42
316;1917.29;599.384;1.42
317;1877.61;571.795;1.42
318;1860.52;552.019;1.42
319;1897.45;613.3;1.42
320;1922.17;575.701;1.42
321;1931.94;571.795;1.42
322;1934.68;565.935;1.42
323;1914.85;577.654;1.42
324;1887.68;581.561;1.42
325;1897.45;591.571;1.43
326;1942.01;552.019;1.43
327;1964.29;579.608;1.43
328;1976.49;597.43;1.43
329;1969.17;540.056;1.43
330;1937.12;573.748;1.43
331;1907.52;577.654;1.43
332;1914.85;583.514;1.43
333;1937.12;569.842;1.43
334;1944.45;565.935;1.43
335;1944.45;563.738;1.44
336;1919.73;599.384;1.44
337;1882.8;573.748;1.44
338;1860.52;559.832;1.44
339;1897.45;615.253;1.44
340;1922.17;577.654;1.44
341;1927.05;575.701;1.44
342;1931.94;569.842;1.44
343;1912.4;583.514;1.44
344;1885.24;585.467;1.45
345;1892.57;593.524;1.45
346;1937.12;557.878;1.45
347;1959.1;589.618;1.45
348;1971.61;595.477;1.45
349;1964.29;548.112;1.45
350;1934.68;581.561;1.45
351;1902.33;585.467;1.45
352;1912.4;585.467;1.45
353;1934.68;575.701;1.45
354;1939.57;565.935;1.45
355;1939.57;571.795;1.46
356;1919.73;599.384;1.46
357;1880.36;569.842;1.46
358;1858.08;565.935;1.46
359;1892.57;615.253;1.46
360;1917.29;581.561;1.46
361;1927.05;575.701;1.46
362;1929.49;573.748;1.46
363;1912.4;585.467;1.46
364;1882.8;591.571;1.46
365;1890.13;593.524;1.46
366;1931.94;563.738;1.47
367;1959.1;595.477;1.47
368;1969.17;607.196;1.47
369;1964.29;546.159;1.47
370;1934.68;579.608;1.47
371;1902.33;577.654;1.47
372;1904.77;589.618;1.47
373;1931.94;571.795;1.47
374;1937.12;573.748;1.47
375;1937.12;565.935;1.47
376;1914.85;605.243;1.47
377;1880.36;583.514;1.48
378;1853.2;561.785;1.48
379;1887.68;621.113;1.48
380;1914.85;581.561;1.48
381;1927.05;579.608;1.48
382;1929.49;571.795;1.48
383;1912.4;587.42;1.48
384;1885.24;585.467;1.48
385;1887.68;599.384;1.48
386;1931.94;559.832;1.48
387;1956.66;585.467;1.48
388;1971.61;601.337;1.49
389;1966.73;548.112;1.49
390;1939.57;579.608;1.49
391;1904.77;581.561;1.49
392;1907.52;591.571;1.49
393;1931.94;575.701;1.49
394;1937.12;571.795;1.49
395;1939.57;571.795;1.49
396;1917.29;605.243;1.49
397;1882.8;575.701;1.49
398;1853.2;563.738;1.49
399;1890.13;619.16;1.49
400;1914.85;581.561;1.5
401;1927.05;579.608;1.5
402;1931.94;573.748;1.5
403;1912.4;587.42;1.5
404;1885.24;589.618;1.5
405;1887.68;595.477;1.5
406;1934.68;561.785;1.5
407;1956.66;591.571;1.5
408;1971.61;599.384;1.5
409;1966.73;552.019;1.5
410;1939.57;581.561;1.5
411;1904.77;585.467;1.5
412;1909.96;591.571;1.51
413;1934.68;575.701;1.51
414;1942.01;569.842;1.51
415;1942.01;571.795;1.51
416;1924.61;603.29;1.51
417;1885.24;573.748;1.51
418;1858.08;567.888;1.51
419;1892.57;619.16;1.51
420;1914.85;583.514;1.51
421;1927.05;575.701;1.51
422;1934.68;573.748;1.51
423;1912.4;587.42;1.51
424;1887.68;593.524;1.51
425;1885.24;593.524;1.52
426;1931.94;563.738;1.52
427;1959.1;593.524;1.52
428;1974.05;595.477;1.52
429;1969.17;553.972;1.52
430;1942.01;581.561;1.52
431;1907.52;575.701;1.52
432;1909.96;593.524;1.52
433;1934.68;569.842;1.52
434;1939.57;581.561;1.52
435;1942.01;555.925;1.52
436;1924.61;609.149;1.52
437;1887.68;585.467;1.52
438;1860.52;550.066;1.53
439;1890.13;611.347;1.53
440;1917.29;587.42;1.53
441;1931.94;585.467;1.53
442;1931.94;569.842;1.53
443;1919.73;593.524;1.53
444;1890.13;581.561;1.53
445;1890.13;605.243;1.53
446;1937.12;557.878;1.53
447;1964.29;579.608;1.53
448;1974.05;613.3;1.53
449;1974.05;552.019;1.53
450;1946.89;575.701;1.53
451;1912.4;573.748;1.54
452;1912.4;593.524;1.54
453;1934.68;571.795;1.54
454;1944.45;579.608;1.54
455;1946.89;559.832;1.54
456;1929.49;611.347;1.54
457;1892.57;585.467;1.54
458;1862.96;553.972;1.54
459;1892.57;617.206;1.54
460;1922.17;585.467;1.54
461;1934.68;585.467;1.54
462;1939.57;569.842;1.54
463;1922.17;589.618;1.54
464;1895.01;581.561;1.55
465;1890.13;603.29;1.55
466;1934.68;557.878;1.55
467;1961.84;579.608;1.55
468;1978.93;607.196;1.55
469;1976.49;550.066;1.55
470;1949.33;579.608;1.55
471;1912.4;579.608;1.55
472;1912.4;591.571;1.55
473;1939.57;571.795;1.55
474;1946.89;577.654;1.55
475;1949.33;563.738;1.55
476;1931.94;607.196;1.55
477;1895.01;583.514;1.55
478;1860.52;555.925;1.56
479;1892.57;617.206;1.56
480;1917.29;583.514;1.56
481;1931.94;583.514;1.56
482;1937.12;569.842;1.56
483;1924.61;589.618;1.56
484;1897.45;583.514;1.56
485;1890.13;601.337;1.56
486;1939.57;557.878;1.56
487;1964.29;581.561;1.56
488;1981.38;607.196;1.56
489;1969.17;544.206;1.56
490;1934.68;579.608;1.56
491;1909.96;579.608;1.56
492;1927.05;589.618;1.57
493;1944.45;573.748;1.57
494;1951.77;575.701;1.57
495;1949.33;565.935;1.57
496;1919.73;605.243;1.57
497;1880.36;579.608;1.57
498;1870.29;559.832;1.57
499;1909.96;619.16;1.57
500;1929.49;581.561;1.57
501;1937.12;581.561;1.57
502;1937.12;571.795;1.57
503;1917.29;587.42;1.57
504;1890.13;585.467;1.57
505;1907.52;599.384;1.57
506;1951.77;557.878;1.57
507;1971.61;587.42;1.58
508;1981.38;603.29;1.58
509;1969.17;546.159;1.58
510;1939.57;579.608;1.58
511;1909.96;583.514;1.58
512;1924.61;591.571;1.58
513;1944.45;571.795;1.58
514;1951.77;571.795;1.58
515;1949.33;569.842;1.58
516;1924.61;603.29;1.58
517;1882.8;577.654;1.58
518;1870.29;561.785;1.58
519;1904.77;619.16;1.58
520;1929.49;583.514;1.58
521;1939.57;579.608;1.59
522;1939.57;575.701;1.59
523;1919.73;585.467;1.59
524;1892.57;587.42;1.59
525;1907.52;597.43;1.59
526;1949.33;559.832;1.59
527;1971.61;587.42;1.59
528;1981.38;597.43;1.59
529;1974.05;550.066;1.59
530;1942.01;579.608;1.59
531;1912.4;581.561;1.59
532;1924.61;587.42;1.59
533;1942.01;575.701;1.59
534;1951.77;569.842;1.59
535;1949.33;571.795;1.6
536;1924.61;603.29;1.6
537;1885.24;571.795;1.6
538;1867.85;567.888;1.6
539;1907.52;615.253;1.6
540;1934.68;581.561;1.6
541;1942.01;573.748;1.6
542;1944.45;575.701;1.6
543;1922.17;587.42;1.6
544;1895.01;593.524;1.6
545;1907.52;595.477;1.6
546;1949.33;561.785;1.6
547;1971.61;591.571;1.6
548;1983.82;595.477;1.6
549;1974.05;552.019;1.6
550;1944.45;579.608;1.61
551;1914.85;585.467;1.61
552;1924.61;591.571;1.61
553;1949.33;575.701;1.61
554;1951.77;579.608;1.61
555;1954.21;557.878;1.61
556;1924.61;609.149;1.61
557;1887.68;583.514;1.61
558;1870.29;550.066;1.61
559;1907.52;609.149;1.61
560;1931.94;585.467;1.61
561;1942.01;589.618;1.61
562;1944.45;571.795;1.61
563;1922.17;591.571;1.61
564;1892.57;581.561;1.61
565;1904.77;607.196;1.62
566;1949.33;557.878;1.62
567;1971.61;579.608;1.62
568;1981.38;609.149;1.62
569;1974.05;553.972;1.62
570;1942.01;577.654;1.62
571;1914.85;575.701;1.62
572;1922.17;591.571;1.62
573;1946.89;569.842;1.62
574;1951.77;577.654;1.62
575;1951.77;559.832;1.62
576;1929.49;607.196;1.62
577;1887.68;583.514;1.62
578;1867.85;553.972;1.62
579;1902.33;611.347;1.62
580;1927.05;583.514;1.63
581;1939.57;583.514;1.63
582;1939.57;569.842;1.63
583;1919.73;591.571;1.63
584;1892.57;581.561;1.63
585;1902.33;605.243;1.63
586;1949.33;555.925;1.63
587;1971.61;579.608;1.63
588;1983.82;609.149;1.63
589;1981.38;548.112;1.63
590;1946.89;579.608;1.63
591;1917.29;577.654;1.63
592;1927.05;593.524;1.63
593;1949.33;573.748;1.63
594;1956.66;577.654;1.63
595;1956.66;559.832;1.64
596;1931.94;607.196;1.64
597;1895.01;583.514;1.64
598;1872.73;555.925;1.64
599;1907.52;619.16;1.64
600;1934.68;585.467;1.64
601;1944.45;583.514;1.64
602;1944.45;571.795;1.64
603;1924.61;587.42;1.64
604;1899.89;585.467;1.64
605;1904.77;601.337;1.64
606;1954.21;557.878;1.64
607;1976.49;581.561;1.64
608;1986.26;605.243;1.64
609;1981.38;548.112;1.64
610;1951.77;577.654;1.64
611;1919.73;577.654;1.65
612;1924.61;591.571;1.65
613;1949.33;571.795;1.65
614;1954.21;573.748;1.65
615;1954.21;563.738;1.65
616;1931.94;605.243;1.65
617;1892.57;577.654;1.65
618;1875.17;557.878;1.65
619;1912.4;619.16;1.65
620;1934.68;581.561;1.65
621;1946.89;579.608;1.65
622;1944.45;571.795;1.65
623;1922.17;587.42;1.65
624;1895.01;585.467;1.65
625;1912.4;599.384;1.65
626;1956.66;555.925;1.65
627;1978.93;583.514;1.66
628;1989.01;601.337;1.66
629;1976.49;546.159;1.66
630;1944.45;577.654;1.66
631;1919.73;579.608;1.66
632;1929.49;589.618;1.66
633;1949.33;571.795;1.66
634;1956.66;571.795;1.66
635;1954.21;565.935;1.66
636;1927.05;601.337;1.66
637;1885.24;575.701;1.66
638;1872.73;561.785;1.66
639;1912.4;617.206;1.66
640;1931.94;579.608;1.66
641;1944.45;577.654;1.66
642;1944.45;569.842;1.66
643;1922.17;587.42;1.67
644;1895.01;589.618;1.67
645;1912.4;593.524;1.67
646;1954.21;559.832;1.67
647;1976.49;585.467;1.67
648;1983.82;597.43;1.67
649;1976.49;548.112;1.67
650;1942.01;579.608;1.67
651;1912.4;581.561;1.67
652;1929.49;585.467;1.67
653;1951.77;573.748;1.67
654;1959.1;569.842;1.67
655;1956.66;569.842;1.67
656;1929.49;597.43;1.67
657;1892.57;571.795;1.67
658;1877.61;563.738;1.67
659;1909.96;615.253;1.68
660;1934.68;579.608;1.68
661;1944.45;573.748;1.68
662;1939.57;571.795;1.68
663;1924.61;585.467;1.68
664;1895.01;589.618;1.68
665;1907.52;589.618;1.68
666;1954.21;559.832;1.68
667;1976.49;587.42;1.68
668;1986.26;591.571;1.68
669;1976.49;550.066;1.68
670;1946.89;579.608;1.68
671;1917.29;583.514;1.68
672;1927.05;589.618;1.68
673;1951.77;573.748;1.68
674;1959.1;565.935;1.68
675;1956.66;571.795;1.68
676;1931.94;597.43;1.69
677;1892.57;565.935;1.69
678;1877.61;555.925;1.69
679;1912.4;617.206;1.69
680;1937.12;579.608;1.69
681;1949.33;579.608;1.69
682;1946.89;567.888;1.69
683;1929.49;585.467;1.69
684;1902.33;581.561;1.69
685;1914.85;597.43;1.69
686;1959.1;553.972;1.69
687;1981.38;579.608;1.69
688;1991.45;599.384;1.69
689;1986.26;542.009;1.69
690;1954.21;577.654;1.69
691;1922.17;577.654;1.69
692;1934.68;589.618;1.7
693;1956.66;571.795;1.7
694;1964.29;571.795;1.7
695;1961.84;563.738;1.7
696;1939.57;599.384;1.7
697;1899.89;573.748;1.7
698;1880.36;555.925;1.7
699;1917.29;615.253;1.7
700;1939.57;579.608;1.7
701;1949.33;573.748;1.7
702;1951.77;569.842;1.7
703;1929.49;583.514;1.7
704;1902.33;587.42;1.7
705;1912.4;593.524;1.7
706;1956.66;555.925;1.7
707;1978.93;585.467;1.7
708;1991.45;595.477;1.7
709;1986.26;544.206;1.71
710;1954.21;577.654;1.71
711;1922.17;579.608;1.71
712;1934.68;585.467;1.71
713;1954.21;571.795;1.71
714;1959.1;567.888;1.71
715;1959.1;563.738;1.71
716;1937.12;599.384;1.71
717;1895.01;571.795;1.71
718;1875.17;559.832;1.71
719;1909.96;613.3;1.71
720;1937.12;575.701;1.71
721;1949.33;573.748;1.71
722;1949.33;571.795;1.71
723;1929.49;581.561;1.71
724;1902.33;587.42;1.71
725;1909.96;589.618;1.72
726;1954.21;557.878;1.72
727;1976.49;585.467;1.72
728;1989.01;591.571;1.72
729;1981.38;548.112;1.72
730;1951.77;577.654;1.72
731;1919.73;581.561;1.72
732;1927.05;585.467;1.72
733;1951.77;571.795;1.72
734;1956.66;565.935;1.72
735;1959.1;569.842;1.72
736;1934.68;595.477;1.72
737;1897.45;563.738;1.72
738;1875.17;561.785;1.72
739;1909.96;603.29;1.72
740;1934.68;579.608;1.72
741;1949.33;581.561;1.73
742;1949.33;563.738;1.73
743;1931.94;589.618;1.73
744;1902.33;575.701;1.73
745;1909.96;599.384;1.73
746;1956.66;555.925;1.73
747;1978.93;575.701;1.73
748;1991.45;605.243;1.73
749;1986.26;550.066;1.73
750;1956.66;573.748;1.73
751;1924.61;571.795;1.73
752;1931.94;587.42;1.73
753;1954.21;563.738;1.73
754;1964.29;575.701;1.73
755;1966.73;553.972;1.73
756;1942.01;601.337;1.73
757;1902.33;577.654;1.73
758;1880.36;548.112;1.74
759;1917.29;607.196;1.74
760;1942.01;577.654;1.74
761;1951.77;581.561;1.74
762;1954.21;563.738;1.74
763;1937.12;587.42;1.74
764;1907.52;575.701;1.74
765;1909.96;597.43;1.74
766;1956.66;552.019;1.74
767;1981.38;573.748;1.74
768;1993.89;603.29;1.74
769;1991.45;546.159;1.74
770;1959.1;571.795;1.74
771;1927.05;571.795;1.74
772;1931.94;585.467;1.74
773;1956.66;563.738;1.74
774;1966.73;573.748;1.75
775;1964.29;555.925;1.75
776;1944.45;603.29;1.75
777;1904.77;573.748;1.75
778;1877.61;548.112;1.75
779;1912.4;609.149;1.75
780;1937.12;577.654;1.75
781;1949.33;577.654;1.75
782;1951.77;565.935;1.75
783;1937.12;583.514;1.75
784;1904.77;577.654;1.75
785;1907.52;597.43;1.75
786;1954.21;552.019;1.75
787;1978.93;575.701;1.75
788;1993.89;603.29;1.75
789;1991.45;542.009;1.75
790;1959.1;571.795;1.76
791;1924.61;571.795;1.76
792;1929.49;585.467;1.76
793;1954.21;565.935;1.76
794;1961.84;571.795;1.76
795;1964.29;557.878;1.76
796;1944.45;601.337;1.76
797;1904.77;575.701;1.76
798;1877.61;552.019;1.76
799;1907.52;615.253;1.76
800;1937.12;577.654;1.76
801;1949.33;577.654;1.76
802;1951.77;567.888;1.76
803;1934.68;583.514;1.76
804;1907.52;579.608;1.76
805;1907.52;597.43;1.76
806;1954.21;552.019;1.77
807;1981.38;577.654;1.77
808;1996.33;599.384;1.77
809;1991.45;540.056;1.77
810;1964.29;573.748;1.77
811;1931.94;573.748;1.77
812;1931.94;585.467;1.77
813;1956.66;567.888;1.77
814;1964.29;569.842;1.77
815;1961.84;563.738;1.77
816;1946.89;597.43;1.77
817;1907.52;571.795;1.77
818;1880.36;553.972;1.77
819;1909.96;613.3;1.77
820;1939.57;575.701;1.77
821;1951.77;573.748;1.77
822;1956.66;569.842;1.78
823;1937.12;581.561;1.78
824;1909.96;581.561;1.78
825;1904.77;591.571;1.78
826;1951.77;553.972;1.78
827;1981.38;579.608;1.78
828;1991.45;593.524;1.78
829;1991.45;542.009;1.78
830;1964.29;575.701;1.78
831;1931.94;577.654;1.78
832;1929.49;581.561;1.78
833;1954.21;569.842;1.78
834;1964.29;565.935;1.78
835;1966.73;565.935;1.78
836;1949.33;597.43;1.78
837;1909.96;567.888;1.78
838;1880.36;559.832;1.79
839;1907.52;613.3;1.79
840;1937.12;575.701;1.79
841;1949.33;571.795;1.79
842;1954.21;569.842;1.79
843;1937.12;581.561;1.79
844;1909.96;585.467;1.79
845;1907.52;587.42;1.79
846;1954.21;557.878;1.79
847;1978.93;583.514;1.79
848;1993.89;591.571;1.79
849;1993.89;546.159;1.79
850;1966.73;575.701;1.79
851;1929.49;579.608;1.79
852;1929.49;581.561;1.79
853;1954.21;571.795;1.79
854;1964.29;559.832;1.8
855;1964.29;569.842;1.8
856;1951.77;593.524;1.8
857;1912.4;565.935;1.8
858;1882.8;561.785;1.8
859;1907.52;609.149;1.8
860;1939.57;575.701;1.8
861;1949.33;571.795;1.8
862;1956.66;563.738;1.8
863;1944.45;585.467;1.8
864;1912.4;575.701;1.8
865;1907.52;601.337;1.8
866;1954.21;552.019;1.8
867;1978.93;571.795;1.8
868;1993.89;609.149;1.8
869;1996.33;548.112;1.8
870;1966.73;571.795;1.8
871;1934.68;569.842;1.81
872;1929.49;587.42;1.81
873;1961.84;565.935;1.81
874;1969.17;573.748;1.81
875;1964.29;553.972;1.81
876;1939.57;601.337;1.81
877;1899.89;577.654;1.81
878;1885.24;546.159;1.81
879;1927.05;605.243;1.81
880;1949.33;575.701;1.81
881;1956.66;579.608;1.81
882;1956.66;563.738;1.81
883;1931.94;585.467;1.81
884;1904.77;575.701;1.81
885;1924.61;597.43;1.81
886;1971.61;550.066;1.81
887;1991.45;571.795;1.82
888;2001.21;603.29;1.82
889;1991.45;542.009;1.82
890;1956.66;573.748;1.82
891;1924.61;571.795;1.82
892;1942.01;585.467;1.82
893;1961.84;563.738;1.82
894;1969.17;573.748;1.82
895;1966.73;555.925;1.82
896;1939.57;603.29;1.82
897;1902.33;577.654;1.82
898;1887.68;546.159;1.82
899;1924.61;609.149;1.82
900;1946.89;575.701;1.82
901;1956.66;577.654;1.82
902;1956.66;565.935;1.82
903;1934.68;583.514;1.82
904;1907.52;573.748;1.83
905;1924.61;599.384;1.83
906;1969.17;550.066;1.83
907;1989.01;573.748;1.83
908;1998.77;601.337;1.83
909;1991.45;540.056;1.83
910;1959.1;571.795;1.83
911;1927.05;571.795;1.83
912;1944.45;585.467;1.83
913;1964.29;567.888;1.83
914;1971.61;571.795;1.83
915;1969.17;557.878;1.83
916;1944.45;599.384;1.83
917;1902.33;573.748;1.83
918;1887.68;552.019;1.83
919;1924.61;611.347;1.84
920;1946.89;575.701;1.84
921;1956.66;573.748;1.84
922;1956.66;569.842;1.84
923;1931.94;581.561;1.84
924;1907.52;579.608;1.84
925;1919.73;593.524;1.84
926;1966.73;548.112;1.84
927;1986.26;575.701;1.84
928;2001.21;597.43;1.84
929;1991.45;538.102;1.84
930;1959.1;575.701;1.84
931;1927.05;573.748;1.84
932;1939.57;583.514;1.84
933;1964.29;567.888;1.84
934;1969.17;565.935;1.84
935;1966.73;559.832;1.84
936;1942.01;599.384;1.85
937;1902.33;571.795;1.85
938;1885.24;553.972;1.85
939;1922.17;615.253;1.85
940;1946.89;575.701;1.85
941;1956.66;573.748;1.85
942;1959.1;567.888;1.85
943;1942.01;581.561;1.85
944;1907.52;579.608;1.85
945;1919.73;591.571;1.85
946;1969.17;552.019;1.85
947;1993.89;577.654;1.85
948;2003.65;597.43;1.85
949;1996.33;542.009;1.85
950;1964.29;573.748;1.85
951;1931.94;577.654;1.85
952;1944.45;581.561;1.86
953;1966.73;565.935;1.86
954;1974.05;563.738;1.86
955;1974.05;563.738;1.86
956;1949.33;595.477;1.86
957;1907.52;567.888;1.86
958;1890.13;557.878;1.86
959;1924.61;611.347;1.86
960;1951.77;575.701;1.86
961;1961.84;571.795;1.86
962;1961.84;565.935;1.86
963;1944.45;581.561;1.86
964;1914.85;583.514;1.86
965;1924.61;587.42;1.86
966;1969.17;555.925;1.86
967;1993.89;581.561;1.86
968;2001.21;589.618;1.86
969;1998.77;542.009;1.87
970;1966.73;573.748;1.87
971;1931.94;577.654;1.87
972;1939.57;581.561;1.87
973;1964.29;567.888;1.87
974;1971.61;559.832;1.87
975;1971.61;567.888;1.87
976;1949.33;591.571;1.87
977;1907.52;563.738;1.87
978;1887.68;557.878;1.87
979;1922.17;607.196;1.87
980;1946.89;573.748;1.87
981;1961.84;569.842;1.87
982;1959.1;567.888;1.87
983;1942.01;579.608;1.87
984;1912.4;575.701;1.87
985;1922.17;595.477;1.88
986;1971.61;550.066;1.88
987;1993.89;575.701;1.88
988;2006.1;599.384;1.88
989;2001.21;536.149;1.88
990;1969.17;569.842;1.88
991;1937.12;573.748;1.88
992;1944.45;583.514;1.88
993;1971.61;567.888;1.88
994;1978.93;567.888;1.88
995;1976.49;557.878;1.88
996;1954.21;599.384;1.88
997;1917.29;571.795;1.88
998;1892.57;552.019;1.88
999;1927.05;613.3;1.88
1000;1951.77;575.701;1.88
1001;1964.29;573.748;1.88
1002;1966.73;565.935;1.89
1003;1946.89;581.561;1.89
1004;1917.29;579.608;1.89
1005;1922.17;591.571;1.89
1006;1971.61;550.066;1.89
1007;1996.33;577.654;1.89
1008;2006.1;595.477;1.89
1009;2003.65;538.102;1.89
1010;1971.61;571.795;1.89
1011;1939.57;573.748;1.89
1012;1944.45;581.561;1.89
1013;1966.73;567.888;1.89
1014;1974.05;563.738;1.89
1015;1976.49;561.785;1.89
1016;1954.21;593.524;1.89
1017;1914.85;567.888;1.89
1018;1890.13;557.878;1.9
1019;1922.17;611.347;1.9
1020;1949.33;575.701;1.9
1021;1961.84;571.795;1.9
1022;1964.29;565.935;1.9
1023;1944.45;581.561;1.9
1024;1914.85;585.467;1.9
1025;1919.73;585.467;1.9
1026;1966.73;553.972;1.9
1027;1993.89;583.514;1.9
1028;2006.1;591.571;1.9
1029;2001.21;542.009;1.9
1030;1971.61;573.748;1.9
1031;1939.57;575.701;1.9
1032;1944.45;579.608;1.9
1033;1969.17;565.935;1.9
1034;1974.05;561.785;1.9
1035;1978.93;563.738;1.91
1036;1959.1;591.571;1.91
1037;1917.29;565.935;1.91
1038;1892.57;559.832;1.91
1039;1924.61;607.196;1.91
1040;1954.21;573.748;1.91
1041;1964.29;569.842;1.91
1042;1966.73;565.935;1.91
1043;1951.77;579.608;1.91
1044;1922.17;587.42;1.91
1045;1924.61;583.514;1.91
1046;1974.05;550.066;1.91
1047;1998.77;571.795;1.91
1048;2013.42;605.243;1.91
1049;2008.54;548.112;1.91
1050;1981.38;569.842;1.91
1051;1946.89;567.888;1.91
1052;1949.33;587.42;1.91
1053;1974.05;561.785;1.92
1054;1983.82;569.842;1.92
1055;1983.82;552.019;1.92
1056;1964.29;601.337;1.92
1057;1924.61;577.654;1.92
1058;1897.45;544.206;1.92
1059;1929.49;603.29;1.92
1060;1959.1;575.701;1.92
1061;1969.17;579.608;1.92
1062;1974.05;561.785;1.92
1063;1959.1;583.514;1.92
1064;1924.61;573.748;1.92
1065;1927.05;595.477;1.92
1066;1974.05;548.112;1.92
1067;1998.77;571.795;1.92
1068;2010.98;601.337;1.92
1069;2008.54;540.056;1.92
1070;1981.38;571.795;1.92
1071;1949.33;567.888;1.93
1072;1946.89;583.514;1.93
1073;1974.05;561.785;1.93
1074;1981.38;569.842;1.93
1075;1981.38;555.925;1.93
1076;1964.29;601.337;1.93
1077;1924.61;573.748;1.93
1078;1895.01;546.159;1.93
1079;1922.17;605.243;1.93
1080;1956.66;575.701;1.93
1081;1969.17;575.701;1.93
1082;1971.61;563.738;1.93
1083;1959.1;583.514;1.93
1084;1929.49;575.701;1.93
1085;1924.61;595.477;1.93
1086;1974.05;548.112;1.93
1087;1998.77;573.748;1.93
1088;2016.17;601.337;1.94
1089;2013.42;538.102;1.94
1090;1986.26;571.795;1.94
1091;1951.77;571.795;1.94
1092;1951.77;583.514;1.94
1093;1976.49;563.738;1.94
1094;1986.26;567.888;1.94
1095;1989.01;555.925;1.94
1096;1969.17;601.337;1.94
1097;1929.49;573.748;1.94
1098;1902.33;548.112;1.94
1099;1927.05;609.149;1.94
1100;1959.1;571.795;1.94
1101;1974.05;573.748;1.94
1102;1976.49;563.738;1.94
1103;1964.29;579.608;1.94
1104;1934.68;577.654;1.94
1105;1929.49;593.524;1.95
1106;1976.49;548.112;1.95
1107;2003.65;575.701;1.95
1108;2018.61;597.43;1.95
1109;2016.17;538.102;1.95
1110;1991.45;571.795;1.95
1111;1956.66;571.795;1.95
1112;1954.21;583.514;1.95
1113;1978.93;565.935;1.95
1114;1989.01;567.888;1.95
1115;1991.45;555.925;1.95
1116;1976.49;599.384;1.95
1117;1934.68;569.842;1.95
1118;1902.33;550.066;1.95
1119;1929.49;611.347;1.95
1120;1964.29;571.795;1.95
1121;1974.05;571.795;1.96
1122;1981.38;567.888;1.96
1123;1964.29;581.561;1.96
1124;1934.68;577.654;1.96
1125;1927.05;589.618;1.96
1126;1976.49;550.066;1.96
1127;2003.65;577.654;1.96
1128;2023.49;593.524;1.96
1129;2008.54;538.102;1.96
1130;1978.93;573.748;1.96
1131;1951.77;573.748;1.96
1132;1964.29;583.514;1.96
1133;1986.26;567.888;1.96
1134;1991.45;563.738;1.96
1135;1989.01;561.785;1.96
1136;1961.84;595.477;1.96
1137;1919.73;567.888;1.96
1138;1907.52;553.972;1.97
1139;1946.89;613.3;1.97
1140;1971.61;573.748;1.97
1141;1981.38;571.795;1.97
1142;1978.93;565.935;1.97
1143;1954.21;581.561;1.97
1144;1927.05;579.608;1.97
1145;1944.45;587.42;1.97
1146;1989.01;552.019;1.97
1147;2010.98;577.654;1.97
1148;2021.05;591.571;1.97
1149;2010.98;540.056;1.97
1150;1981.38;573.748;1.97
1151;1949.33;575.701;1.97
1152;1961.84;581.561;1.97
1153;1986.26;567.888;1.97
1154;1991.45;561.785;1.97
1155;1986.26;563.738;1.98
1156;1959.1;593.524;1.98
1157;1919.73;563.738;1.98
1158;1904.77;559.832;1.98
1159;1942.01;605.243;1.98
1160;1966.73;573.748;1.98
1161;1978.93;567.888;1.98
1162;1974.05;567.888;1.98
1163;1954.21;579.608;1.98
1164;1924.61;585.467;1.98
1165;1944.45;585.467;1.98
1166;1991.45;555.925;1.98
1167;2013.42;585.467;1.98
1168;2025.93;587.42;1.98
1169;2016.17;548.112;1.98
1170;1983.82;567.888;1.98
1171;1951.77;565.935;1.99
1172;1966.73;587.42;1.99
1173;1986.26;563.738;1.99
1174;1996.33;571.795;1.99
1175;1993.89;550.066;1.99
1176;1966.73;601.337;1.99
1177;1927.05;573.748;1.99
1178;1909.96;542.009;1.99
1179;1949.33;601.337;1.99
1180;1974.05;579.608;1.99
1181;1986.26;577.654;1.99
1182;1983.82;561.785;1.99
1183;1964.29;585.467;1.99
1184;1931.94;573.748;1.99
1185;1946.89;595.477;1.99
1186;1993.89;550.066;1.99
1187;2018.61;571.795;2
1188;2028.37;601.337;2
1189;2021.05;546.159;2
1190;1991.45;569.842;2
1191;1956.66;567.888;2
1192;1969.17;585.467;2
1193;1991.45;561.785;2
1194;1998.77;571.795;2
1195;1998.77;550.066;2
1196;1971.61;601.337;2
1197;1931.94;577.654;2
1198;1909.96;544.206;2
1199;1951.77;605.243;2
1200;1976.49;575.701;2
1201;1983.82;575.701;2
1202;1986.26;563.738;2
1203;1966.73;581.561;2.01
1204;1937.12;575.701;2.01
1205;1949.33;595.477;2.01
1206;1996.33;548.112;2.01
1207;2018.61;569.842;2.01
1208;2030.82;603.29;2.01
1209;2023.49;540.056;2.01
1210;1989.01;569.842;2.01
1211;1956.66;569.842;2.01
1212;1966.73;585.467;2.01
1213;1993.89;563.738;2.01
1214;2001.21;567.888;2.01
1215;1998.77;553.972;2.01
1216;1974.05;601.337;2.01
1217;1934.68;573.748;2.01
1218;1912.4;548.112;2.01
1219;1951.77;611.347;2.02
1220;1976.49;573.748;2.02
1221;1989.01;575.701;2.02
1222;1991.45;561.785;2.02
1223;1969.17;581.561;2.02
1224;1937.12;575.701;2.02
1225;1949.33;591.571;2.02
1226;1993.89;548.112;2.02
1227;2018.61;571.795;2.02
1228;2030.82;597.43;2.02
1229;2021.05;540.056;2.02
1230;1991.45;571.795;2.02
1231;1956.66;571.795;2.02
1232;1966.73;585.467;2.02
1233;1991.45;567.888;2.02
1234;1996.33;565.935;2.02
1235;1998.77;555.925;2.03
1236;1976.49;597.43;2.03
1237;1934.68;571.795;2.03
1238;1912.4;550.066;2.03
1239;1949.33;613.3;2.03
1240;1974.05;575.701;2.03
1241;1986.26;573.748;2.03
1242;1986.26;563.738;2.03
1243;1971.61;579.608;2.03
1244;1939.57;577.654;2.03
1245;1946.89;591.571;2.03
1246;1996.33;548.112;2.03
1247;2021.05;577.654;2.03
1248;2033.26;595.477;2.03
1249;2028.37;538.102;2.03
1250;1996.33;571.795;2.04
1251;1964.29;573.748;2.04
1252;1971.61;581.561;2.04
1253;1996.33;567.888;2.04
1254;2003.65;563.738;2.04
1255;2001.21;559.832;2.04
1256;1981.38;597.43;2.04
1257;1929.49;567.888;2.04
1258;1919.73;553.972;2.04
1259;1959.1;611.347;2.04
1260;1983.82;573.748;2.04
1261;1996.33;569.842;2.04
1262;1993.89;563.738;2.04
1263;1971.61;579.608;2.04
1264;1942.01;581.561;2.04
1265;1959.1;587.42;2.04
1266;2003.65;550.066;2.05
1267;2025.93;579.608;2.05
1268;2035.7;589.618;2.05
1269;2025.93;540.056;2.05
1270;1991.45;571.795;2.05
1271;1964.29;575.701;2.05
1272;1976.49;581.561;2.05
1273;2001.21;561.785;2.05
1274;2006.1;561.785;2.05
1275;2003.65;563.738;2.05
1276;1976.49;591.571;2.05
1277;1934.68;563.738;2.05
1278;1922.17;557.878;2.05
1279;1961.84;607.196;2.05
1280;1986.26;573.748;2.05
1281;1998.77;567.888;2.06
1282;1996.33;565.935;2.06
1283;1974.05;577.654;2.06
1284;1944.45;585.467;2.06
1285;1961.84;585.467;2.06
1286;2008.54;555.925;2.06
1287;2030.82;583.514;2.06
1288;2043.33;585.467;2.06
1289;2033.26;544.206;2.06
1290;1998.77;571.795;2.06
1291;1969.17;577.654;2.06
1292;1983.82;581.561;2.06
1293;2006.1;563.738;2.06
1294;2010.98;565.935;2.06
1295;2010.98;557.878;2.06
1296;1983.82;601.337;2.06
1297;1939.57;571.795;2.07
1298;1922.17;550.066;2.07
1299;1961.84;611.347;2.07
1300;1989.01;573.748;2.07
1301;2001.21;573.748;2.07
1302;1998.77;565.935;2.07
1303;1981.38;579.608;2.07
1304;1949.33;575.701;2.07
1305;1964.29;591.571;2.07
1306;2008.54;550.066;2.07
1307;2030.82;577.654;2.07
1308;2043.33;595.477;2.07
1309;2035.7;536.149;2.07
1310;2001.21;571.795;2.07
1311;1971.61;573.748;2.07
1312;1983.82;583.514;2.07
1313;2006.1;563.738;2.08
1314;2010.98;563.738;2.08
1315;2013.42;559.832;2.08
1316;1986.26;595.477;2.08
1317;1946.89;569.842;2.08
1318;1927.05;552.019;2.08
1319;1964.29;611.347;2.08
1320;1986.26;573.748;2.08
1321;1998.77;571.795;2.08
1322;2001.21;565.935;2.08
1323;1978.93;579.608;2.08
1324;1949.33;581.561;2.08
1325;1961.84;587.42;2.08
1326;2010.98;552.019;2.08
1327;2035.7;579.608;2.08
1328;2048.21;591.571;2.09
1329;2038.14;538.102;2.09
1330;2003.65;571.795;2.09
1331;1974.05;573.748;2.09
1332;1986.26;581.561;2.09
1333;2010.98;567.888;2.09
1334;2016.17;561.785;2.09
1335;2016.17;561.785;2.09
1336;1989.01;593.524;2.09
1337;1946.89;563.738;2.09
1338;1929.49;557.878;2.09
1339;1969.17;607.196;2.09
1340;1996.33;571.795;2.09
1341;2008.54;569.842;2.09
1342;2008.54;567.888;2.09
1343;1991.45;579.608;2.09
1344;1961.84;581.561;2.1
1345;1971.61;587.42;2.1
1346;2018.61;553.972;2.1
1347;2040.58;581.561;2.1
1348;2050.65;589.618;2.1
1349;2045.77;540.056;2.1
1350;2013.42;573.748;2.1
1351;1981.38;577.654;2.1
1352;1989.01;581.561;2.1
1353;2016.17;567.888;2.1
1354;2025.93;571.795;2.1
1355;2023.49;548.112;2.1
1356;2001.21;601.337;2.1
1357;1959.1;577.654;2.1
1358;1934.68;542.009;2.1
1359;1971.61;597.43;2.11
1360;1998.77;575.701;2.11
1361;2010.98;577.654;2.11
1362;2010.98;563.738;2.11
1363;1989.01;583.514;2.11
1364;1959.1;569.842;2.11
1365;1966.73;599.384;2.11
1366;2018.61;550.066;2.11
1367;2040.58;569.842;2.11
1368;2053.09;603.29;2.11
1369;2050.65;548.112;2.11
1370;2016.17;569.842;2.11
1371;1981.38;569.842;2.11
1372;1993.89;585.467;2.11
1373;2016.17;559.832;2.11
1374;2023.49;571.795;2.11
1375;2023.49;550.066;2.12
1376;1998.77;601.337;2.12
1377;1961.84;575.701;2.12
1378;1937.12;542.009;2.12
1379;1971.61;603.29;2.12
1380;2001.21;575.701;2.12
1381;2013.42;575.701;2.12
1382;2016.17;563.738;2.12
1383;1996.33;583.514;2.12
1384;1964.29;573.748;2.12
1385;1971.61;595.477;2.12
1386;2018.61;548.112;2.12
1387;2048.21;571.795;2.12
1388;2057.98;601.337;2.12
1389;2053.09;542.009;2.12
1390;2023.49;571.795;2.13
1391;1989.01;569.842;2.13
1392;1993.89;581.561;2.13
1393;2021.05;561.785;2.13
1394;2028.37;571.795;2.13
1395;2028.37;553.972;2.13
1396;2006.1;599.384;2.13
1397;1964.29;573.748;2.13
1398;1939.57;546.159;2.13
1399;1974.05;607.196;2.13
1400;2003.65;573.748;2.13
1401;2016.17;577.654;2.13
1402;2018.61;561.785;2.13
1403;1998.77;579.608;2.13
1404;1966.73;573.748;2.13
1405;1971.61;593.524;2.13
1406;2023.49;546.159;2.14
1407;2048.21;571.795;2.14
1408;2060.42;597.43;2.14
1409;2057.98;538.102;2.14
1410;2028.37;573.748;2.14
1411;1991.45;567.888;2.14
1412;1996.33;583.514;2.14
1413;2021.05;563.738;2.14
1414;2028.37;565.935;2.14
1415;2030.82;553.972;2.14
1416;2006.1;599.384;2.14
1417;1969.17;571.795;2.14
1418;1942.01;548.112;2.14
1419;1976.49;611.347;2.14
1420;2006.1;573.748;2.14
1421;2021.05;571.795;2.14
1422;2023.49;563.738;2.15
1423;2006.1;581.561;2.15
1424;1976.49;575.701;2.15
1425;1976.49;591.571;2.15
1426;2028.37;548.112;2.15
1427;2053.09;573.748;2.15
1428;2067.74;597.43;2.15
1429;2062.86;536.149;2.15
1430;2033.26;573.748;2.15
1431;2001.21;571.795;2.15
1432;2003.65;583.514;2.15
1433;2030.82;565.935;2.15
1434;2038.14;563.738;2.15
1435;2038.14;555.925;2.15
1436;2021.05;597.43;2.15
1437;1978.93;567.888;2.15
1438;1949.33;552.019;2.16
1439;1981.38;611.347;2.16
1440;2013.42;573.748;2.16
1441;2025.93;571.795;2.16
1442;2030.82;563.738;2.16
1443;2013.42;579.608;2.16
1444;1981.38;579.608;2.16
1445;1978.93;589.618;2.16
1446;2028.37;550.066;2.16
1447;2055.54;577.654;2.16
1448;2070.49;591.571;2.16
1449;2065.3;536.149;2.16
1450;2038.14;569.842;2.16
1451;2003.65;575.701;2.16
1452;2006.1;579.608;2.16
1453;2033.26;565.935;2.16
1454;2040.58;561.785;2.17
1455;2040.58;563.738;2.17
1456;2023.49;593.524;2.17
1457;1983.82;565.935;2.17
1458;1954.21;555.925;2.17
1459;1991.45;609.149;2.17
1460;2023.49;573.748;2.17
1461;2035.7;567.888;2.17
1462;2038.14;565.935;2.17
1463;2025.93;577.654;2.17
1464;1989.01;583.514;2.17
1465;1989.01;583.514;2.17
1466;2038.14;552.019;2.17
1467;2065.3;579.608;2.17
1468;2080.26;589.618;2.17
1469;2075.37;542.009;2.17
1470;2048.21;571.795;2.18
1471;2013.42;577.654;2.18
1472;2010.98;579.608;2.18
1473;2040.58;565.935;2.18
1474;2050.65;555.925;2.18
1475;2050.65;565.935;2.18
1476;2030.82;591.571;2.18
1477;1991.45;559.832;2.18
1478;1959.1;538.102;2.18
1479;1991.45;595.477;2.18
1480;2023.49;575.701;2.18
1481;2035.7;577.654;2.18
1482;2038.14;557.878;2.18
1483;2023.49;583.514;2.18
1484;1993.89;569.842;2.18
1485;1986.26;595.477;2.19
1486;2038.14;550.066;2.19
1487;2065.3;567.888;2.19
1488;2082.7;601.337;2.19
1489;2080.26;546.159;2.19
1490;2053.09;567.888;2.19
1491;2016.17;563.738;2.19
1492;2013.42;581.561;2.19
1493;2043.33;557.878;2.19
1494;2055.54;571.795;2.19
1495;2055.54;548.112;2.19
1496;2040.58;597.43;2.19
1497;2001.21;573.748;2.19
1498;1966.73;542.009;2.19
1499;1996.33;603.29;2.19
1500;2030.82;575.701;2.2
1501;2045.77;577.654;2.2
1502;2048.21;561.785;2.2
1503;2033.26;585.467;2.2
1504;2001.21;571.795;2.2
1505;1996.33;595.477;2.2
1506;2048.21;546.159;2.2
1507;2075.37;567.888;2.2
1508;2092.46;603.29;2.2
1509;2090.02;542.009;2.2
1510;2065.3;567.888;2.2
1511;2028.37;567.888;2.2
1512;2025.93;583.514;2.2
1513;2060.42;559.832;2.2
1514;2062.86;567.888;2.21
1515;2060.42;550.066;2.21
1516;2033.26;599.384;2.21
1517;1989.01;573.748;2.21
1518;1974.05;544.206;2.21
1519;2018.61;605.243;2.21
1520;2040.58;577.654;2.21
1521;2053.09;573.748;2.21
1522;2048.21;561.785;2.21
1523;2025.93;581.561;2.21
1524;1993.89;571.795;2.21
1525;2013.42;591.571;2.21
1526;2060.42;544.206;2.21
1527;2087.58;569.842;2.21
1528;2097.65;597.43;2.21
1529;2085.14;538.102;2.22
1530;2053.09;567.888;2.22
1531;2018.61;567.888;2.22
1532;2035.7;583.514;2.22
1533;2057.98;561.785;2.22
1534;2065.3;565.935;2.22
1535;2060.42;553.972;2.22
1536;2033.26;599.384;2.22
1537;1991.45;573.748;2.22
1538;1974.05;546.159;2.22
1539;2016.17;609.149;2.22
1540;2043.33;573.748;2.22
1541;2050.65;573.748;2.22
1542;2050.65;559.832;2.22
1543;2025.93;579.608;2.23
1544;1993.89;573.748;2.23
1545;2010.98;589.618;2.23
1546;2062.86;546.159;2.23
1547;2087.58;571.795;2.23
1548;2100.09;593.524;2.23
1549;2090.02;534.196;2.23
1550;2057.98;571.795;2.23
1551;2025.93;571.795;2.23
1552;2038.14;581.561;2.23
1553;2062.86;561.785;2.23
1554;2067.74;563.738;2.23
1555;2065.3;555.925;2.23
1556;2043.33;595.477;2.23
1557;1993.89;567.888;2.24
1558;1978.93;550.066;2.24
1559;2023.49;611.347;2.24
1560;2048.21;571.795;2.24
1561;2060.42;569.842;2.24
1562;2057.98;561.785;2.24
1563;2035.7;579.608;2.24
1564;2003.65;577.654;2.24
1565;2018.61;587.42;2.24
1566;2070.49;548.112;2.24
1567;2094.91;575.701;2.24
1568;2104.98;587.42;2.24
1569;2094.91;536.149;2.24
1570;2062.86;571.795;2.24
1571;2028.37;569.842;2.25
1572;2043.33;579.608;2.25
1573;2070.49;563.738;2.25
1574;2075.37;561.785;2.25
1575;2072.93;561.785;2.25
1576;2048.21;593.524;2.25
1577;2003.65;561.785;2.25
1578;1986.26;552.019;2.25
1579;2025.93;607.196;2.25
1580;2053.09;571.795;2.25
1581;2060.42;567.888;2.25
1582;2065.3;561.785;2.25
1583;2043.33;577.654;2.25
1584;2010.98;579.608;2.26
1585;2021.05;585.467;2.26
1586;2072.93;550.066;2.26
1587;2094.91;579.608;2.26
1588;2107.42;587.42;2.26
1589;2100.09;538.102;2.26
1590;2070.49;571.795;2.26
1591;2035.7;573.748;2.26
1592;2048.21;577.654;2.26
1593;2072.93;563.738;2.26
1594;2080.26;555.925;2.26
1595;2077.81;561.785;2.26
1596;2053.09;589.618;2.26
1597;2008.54;561.785;2.27
1598;1986.26;555.925;2.27
1599;2028.37;605.243;2.27
1600;2057.98;569.842;2.27
1601;2067.74;569.842;2.27
1602;2067.74;559.832;2.27
1603;2048.21;579.608;2.27
1604;2016.17;573.748;2.27
1605;2025.93;585.467;2.27
1606;2075.37;546.159;2.27
1607;2100.09;573.748;2.27
1608;2114.74;595.477;2.27
1609;2104.98;534.196;2.27
1610;2072.93;567.888;2.28
1611;2038.14;569.842;2.28
1612;2048.21;579.608;2.28
1613;2077.81;561.785;2.28
1614;2085.14;561.785;2.28
1615;2082.7;553.972;2.28
1616;2060.42;595.477;2.28
1617;2016.17;569.842;2.28
1618;1991.45;550.066;2.28
1619;2030.82;611.347;2.28
1620;2060.42;571.795;2.28
1621;2070.49;569.842;2.28
1622;2072.93;561.785;2.28
1623;2053.09;577.654;2.29
1624;2021.05;575.701;2.29
1625;2028.37;589.618;2.29
1626;2080.26;546.159;2.29
1627;2104.98;575.701;2.29
1628;2117.18;591.571;2.29
1629;2109.86;536.149;2.29
1630;2077.81;567.888;2.29
1631;2045.77;571.795;2.29
1632;2050.65;581.561;2.29
1633;2077.81;563.738;2.29
1634;2085.14;559.832;2.29
1635;2085.14;557.878;2.29
1636;2062.86;591.571;2.29
1637;2021.05;565.935;2.3
1638;1996.33;552.019;2.3
1639;2030.82;607.196;2.3
1640;2062.86;571.795;2.3
1641;2072.93;565.935;2.3
1642;2075.37;561.785;2.3
1643;2055.54;575.701;2.3
1644;2023.49;579.608;2.3
1645;2025.93;585.467;2.3
1646;2080.26;548.112;2.3
1647;2104.98;579.608;2.3
1648;2119.63;585.467;2.3
1649;2114.74;538.102;2.31
1650;2082.7;567.888;2.31
1651;2045.77;573.748;2.31
1652;2053.09;577.654;2.31
1653;2080.26;563.738;2.31
1654;2087.58;555.925;2.31
1655;2090.02;561.785;2.31
1656;2065.3;591.571;2.31
1657;2023.49;559.832;2.31
1658;1996.33;553.972;2.31
1659;2035.7;607.196;2.31
1660;2060.42;569.842;2.31
1661;2075.37;561.785;2.31
1662;2077.81;563.738;2.32
1663;2060.42;581.561;2.32
1664;2028.37;569.842;2.32
1665;2030.82;597.43;2.32
1666;2080.26;550.066;2.32
1667;2109.86;567.888;2.32
1668;2124.81;601.337;2.32
1669;2122.07;544.206;2.32
1670;2092.46;565.935;2.32
1671;2055.54;561.785;2.32
1672;2060.42;581.561;2.32
1673;2082.7;557.878;2.32
1674;2094.91;567.888;2.32
1675;2092.46;546.159;2.33
1676;2070.49;597.43;2.33
1677;2028.37;573.748;2.33
1678;1998.77;538.102;2.33
1679;2035.7;601.337;2.33
1680;2067.74;575.701;2.33
1681;2082.7;575.701;2.33
1682;2087.58;559.832;2.33
1683;2065.3;581.561;2.33
1684;2033.26;567.888;2.33
1685;2033.26;593.524;2.33
1686;2082.7;546.159;2.33
1687;2112.3;567.888;2.34
1688;2124.81;601.337;2.34
