<WeldAnalyseData xmlns:i="http:www.w3.org/2001/XMLSchema-instance">
<WeldParameter>
<TimeStamp>DT#2024-01-24-13:58:09</TimeStamp>
<Generator>SG-22-10000</Generator>
<GenFreq>20</GenFreq>
<MaxForce>8000</MaxForce>
<MaxPower>10000</MaxPower>
<RunupPressure>1.5</RunupPressure>
<RunupDist>10</RunupDist>
<RunPress>0.8</RunPress>
<ShakeDelay>0.03</ShakeDelay>
<ShakeTime>0.3</ShakeTime>
<RunBackPress1>6</RunBackPress1>
<RunBackPress2>2</RunBackPress2>
<RunBackDist>1</RunBackDist>
<TrigValue>500</TrigValue>
<TrigModeUnit>W</TrigModeUnit>
<WeldModeUnit>Ws</WeldModeUnit>
<PressNr>0</PressNr>
<MaxLoss>1500</MaxLoss>
</WeldParameter>
<WeldSets>
<WeldSet>
<PressRiseTime>0</PressRiseTime>
<RunPressure>1</RunPressure>
<Amplitude>86</Amplitude>
<WeldMode>3270</WeldMode>
</WeldSet>
</WeldSets>
<WeldValue>
<WeldNr>2954</WeldNr>
<RecipeName>RickStyle</RecipeName>
<WeldTime>1678</WeldTime>
<DistDiff>2.46</DistDiff>
<DistAbs>78.08</DistAbs>
<Energy>3271.35</Energy>
<MaxPower>2123.69</MaxPower>
<CycleTime>6020</CycleTime>
<TrigForce>502.701</TrigForce>
<TrigDist>75.62</TrigDist>
<RunSpeed>67.2776</RunSpeed>
<MaxForce>615.253</MaxForce>
<LossPower>325.423</LossPower>
</WeldValue>
</WeldAnalyseData>
#CSV-START#
ms;Power[W];Force[N];Distance[mm]
1;0;0;0
2;0;502.701;0
3;0;502.701;0.00999451
4;0;506.607;0.00999451
5;0;506.607;0.00999451
6;0;504.654;0.00999451
7;0;504.654;0.00999451
8;0;475.112;0.00999451
9;0;423.597;0.0199966
10;0;403.821;0.0400009
11;0;378.185;0.0699997
12;24.9298;346.69;0.110001
13;89.3239;334.727;0.139999
14;165.925;332.774;0.189995
15;237.339;293.222;0.229996
16;294.103;291.269;0.269997
17;343.543;283.456;0.32
18;400.307;291.269;0.369995
19;464.396;283.456;0.419998
20;526.349;291.269;0.459999
21;587.996;277.596;0.509995
22;647.202;319.102;0.549995
23;703.967;309.091;0.579994
24;760.731;293.222;0.610001
25;837.333;344.737;0.639999
26;909.051;330.821;0.659996
27;968.257;340.831;0.68
28;1025.02;342.784;0.699997
29;1074.46;370.373;0.719994
30;1106.51;374.279;0.729996
31;1140.99;401.868;0.739998
32;1205.39;376.232;0.739998
33;1254.52;392.102;0.75
34;1291.75;423.597;0.75
35;1328.68;386.242;0.759995
36;1343.63;399.915;0.769997
37;1348.52;403.821;0.769997
38;1368.35;419.691;0.779999
39;1415.05;401.868;0.779999
40;1447.4;413.831;0.790001
41;1474.56;394.055;0.790001
42;1491.65;437.513;0.799995
43;1484.32;425.55;0.809998
44;1479.44;394.055;0.809998
45;1516.37;441.42;0.82
46;1563.37;431.654;0.82
47;1592.97;431.654;0.829994
48;1617.69;413.831;0.839996
49;1634.78;441.42;0.839996
50;1632.34;429.456;0.849998
51;1644.85;455.336;0.860001
52;1699.18;413.831;0.860001
53;1745.87;429.456;0.869995
54;1780.66;465.102;0.879997
55;1805.38;415.784;0.889999
56;1800.19;435.56;0.889999
57;1787.98;435.56;0.899994
58;1792.87;455.336;0.909996
59;1834.98;437.513;0.909996
60;1862.14;447.279;0.919998
61;1879.23;427.503;0.93
62;1884.42;477.065;0.93
63;1859.7;459.243;0.939995
64;1837.42;425.55;0.949997
65;1864.59;486.831;0.949997
66;1914.03;467.055;0.959999
67;1938.75;469.008;0.959999
68;1953.39;453.383;0.969994
69;1953.39;479.019;0.969994
70;1931.12;469.008;0.979996
71;1926.23;494.644;0.979996
72;1978.11;447.279;0.989998
73;2020.23;470.962;0.989998
74;2044.64;506.607;1
75;2052.27;447.279;1
76;2030;475.112;1.00999
77;2000.39;470.962;1.00999
78;2002.83;490.738;1.02
79;2034.88;469.008;1.02
80;2049.83;480.972;1.02
81;2057.16;463.149;1.03
82;2042.2;514.42;1.03
83;2000.39;488.784;1.04
84;1973.23;459.243;1.04
85;2005.28;522.477;1.05
86;2047.39;492.691;1.05
87;2059.6;496.597;1.05
88;2064.48;482.925;1.06
89;2052.27;498.795;1.06
90;2022.67;498.795;1.07
91;2020.23;520.524;1.07
92;2074.55;496.597;1.07999
93;2106.6;490.738;1.07999
94;2123.69;528.336;1.07999
95;2123.69;496.597;1.09
96;2096.53;488.784;1.09
97;2059.6;496.597;1.09
98;2054.72;512.467;1.1
99;2084.32;500.748;1.1
100;2094.08;498.795;1.1
101;2096.53;480.972;1.11
102;2074.55;514.42;1.11
103;2032.44;514.42;1.12
104;2000.39;477.065;1.12
105;2030;516.373;1.12
106;2064.48;520.524;1.13
107;2074.55;514.42;1.13
108;2081.88;496.597;1.13
109;2064.48;516.373;1.14
110;2032.44;512.467;1.14
111;2022.67;536.149;1.14
112;2074.55;504.654;1.14999
113;2101.71;504.654;1.14999
114;2121.25;542.009;1.14999
115;2118.8;502.701;1.16
116;2086.76;502.701;1.16
117;2049.83;508.56;1.16
118;2044.64;524.43;1.17
119;2074.55;506.607;1.17
120;2081.88;512.467;1.17
121;2086.76;490.738;1.17
122;2064.48;528.336;1.18
123;2025.11;522.477;1.18
124;1987.88;488.784;1.18
125;2015.04;530.29;1.18999
126;2052.27;532.243;1.18999
127;2064.48;524.43;1.18999
128;2069.36;512.467;1.18999
129;2052.27;530.29;1.2
130;2020.23;522.477;1.2
131;2010.16;548.112;1.2
132;2059.6;512.467;1.2
133;2089.2;516.373;1.21
134;2104.16;553.972;1.21
135;2104.16;508.56;1.21
136;2071.81;514.42;1.21
137;2034.88;516.373;1.21999
138;2030;534.196;1.21999
139;2057.16;516.373;1.21999
140;2069.36;522.477;1.21999
141;2069.36;500.748;1.23
142;2052.27;544.206;1.23
143;2010.16;530.29;1.23
144;1973.23;496.597;1.23
145;1997.95;544.206;1.24
146;2034.88;534.196;1.24
147;2047.39;532.243;1.24
148;2052.27;516.373;1.24
149;2037.32;542.009;1.24
150;2005.28;528.336;1.25
151;1995.51;555.925;1.25
152;2044.64;514.42;1.25
153;2074.55;526.383;1.25
154;2086.76;561.785;1.25
155;2089.2;512.467;1.25999
156;2062.04;524.43;1.25999
157;2022.67;522.477;1.25999
158;2017.48;542.009;1.25999
159;2042.2;520.524;1.25999
160;2054.72;528.336;1.27
161;2059.6;508.56;1.27
162;2039.76;553.972;1.27
163;2000.39;534.196;1.27
164;1960.72;500.748;1.27
165;1983;555.925;1.28
166;2015.04;538.102;1.28
167;2030;540.056;1.28
168;2037.32;524.43;1.28
169;2022.67;548.112;1.28
170;1990.32;534.196;1.29
171;1978.11;561.785;1.29
172;2027.55;516.373;1.29
173;2059.6;534.196;1.29
174;2074.55;569.842;1.29
175;2076.99;514.42;1.29
176;2049.83;534.196;1.3
177;2010.16;530.29;1.3
178;2000.39;550.066;1.3
179;2027.55;528.336;1.3
180;2037.32;538.102;1.3
181;2037.32;516.373;1.31
182;2022.67;565.935;1.31
183;1980.56;544.206;1.31
184;1946.07;508.56;1.31
185;1968.35;567.888;1.31
186;2002.83;544.206;1.31
187;2017.48;546.159;1.32
188;2025.11;530.29;1.32
189;2007.72;552.019;1.32
190;1980.56;542.009;1.32
191;1965.91;567.888;1.32
192;2012.6;518.326;1.32999
193;2044.64;540.056;1.32999
194;2059.6;571.795;1.32999
195;2062.04;512.467;1.32999
196;2030;538.102;1.32999
197;1997.95;536.149;1.32999
198;1985.44;553.972;1.34
199;2012.6;532.243;1.34
200;2025.11;542.009;1.34
201;2025.11;522.477;1.34
202;2005.28;571.795;1.34
203;1968.35;548.112;1.34
204;1931.12;516.373;1.35
205;1950.95;577.654;1.35
206;1985.44;546.159;1.35
207;2000.39;548.112;1.35
208;2005.28;536.149;1.35
209;1993.07;552.019;1.35
210;1963.16;548.112;1.35
211;1948.51;569.842;1.36
212;1995.51;544.206;1.36
213;2027.55;540.056;1.36
214;2039.76;575.701;1.36
215;2047.39;540.056;1.36
216;2020.23;534.196;1.36
217;1985.44;544.206;1.37
218;1973.23;557.878;1.37
219;2002.83;544.206;1.37
220;2012.6;546.159;1.37
221;2017.48;524.43;1.37
222;2002.83;557.878;1.37
223;1960.72;555.925;1.37
224;1923.79;520.524;1.38
225;1943.63;559.832;1.38
226;1975.67;565.935;1.38
227;1995.51;555.925;1.38
228;2000.39;540.056;1.38
229;1990.32;559.832;1.38
230;1963.16;552.019;1.39
231;1946.07;575.701;1.39
232;1985.44;544.206;1.39
233;2017.48;544.206;1.39
234;2032.44;581.561;1.39
235;2034.88;540.056;1.39
236;2012.6;540.056;1.39
237;1975.67;544.206;1.39999
238;1963.16;561.785;1.39999
239;1987.88;540.056;1.39999
240;2000.39;548.112;1.39999
241;2000.39;522.477;1.39999
242;1987.88;565.935;1.39999
243;1948.51;559.832;1.39999
244;1911.58;522.477;1.41
245;1923.79;567.888;1.41
246;1965.91;563.738;1.41
247;1978.11;557.878;1.41
248;1987.88;542.009;1.41
249;1973.23;567.888;1.41
250;1946.07;555.925;1.41
251;1928.67;581.561;1.42
252;1973.23;546.159;1.42
253;2005.28;552.019;1.42
254;2022.67;589.618;1.42
255;2025.11;538.102;1.42
256;2000.39;546.159;1.42
257;1963.16;550.066;1.42
258;1950.95;567.888;1.42
259;1975.67;544.206;1.43
260;1987.88;553.972;1.43
261;1990.32;530.29;1.43
262;1978.11;573.748;1.43
263;1938.75;561.785;1.43
264;1903.95;526.383;1.43
265;1914.03;573.748;1.43
266;1953.39;565.935;1.43999
267;1968.35;559.832;1.43999
268;1973.23;546.159;1.43999
269;1963.16;569.842;1.43999
270;1936;559.832;1.43999
271;1916.47;583.514;1.43999
272;1958.28;540.056;1.43999
273;1990.32;555.925;1.43999
274;2007.72;593.524;1.45
275;2015.04;540.056;1.45
276;1995.51;553.972;1.45
277;1958.28;553.972;1.45
278;1946.07;571.795;1.45
279;1968.35;548.112;1.45
280;1980.56;559.832;1.45
281;1985.44;538.102;1.45
282;1973.23;587.42;1.46
283;1936;565.935;1.46
284;1899.07;528.336;1.46
285;1908.84;587.42;1.46
286;1948.51;569.842;1.46
287;1963.16;569.842;1.46
288;1970.79;552.019;1.46
289;1963.16;575.701;1.46
290;1933.56;565.935;1.46999
291;1916.47;589.618;1.46999
292;1955.84;542.009;1.46999
293;1993.07;561.785;1.46999
294;2007.72;595.477;1.46999
295;2012.6;540.056;1.46999
296;1993.07;561.785;1.46999
297;1955.84;561.785;1.46999
298;1941.19;575.701;1.48
299;1965.91;553.972;1.48
300;1978.11;565.935;1.48
301;1985.44;544.206;1.48
302;1973.23;595.477;1.48
303;1936;569.842;1.48
304;1901.51;538.102;1.48
305;1906.4;595.477;1.48
306;1946.07;573.748;1.48
307;1960.72;573.748;1.49
308;1968.35;557.878;1.49
309;1958.28;581.561;1.49
310;1928.67;569.842;1.49
311;1908.84;593.524;1.49
312;1950.95;546.159;1.49
313;1987.88;567.888;1.49
314;2005.28;599.384;1.49
315;2010.16;540.056;1.5
316;1990.32;567.888;1.5
317;1958.28;565.935;1.5
318;1936;583.514;1.5
319;1960.72;557.878;1.5
320;1975.67;571.795;1.5
321;1978.11;555.925;1.5
322;1968.35;601.337;1.5
323;1931.12;575.701;1.5
324;1891.75;546.159;1.50999
325;1903.95;593.524;1.50999
326;1941.19;579.608;1.50999
327;1955.84;579.608;1.50999
328;1965.91;563.738;1.50999
329;1955.84;587.42;1.50999
330;1931.12;577.654;1.50999
331;1908.84;601.337;1.50999
332;1946.07;557.878;1.50999
333;1980.56;571.795;1.52
334;2000.39;609.149;1.52
335;2005.28;553.972;1.52
336;1985.44;567.888;1.52
337;1950.95;567.888;1.52
338;1941.19;587.42;1.52
339;1965.91;561.785;1.52
340;1975.67;575.701;1.52
341;1975.67;552.019;1.52
342;1955.84;601.337;1.53
343;1916.47;579.608;1.53
344;1884.42;544.206;1.53
345;1916.47;599.384;1.53
346;1946.07;583.514;1.53
347;1958.28;583.514;1.53
348;1963.16;567.888;1.53
349;1948.51;589.618;1.53
350;1916.47;577.654;1.53
351;1916.47;603.29;1.53
352;1963.16;555.925;1.54
353;1990.32;575.701;1.54
354;2005.28;607.196;1.54
355;2005.28;552.019;1.54
356;1975.67;571.795;1.54
357;1941.19;571.795;1.54
358;1941.19;591.571;1.54
359;1968.35;567.888;1.54
360;1975.67;579.608;1.54
361;1975.67;557.878;1.54
362;1958.28;607.196;1.55
363;1916.47;579.608;1.55
364;1889.31;548.112;1.55
365;1916.47;607.196;1.55
366;1946.07;583.514;1.55
367;1958.28;583.514;1.55
368;1963.16;569.842;1.55
369;1950.95;589.618;1.55
370;1921.35;581.561;1.55
371;1916.47;601.337;1.55
372;1965.91;553.972;1.56
373;1990.32;577.654;1.56
374;2002.83;609.149;1.56
375;2002.83;550.066;1.56
376;1978.11;579.608;1.56
377;1941.19;573.748;1.56
378;1941.19;591.571;1.56
379;1965.91;571.795;1.56
380;1975.67;577.654;1.56
381;1975.67;559.832;1.56
382;1958.28;609.149;1.56
383;1918.91;581.561;1.57
384;1889.31;550.066;1.57
385;1916.47;587.42;1.57
386;1948.51;595.477;1.57
387;1963.16;585.467;1.57
388;1965.91;569.842;1.57
389;1953.39;591.571;1.57
390;1918.91;583.514;1.57
391;1916.47;605.243;1.57
392;1960.72;573.748;1.57
393;1990.32;573.748;1.57
394;2005.28;607.196;1.57999
395;2005.28;573.748;1.57999
396;1978.11;567.888;1.57999
397;1943.63;575.701;1.57999
398;1943.63;589.618;1.57999
399;1968.35;571.795;1.57999
400;1978.11;577.654;1.57999
401;1983;553.972;1.57999
402;1960.72;593.524;1.57999
403;1921.35;589.618;1.57999
404;1891.75;548.112;1.57999
405;1918.91;593.524;1.59
406;1948.51;593.524;1.59
407;1963.16;585.467;1.59
408;1965.91;567.888;1.59
409;1955.84;591.571;1.59
410;1926.23;583.514;1.59
411;1918.91;607.196;1.59
412;1963.16;571.795;1.59
413;1993.07;575.701;1.59
414;2010.16;611.347;1.59
415;2005.28;567.888;1.59
416;1980.56;571.795;1.59
417;1946.07;573.748;1.6
418;1943.63;589.618;1.6
419;1970.79;569.842;1.6
420;1980.56;577.654;1.6
421;1980.56;553.972;1.6
422;1965.91;595.477;1.6
423;1923.79;587.42;1.6
424;1894.19;550.066;1.6
425;1916.47;597.43;1.6
426;1948.51;593.524;1.6
427;1960.72;585.467;1.6
428;1965.91;567.888;1.6
429;1955.84;593.524;1.61
430;1926.23;581.561;1.61
431;1914.03;605.243;1.61
432;1960.72;565.935;1.61
433;1990.32;575.701;1.61
434;2007.72;613.3;1.61
435;2007.72;563.738;1.61
436;1980.56;573.748;1.61
437;1948.51;575.701;1.61
438;1941.19;593.524;1.61
439;1965.91;569.842;1.61
440;1978.11;579.608;1.61
441;1980.56;553.972;1.62
442;1963.16;601.337;1.62
443;1926.23;583.514;1.62
444;1894.19;548.112;1.62
445;1911.58;601.337;1.62
446;1948.51;589.618;1.62
447;1960.72;587.42;1.62
448;1968.35;567.888;1.62
449;1955.84;593.524;1.62
450;1923.79;581.561;1.62
451;1916.47;607.196;1.62
452;1963.16;561.785;1.62
453;1990.32;577.654;1.63
454;2007.72;613.3;1.63
455;2007.72;557.878;1.63
456;1985.44;575.701;1.63
457;1948.51;573.748;1.63
458;1943.63;593.524;1.63
459;1968.35;569.842;1.63
460;1978.11;581.561;1.63
461;1980.56;557.878;1.63
462;1963.16;607.196;1.63
463;1928.67;583.514;1.63
464;1894.19;552.019;1.63
465;1914.03;607.196;1.63
466;1948.51;587.42;1.64
467;1960.72;587.42;1.64
468;1970.79;569.842;1.64
469;1958.28;593.524;1.64
470;1926.23;579.608;1.64
471;1914.03;605.243;1.64
472;1960.72;557.878;1.64
473;1993.07;577.654;1.64
474;2007.72;611.347;1.64
475;2012.6;553.972;1.64
476;1987.88;577.654;1.64
477;1950.95;575.701;1.64
478;1943.63;593.524;1.64
479;1968.35;571.795;1.64999
480;1978.11;577.654;1.64999
481;1983;559.832;1.64999
482;1968.35;611.347;1.64999
483;1931.12;583.514;1.64999
484;1896.63;552.019;1.64999
485;1916.47;611.347;1.64999
486;1950.95;585.467;1.64999
487;1965.91;585.467;1.64999
488;1973.23;571.795;1.64999
489;1960.72;591.571;1.64999
490;1931.12;583.514;1.64999
491;1918.91;603.29;1.64999
492;1963.16;553.972;1.66
493;1995.51;579.608;1.66
494;2007.72;611.347;1.66
495;2010.16;552.019;1.66
496;1987.88;579.608;1.66
497;1953.39;575.701;1.66
498;1943.63;593.524;1.66
499;1968.35;569.842;1.66
500;1978.11;577.654;1.66
501;1983;561.785;1.66
502;1970.79;591.571;1.66
503;1931.12;587.42;1.66
504;1896.63;553.972;1.66
505;1914.03;589.618;1.67
506;1953.39;595.477;1.67
507;1965.91;585.467;1.67
508;1970.79;567.888;1.67
509;1960.72;591.571;1.67
510;1931.12;583.514;1.67
511;1918.91;607.196;1.67
512;1960.72;575.701;1.67
513;1995.51;575.701;1.67
514;2012.6;613.3;1.67
515;2015.04;571.795;1.67
516;1990.32;571.795;1.67
517;1955.84;575.701;1.67
518;1943.63;593.524;1.68
519;1970.79;571.795;1.68
520;1983;577.654;1.68
521;1985.44;557.878;1.68
522;1975.67;593.524;1.68
523;1938.75;589.618;1.68
524;1899.07;550.066;1.68
525;1914.03;595.477;1.68
526;1950.95;589.618;1.68
527;1965.91;587.42;1.68
528;1970.79;571.795;1.68
529;1963.16;591.571;1.68
530;1936;581.561;1.68
531;1918.91;605.243;1.68999
532;1963.16;573.748;1.68999
533;1995.51;577.654;1.68999
534;2010.16;615.253;1.68999
535;2012.6;565.935;1.68999
536;1990.32;573.748;1.68999
537;1955.84;573.748;1.68999
538;1941.19;593.524;1.68999
539;1965.91;569.842;1.68999
540;1980.56;579.608;1.68999
541;1983;557.878;1.68999
542;1970.79;603.29;1.68999
543;1931.12;585.467;1.68999
544;1896.63;550.066;1.7
545;1908.84;599.384;1.7
546;1946.07;591.571;1.7
547;1960.72;587.42;1.7
548;1968.35;567.888;1.7
549;1958.28;591.571;1.7
550;1931.12;581.561;1.7
551;1914.03;607.196;1.7
552;1958.28;567.888;1.7
553;1987.88;577.654;1.7
554;2005.28;613.3;1.7
555;2010.16;563.738;1.7
556;1985.44;573.748;1.7
557;1953.39;573.748;1.71
558;1938.75;593.524;1.71
559;1965.91;569.842;1.71
560;1978.11;577.654;1.71
561;1983;557.878;1.71
562;1973.23;605.243;1.71
563;1933.56;585.467;1.71
564;1899.07;548.112;1.71
565;1911.58;603.29;1.71
566;1946.07;589.618;1.71
567;1963.16;585.467;1.71
568;1968.35;573.748;1.71
569;1958.28;593.524;1.71
570;1933.56;581.561;1.71
571;1916.47;607.196;1.71999
572;1958.28;561.785;1.71999
573;1993.07;579.608;1.71999
574;2007.72;613.3;1.71999
575;2015.04;557.878;1.71999
576;1995.51;577.654;1.71999
577;1958.28;577.654;1.71999
578;1943.63;591.571;1.71999
579;1968.35;569.842;1.71999
580;1983;581.561;1.71999
581;1983;555.925;1.71999
582;1978.11;609.149;1.71999
583;1941.19;585.467;1.71999
584;1903.95;552.019;1.71999
585;1911.58;607.196;1.73
586;1948.51;589.618;1.73
587;1963.16;585.467;1.73
588;1970.79;569.842;1.73
589;1963.16;595.477;1.73
590;1936;581.561;1.73
591;1916.47;605.243;1.73
592;1958.28;557.878;1.73
593;1993.07;577.654;1.73
594;2007.72;613.3;1.73
595;2017.48;553.972;1.73
596;1997.95;579.608;1.73
597;1960.72;577.654;1.73
598;1943.63;593.524;1.73
599;1970.79;571.795;1.74
600;1987.88;579.608;1.74
601;1990.32;559.832;1.74
602;1970.79;609.149;1.74
603;1928.67;585.467;1.74
604;1901.51;553.972;1.74
605;1933.56;613.3;1.74
606;1960.72;585.467;1.74
607;1970.79;587.42;1.74
608;1975.67;569.842;1.74
609;1960.72;591.571;1.74
610;1931.12;581.561;1.74
611;1928.67;603.29;1.74
612;1980.56;553.972;1.74
613;2005.28;581.561;1.74
614;2020.23;607.196;1.75
615;2017.48;552.019;1.75
616;1987.88;579.608;1.75
617;1950.95;577.654;1.75
618;1953.39;587.42;1.75
619;1980.56;573.748;1.75
620;1987.88;579.608;1.75
621;1987.88;561.785;1.75
622;1968.35;603.29;1.75
623;1923.79;585.467;1.75
624;1899.07;550.066;1.75
625;1931.12;603.29;1.75
626;1955.84;587.42;1.75
627;1973.23;587.42;1.75
628;1978.11;571.795;1.75999
629;1963.16;593.524;1.75999
630;1933.56;581.561;1.75999
631;1931.12;607.196;1.75999
632;1980.56;561.785;1.75999
633;2007.72;577.654;1.75999
634;2020.23;611.347;1.75999
635;2017.48;557.878;1.75999
636;1987.88;575.701;1.75999
637;1953.39;573.748;1.75999
638;1953.39;589.618;1.75999
639;1980.56;567.888;1.75999
640;1987.88;579.608;1.75999
641;1990.32;557.878;1.75999
642;1970.79;605.243;1.75999
643;1933.56;581.561;1.75999
644;1899.07;550.066;1.77
645;1928.67;607.196;1.77
646;1965.91;583.514;1.77
647;1973.23;585.467;1.77
648;1980.56;569.842;1.77
649;1965.91;593.524;1.77
650;1936;581.561;1.77
651;1933.56;605.243;1.77
652;1980.56;555.925;1.77
653;2007.72;577.654;1.77
654;2020.23;609.149;1.77
655;2017.48;552.019;1.77
656;1990.32;577.654;1.77
657;1955.84;575.701;1.77
658;1953.39;591.571;1.77
659;1980.56;565.935;1.78
660;1990.32;577.654;1.78
661;1993.07;557.878;1.78
662;1975.67;607.196;1.78
663;1936;583.514;1.78
664;1906.4;552.019;1.78
665;1933.56;609.149;1.78
666;1960.72;583.514;1.78
667;1973.23;585.467;1.78
668;1975.67;567.888;1.78
669;1960.72;589.618;1.78
670;1933.56;579.608;1.78
671;1931.12;605.243;1.78
672;1975.67;552.019;1.78
673;2005.28;579.608;1.78
674;2020.23;611.347;1.78
675;2020.23;548.112;1.79
676;1993.07;579.608;1.79
677;1955.84;573.748;1.79
678;1953.39;589.618;1.79
679;1980.56;569.842;1.79
680;1987.88;575.701;1.79
681;1990.32;552.019;1.79
682;1975.67;587.42;1.79
683;1936;585.467;1.79
684;1906.4;550.066;1.79
685;1928.67;587.42;1.79
686;1963.16;591.571;1.79
687;1975.67;585.467;1.79
688;1980.56;569.842;1.79
689;1968.35;589.618;1.79
690;1936;583.514;1.8
691;1931.12;607.196;1.8
692;1978.11;571.795;1.8
693;2007.72;571.795;1.8
694;2022.67;609.149;1.8
695;2022.67;567.888;1.8
696;1993.07;569.842;1.8
697;1955.84;571.795;1.8
698;1953.39;587.42;1.8
699;1980.56;569.842;1.8
700;1990.32;573.748;1.8
701;1990.32;552.019;1.8
702;1975.67;591.571;1.8
703;1936;583.514;1.8
704;1903.95;550.066;1.81
705;1928.67;591.571;1.81
706;1958.28;589.618;1.81
707;1973.23;583.514;1.81
708;1975.67;567.888;1.81
709;1965.91;589.618;1.81
710;1933.56;581.561;1.81
711;1926.23;603.29;1.81
712;1970.79;569.842;1.81
713;2002.83;573.748;1.81
714;2017.48;611.347;1.81
715;2020.23;563.738;1.81
716;1993.07;571.795;1.81
717;1958.28;567.888;1.81
718;1953.39;587.42;1.81
719;1978.11;567.888;1.81
720;1987.88;575.701;1.82
721;1990.32;553.972;1.82
722;1973.23;595.477;1.82
723;1938.75;585.467;1.82
724;1903.95;546.159;1.82
725;1926.23;595.477;1.82
726;1960.72;585.467;1.82
727;1973.23;585.467;1.82
728;1978.11;565.935;1.82
729;1965.91;589.618;1.82
730;1938.75;579.608;1.82
731;1926.23;607.196;1.82
732;1973.23;563.738;1.82
733;2005.28;575.701;1.82
734;2020.23;607.196;1.82
735;2017.48;557.878;1.82999
736;1987.88;571.795;1.82999
737;1955.84;571.795;1.82999
738;1955.84;585.467;1.82999
739;1983;565.935;1.82999
740;1990.32;575.701;1.82999
741;1990.32;550.066;1.82999
742;1970.79;601.337;1.82999
743;1931.12;581.561;1.82999
744;1901.51;544.206;1.82999
745;1936;601.337;1.82999
746;1963.16;583.514;1.82999
747;1975.67;583.514;1.82999
748;1983;567.888;1.82999
749;1965.91;589.618;1.82999
750;1933.56;577.654;1.84
751;1936;605.243;1.84
752;1985.44;555.925;1.84
753;2010.16;573.748;1.84
754;2022.67;609.149;1.84
755;2020.23;553.972;1.84
756;1990.32;571.795;1.84
757;1955.84;571.795;1.84
758;1960.72;589.618;1.84
759;1985.44;565.935;1.84
760;1995.51;577.654;1.84
761;1995.51;550.066;1.84
762;1978.11;605.243;1.84
763;1936;581.561;1.84
764;1906.4;546.159;1.84
765;1938.75;605.243;1.84
766;1968.35;581.561;1.85
767;1980.56;581.561;1.85
768;1983;567.888;1.85
769;1968.35;589.618;1.85
770;1938.75;577.654;1.85
771;1936;599.384;1.85
772;1985.44;552.019;1.85
773;2007.72;573.748;1.85
774;2022.67;609.149;1.85
775;2022.67;550.066;1.85
776;1993.07;577.654;1.85
777;1958.28;573.748;1.85
778;1960.72;589.618;1.85
779;1985.44;565.935;1.85
780;1995.51;573.748;1.85
781;1997.95;555.925;1.86
782;1980.56;607.196;1.86
783;1936;581.561;1.86
784;1906.4;548.112;1.86
785;1933.56;609.149;1.86
786;1963.16;579.608;1.86
787;1980.56;579.608;1.86
788;1983;567.888;1.86
789;1968.35;587.42;1.86
790;1938.75;577.654;1.86
791;1933.56;599.384;1.86
792;1983;548.112;1.86
793;2010.16;575.701;1.86
794;2020.23;607.196;1.86
795;2022.67;546.159;1.86
796;1995.51;577.654;1.86
797;1958.28;575.701;1.87
798;1960.72;587.42;1.87
799;1985.44;567.888;1.87
800;1990.32;571.795;1.87
801;1997.95;552.019;1.87
802;1978.11;589.618;1.87
803;1938.75;583.514;1.87
804;1906.4;546.159;1.87
805;1933.56;587.42;1.87
806;1963.16;589.618;1.87
807;1978.11;583.514;1.87
808;1980.56;565.935;1.87
809;1968.35;589.618;1.87
810;1936;579.608;1.87
811;1931.12;603.29;1.87
812;1980.56;569.842;1.88
813;2007.72;569.842;1.88
814;2025.11;607.196;1.88
815;2022.67;563.738;1.88
816;1995.51;565.935;1.88
817;1960.72;569.842;1.88
818;1958.28;589.618;1.88
819;1983;567.888;1.88
820;1990.32;573.748;1.88
821;1995.51;552.019;1.88
822;1975.67;591.571;1.88
823;1938.75;583.514;1.88
824;1906.4;548.112;1.88
825;1931.12;591.571;1.88
826;1963.16;587.42;1.88
827;1978.11;585.467;1.89
828;1978.11;567.888;1.89
829;1968.35;589.618;1.89
830;1936;579.608;1.89
831;1931.12;605.243;1.89
832;1978.11;567.888;1.89
833;2007.72;573.748;1.89
834;2020.23;609.149;1.89
835;2022.67;559.832;1.89
836;1995.51;567.888;1.89
837;1958.28;567.888;1.89
838;1955.84;587.42;1.89
839;1980.56;563.738;1.89
840;1990.32;575.701;1.89
841;1993.07;552.019;1.89
842;1975.67;597.43;1.89
843;1938.75;579.608;1.89999
844;1903.95;544.206;1.89999
845;1926.23;595.477;1.89999
846;1960.72;581.561;1.89999
847;1973.23;583.514;1.89999
848;1978.11;565.935;1.89999
849;1965.91;587.42;1.89999
850;1933.56;577.654;1.89999
851;1926.23;601.337;1.89999
852;1973.23;559.832;1.89999
853;2002.83;575.701;1.89999
854;2017.48;607.196;1.89999
855;2017.48;555.925;1.89999
856;1993.07;569.842;1.89999
857;1955.84;571.795;1.89999
858;1953.39;589.618;1.91
859;1980.56;565.935;1.91
860;1990.32;575.701;1.91
861;1990.32;553.972;1.91
862;1975.67;601.337;1.91
863;1938.75;581.561;1.91
864;1906.4;544.206;1.91
865;1926.23;601.337;1.91
866;1960.72;581.561;1.91
867;1975.67;581.561;1.91
868;1980.56;565.935;1.91
869;1968.35;589.618;1.91
870;1936;577.654;1.91
871;1928.67;599.384;1.91
872;1970.79;557.878;1.91
873;2002.83;575.701;1.91
874;2017.48;607.196;1.92
875;2022.67;550.066;1.92
876;1995.51;571.795;1.92
877;1963.16;569.842;1.92
878;1953.39;587.42;1.92
879;1978.11;563.738;1.92
880;1987.88;575.701;1.92
881;1990.32;553.972;1.92
882;1975.67;601.337;1.92
883;1936;579.608;1.92
884;1901.51;548.112;1.92
885;1923.79;605.243;1.92
886;1960.72;579.608;1.92
887;1970.79;581.561;1.92
888;1978.11;565.935;1.92
889;1965.91;585.467;1.93
890;1938.75;575.701;1.93
891;1926.23;599.384;1.93
892;1970.79;550.066;1.93
893;2000.39;573.748;1.93
894;2017.48;605.243;1.93
895;2020.23;548.112;1.93
896;1995.51;571.795;1.93
897;1958.28;569.842;1.93
898;1950.95;587.42;1.93
899;1975.67;563.738;1.93
900;1985.44;575.701;1.93
901;1990.32;555.925;1.93
902;1978.11;605.243;1.93
903;1938.75;579.608;1.93
904;1901.51;546.159;1.93
905;1923.79;611.347;1.93999
906;1958.28;581.561;1.93999
907;1973.23;577.654;1.93999
908;1978.11;567.888;1.93999
909;1965.91;587.42;1.93999
910;1941.19;577.654;1.93999
911;1926.23;597.43;1.93999
912;1973.23;548.112;1.93999
913;2002.83;575.701;1.93999
914;2020.23;601.337;1.93999
915;2022.67;542.009;1.93999
916;1997.95;571.795;1.93999
917;1965.91;571.795;1.93999
918;1953.39;587.42;1.93999
919;1980.56;563.738;1.93999
920;1990.32;575.701;1.93999
921;1993.07;550.066;1.95
922;1978.11;601.337;1.95
923;1941.19;579.608;1.95
924;1906.4;546.159;1.95
925;1921.35;599.384;1.95
926;1955.84;581.561;1.95
927;1968.35;579.608;1.95
928;1975.67;565.935;1.95
929;1968.35;589.618;1.95
930;1936;575.701;1.95
931;1921.35;599.384;1.95
932;1965.91;553.972;1.95
933;1997.95;573.748;1.95
934;2015.04;605.243;1.95
935;2020.23;550.066;1.95
936;1995.51;571.795;1.95
937;1960.72;567.888;1.96
938;1948.51;587.42;1.96
939;1973.23;561.785;1.96
940;1985.44;573.748;1.96
941;1987.88;552.019;1.96
942;1975.67;603.29;1.96
943;1936;577.654;1.96
944;1903.95;544.206;1.96
945;1916.47;603.29;1.96
946;1955.84;579.608;1.96
947;1968.35;581.561;1.96
948;1975.67;565.935;1.96
949;1963.16;585.467;1.96
950;1936;573.748;1.96
951;1921.35;599.384;1.96
952;1963.16;550.066;1.96
953;1995.51;575.701;1.96999
954;2010.16;603.29;1.96999
955;2015.04;544.206;1.96999
956;1995.51;575.701;1.96999
957;1958.28;569.842;1.96999
958;1946.07;585.467;1.96999
959;1970.79;565.935;1.96999
960;1983;571.795;1.96999
961;1985.44;553.972;1.96999
962;1970.79;605.243;1.96999
963;1933.56;577.654;1.96999
964;1896.63;548.112;1.96999
965;1911.58;609.149;1.96999
966;1950.95;577.654;1.96999
967;1965.91;577.654;1.96999
968;1970.79;565.935;1.98
969;1963.16;587.42;1.98
970;1936;577.654;1.98
971;1916.47;597.43;1.98
972;1958.28;550.066;1.98
973;1993.07;573.748;1.98
974;2007.72;603.29;1.98
975;2010.16;542.009;1.98
976;1990.32;571.795;1.98
977;1955.84;571.795;1.98
978;1941.19;585.467;1.98
979;1970.79;567.888;1.98
980;1980.56;571.795;1.98
981;1983;548.112;1.98
982;1973.23;587.42;1.98
983;1936;581.561;1.98
984;1899.07;546.159;1.99
985;1908.84;589.618;1.99
986;1946.07;587.42;1.99
987;1965.91;579.608;1.99
988;1973.23;563.738;1.99
989;1965.91;585.467;1.99
990;1938.75;577.654;1.99
991;1921.35;601.337;1.99
992;1958.28;567.888;1.99
993;1993.07;571.795;1.99
994;2007.72;607.196;1.99
995;2012.6;561.785;1.99
996;1993.07;565.935;1.99
997;1955.84;567.888;1.99
998;1941.19;585.467;1.99
999;1973.23;561.785;1.99
1000;1980.56;573.748;1.99
1001;1978.11;548.112;2
1002;1958.28;589.618;2
1003;1918.91;579.608;2
1004;1891.75;542.009;2
1005;1923.79;593.524;2
1006;1953.39;585.467;2
1007;1968.35;579.608;2
1008;1968.35;563.738;2
1009;1953.39;585.467;2
1010;1921.35;577.654;2
1011;1923.79;601.337;2
1012;1970.79;563.738;2
1013;1997.95;571.795;2
1014;2010.16;605.243;2
1015;2005.28;555.925;2
1016;1978.11;569.842;2
1017;1946.07;567.888;2
1018;1948.51;587.42;2
1019;1973.23;563.738;2.00999
1020;1978.11;573.748;2.00999
1021;1983;552.019;2.00999
1022;1963.16;597.43;2.00999
1023;1918.91;581.561;2.00999
1024;1894.19;542.009;2.00999
1025;1926.23;595.477;2.00999
1026;1950.95;583.514;2.00999
1027;1963.16;579.608;2.00999
1028;1968.35;563.738;2.00999
1029;1950.95;587.42;2.00999
1030;1921.35;577.654;2.00999
1031;1923.79;601.337;2.00999
1032;1968.35;555.925;2.00999
1033;1995.51;571.795;2.00999
1034;2007.72;607.196;2.00999
1035;2005.28;553.972;2.00999
1036;1975.67;571.795;2.00999
1037;1943.63;567.888;2.02
1038;1946.07;587.42;2.02
1039;1968.35;565.935;2.02
1040;1978.11;571.795;2.02
1041;1978.11;550.066;2.02
1042;1960.72;601.337;2.02
1043;1918.91;579.608;2.02
1044;1891.75;542.009;2.02
1045;1921.35;599.384;2.02
1046;1950.95;579.608;2.02
1047;1960.72;581.561;2.02
1048;1965.91;563.738;2.02
1049;1950.95;587.42;2.02
1050;1921.35;575.701;2.02
1051;1921.35;597.43;2.02
1052;1970.79;552.019;2.02
1053;1995.51;571.795;2.02
1054;2005.28;607.196;2.03
1055;2002.83;548.112;2.03
1056;1975.67;571.795;2.03
1057;1943.63;569.842;2.03
1058;1941.19;583.514;2.03
1059;1970.79;563.738;2.03
1060;1978.11;573.748;2.03
1061;1980.56;553.972;2.03
1062;1963.16;603.29;2.03
1063;1923.79;577.654;2.03
1064;1894.19;544.206;2.03
1065;1923.79;603.29;2.03
1066;1953.39;577.654;2.03
1067;1960.72;577.654;2.03
1068;1968.35;563.738;2.03
1069;1953.39;585.467;2.03
1070;1923.79;575.701;2.03
1071;1923.79;599.384;2.04
1072;1970.79;550.066;2.04
1073;1997.95;573.748;2.04
1074;2012.6;605.243;2.04
1075;2012.6;542.009;2.04
1076;1985.44;573.748;2.04
1077;1950.95;571.795;2.04
1078;1948.51;585.467;2.04
1079;1975.67;563.738;2.04
1080;1983;573.748;2.04
1081;1985.44;555.925;2.04
1082;1965.91;601.337;2.04
1083;1928.67;575.701;2.04
1084;1896.63;548.112;2.04
1085;1926.23;609.149;2.04
1086;1953.39;575.701;2.04
1087;1965.91;577.654;2.05
1088;1970.79;563.738;2.05
1089;1958.28;585.467;2.05
1090;1923.79;575.701;2.05
1091;1921.35;597.43;2.05
1092;1970.79;550.066;2.05
1093;1997.95;575.701;2.05
1094;2012.6;601.337;2.05
1095;2010.16;536.149;2.05
1096;1983;573.748;2.05
1097;1948.51;569.842;2.05
1098;1946.07;585.467;2.05
1099;1970.79;563.738;2.05
1100;1980.56;571.795;2.05
1101;1980.56;550.066;2.05
1102;1965.91;583.514;2.05
1103;1926.23;579.608;2.05
1104;1896.63;542.009;2.06
1105;1921.35;585.467;2.06
1106;1950.95;587.42;2.06
1107;1968.35;581.561;2.06
1108;1973.23;565.935;2.06
1109;1958.28;585.467;2.06
1110;1928.67;573.748;2.06
1111;1923.79;599.384;2.06
1112;1970.79;563.738;2.06
1113;1997.95;569.842;2.06
1114;2012.6;607.196;2.06
1115;2015.04;561.785;2.06
1116;1990.32;565.935;2.06
1117;1953.39;567.888;2.06
1118;1950.95;585.467;2.06
1119;1973.23;563.738;2.06
1120;1983;573.748;2.07
1121;1985.44;550.066;2.07
1122;1968.35;589.618;2.07
1123;1931.12;577.654;2.07
1124;1899.07;544.206;2.07
1125;1921.35;591.571;2.07
1126;1955.84;581.561;2.07
1127;1968.35;581.561;2.07
1128;1973.23;563.738;2.07
1129;1960.72;587.42;2.07
1130;1931.12;575.701;2.07
1131;1923.79;599.384;2.07
1132;1968.35;561.785;2.07
1133;2000.39;569.842;2.07
1134;2012.6;607.196;2.07
1135;2017.48;553.972;2.07
1136;1990.32;567.888;2.07999
1137;1955.84;567.888;2.07999
1138;1950.95;585.467;2.07999
1139;1975.67;563.738;2.07999
1140;1985.44;571.795;2.07999
1141;1987.88;550.066;2.07999
1142;1973.23;595.477;2.07999
1143;1933.56;579.608;2.07999
1144;1901.51;544.206;2.07999
1145;1923.79;597.43;2.07999
1146;1955.84;581.561;2.07999
1147;1970.79;579.608;2.07999
1148;1975.67;561.785;2.07999
1149;1963.16;585.467;2.07999
1150;1931.12;573.748;2.07999
1151;1923.79;597.43;2.07999
1152;1970.79;557.878;2.09
1153;2000.39;569.842;2.09
1154;2015.04;605.243;2.09
1155;2017.48;552.019;2.09
1156;1993.07;567.888;2.09
1157;1958.28;567.888;2.09
1158;1948.51;585.467;2.09
1159;1978.11;561.785;2.09
1160;1985.44;575.701;2.09
1161;1990.32;550.066;2.09
1162;1973.23;601.337;2.09
1163;1936;577.654;2.09
1164;1901.51;542.009;2.09
1165;1923.79;599.384;2.09
1166;1958.28;579.608;2.09
1167;1970.79;579.608;2.09
1168;1978.11;561.785;2.1
1169;1965.91;587.42;2.1
1170;1936;573.748;2.1
1171;1926.23;595.477;2.1
1172;1970.79;552.019;2.1
1173;2000.39;569.842;2.1
1174;2015.04;605.243;2.1
1175;2017.48;546.159;2.1
1176;1993.07;569.842;2.1
1177;1958.28;567.888;2.1
1178;1946.07;585.467;2.1
1179;1975.67;563.738;2.1
1180;1985.44;573.748;2.1
1181;1987.88;553.972;2.1
1182;1973.23;601.337;2.1
1183;1938.75;577.654;2.11
1184;1906.4;544.206;2.11
1185;1923.79;605.243;2.11
1186;1963.16;577.654;2.11
1187;1975.67;575.701;2.11
1188;1980.56;561.785;2.11
1189;1970.79;585.467;2.11
1190;1946.07;575.701;2.11
1191;1931.12;595.477;2.11
1192;1975.67;546.159;2.11
1193;2007.72;571.795;2.11
1194;2020.23;601.337;2.11
1195;2027.55;540.056;2.11
1196;2000.39;571.795;2.11
1197;1965.91;569.842;2.11
1198;1955.84;583.514;2.12
1199;1983;563.738;2.12
1200;1995.51;573.748;2.12
1201;1997.95;553.972;2.12
1202;1985.44;603.29;2.12
1203;1946.07;575.701;2.12
1204;1908.84;548.112;2.12
1205;1926.23;607.196;2.12
1206;1963.16;577.654;2.12
1207;1978.11;575.701;2.12
1208;1985.44;563.738;2.12
1209;1973.23;581.561;2.12
1210;1946.07;577.654;2.12
1211;1928.67;595.477;2.12
1212;1978.11;548.112;2.12
1213;2007.72;575.701;2.13
1214;2025.11;599.384;2.13
1215;2030;538.102;2.13
1216;2007.72;569.842;2.13
1217;1968.35;565.935;2.13
1218;1958.28;585.467;2.13
1219;1985.44;563.738;2.13
1220;1995.51;571.795;2.13
1221;1997.95;550.066;2.13
1222;1985.44;601.337;2.13
1223;1950.95;577.654;2.13
1224;1911.58;542.009;2.13
1225;1928.67;599.384;2.13
1226;1970.79;579.608;2.13
1227;1983;579.608;2.13
1228;1987.88;561.785;2.13
1229;1978.11;585.467;2.14
1230;1950.95;575.701;2.14
1231;1931.12;599.384;2.14
1232;1978.11;548.112;2.14
1233;2010.16;571.795;2.14
1234;2027.55;605.243;2.14
1235;2032.44;544.206;2.14
1236;2007.72;569.842;2.14
1237;1970.79;567.888;2.14
1238;1960.72;585.467;2.14
1239;1985.44;559.832;2.14
1240;1997.95;573.748;2.14
1241;2000.39;553.972;2.14
1242;1987.88;601.337;2.14
1243;1953.39;577.654;2.14
1244;1914.03;546.159;2.14999
1245;1931.12;605.243;2.14999
1246;1968.35;575.701;2.14999
1247;1980.56;579.608;2.14999
1248;1985.44;563.738;2.14999
1249;1978.11;583.514;2.14999
1250;1948.51;573.748;2.14999
1251;1933.56;597.43;2.14999
1252;1975.67;548.112;2.14999
1253;2010.16;571.795;2.14999
1254;2027.55;601.337;2.14999
1255;2032.44;540.056;2.14999
1256;2012.6;571.795;2.14999
1257;1978.11;569.842;2.14999
1258;1963.16;581.561;2.14999
1259;1990.32;563.738;2.16
1260;2000.39;569.842;2.16
1261;2000.39;553.972;2.16
1262;1980.56;603.29;2.16
1263;1938.75;575.701;2.16
1264;1911.58;546.159;2.16
1265;1948.51;609.149;2.16
1266;1975.67;577.654;2.16
1267;1987.88;577.654;2.16
1268;1993.07;563.738;2.16
1269;1975.67;583.514;2.16
1270;1946.07;577.654;2.16
1271;1950.95;593.524;2.16
1272;1995.51;550.066;2.16
1273;2020.23;573.748;2.16
1274;2034.88;599.384;2.17
1275;2027.55;538.102;2.17
1276;1997.95;563.738;2.17
1277;1965.91;567.888;2.17
1278;1968.35;581.561;2.17
1279;1993.07;563.738;2.17
1280;2002.83;571.795;2.17
1281;2002.83;548.112;2.17
1282;1983;585.467;2.17
1283;1941.19;579.608;2.17
1284;1916.47;544.206;2.17
1285;1948.51;587.42;2.17
1286;1975.67;585.467;2.17
1287;1987.88;579.608;2.17
1288;1993.07;563.738;2.17
1289;1975.67;585.467;2.18
1290;1946.07;577.654;2.18
1291;1946.07;601.337;2.18
1292;1995.51;561.785;2.18
1293;2022.67;569.842;2.18
1294;2034.88;607.196;2.18
1295;2032.44;557.878;2.18
1296;2002.83;563.738;2.18
1297;1968.35;567.888;2.18
1298;1973.23;585.467;2.18
1299;2000.39;561.785;2.18
1300;2007.72;571.795;2.18
1301;2005.28;548.112;2.18
1302;1990.32;591.571;2.18
1303;1950.95;577.654;2.18
1304;1918.91;542.009;2.18999
1305;1953.39;593.524;2.18999
1306;1983;583.514;2.18999
1307;1995.51;581.561;2.18999
1308;1997.95;561.785;2.18999
1309;1985.44;585.467;2.18999
1310;1955.84;573.748;2.18999
1311;1953.39;601.337;2.18999
1312;2000.39;557.878;2.18999
1313;2027.55;569.842;2.18999
1314;2039.76;607.196;2.18999
1315;2039.76;552.019;2.18999
1316;2007.72;565.935;2.18999
1317;1975.67;567.888;2.18999
1318;1975.67;585.467;2.18999
1319;2002.83;561.785;2.2
1320;2010.16;571.795;2.2
1321;2010.16;548.112;2.2
1322;1990.32;599.384;2.2
1323;1950.95;575.701;2.2
1324;1923.79;542.009;2.2
1325;1953.39;599.384;2.2
1326;1983;581.561;2.2
1327;1995.51;579.608;2.2
1328;2000.39;561.785;2.2
1329;1983;585.467;2.2
1330;1955.84;575.701;2.2
1331;1953.39;597.43;2.2
1332;2002.83;552.019;2.2
1333;2032.44;569.842;2.2
1334;2044.64;607.196;2.21
1335;2042.2;550.066;2.21
1336;2015.04;569.842;2.21
1337;1980.56;567.888;2.21
1338;1980.56;585.467;2.21
1339;2005.28;561.785;2.21
1340;2015.04;571.795;2.21
1341;2015.04;550.066;2.21
1342;1997.95;601.337;2.21
1343;1958.28;575.701;2.21
1344;1926.23;544.206;2.21
1345;1955.84;601.337;2.21
1346;1987.88;577.654;2.21
1347;1997.95;577.654;2.21
1348;2005.28;561.785;2.21
1349;1987.88;585.467;2.21999
1350;1958.28;571.795;2.21999
1351;1955.84;593.524;2.21999
1352;2005.28;548.112;2.21999
1353;2034.88;569.842;2.21999
1354;2047.39;605.243;2.21999
1355;2049.83;548.112;2.21999
1356;2022.67;569.842;2.21999
1357;1985.44;565.935;2.21999
1358;1985.44;585.467;2.21999
1359;2012.6;563.738;2.21999
1360;2017.48;571.795;2.21999
1361;2022.67;552.019;2.21999
1362;2005.28;603.29;2.21999
1363;1960.72;575.701;2.21999
1364;1931.12;544.206;2.21999
1365;1958.28;605.243;2.23
1366;1993.07;575.701;2.23
1367;2005.28;577.654;2.23
1368;2010.16;563.738;2.23
1369;1995.51;581.561;2.23
1370;1968.35;577.654;2.23
1371;1960.72;595.477;2.23
1372;2007.72;546.159;2.23
1373;2039.76;571.795;2.23
1374;2052.27;601.337;2.23
1375;2052.27;540.056;2.23
1376;2027.55;569.842;2.23
1377;1987.88;569.842;2.23
1378;1987.88;583.514;2.23
1379;2017.48;563.738;2.23
1380;2025.11;567.888;2.24
1381;2027.55;553.972;2.24
1382;2007.72;601.337;2.24
1383;1970.79;573.748;2.24
1384;1936;546.159;2.24
1385;1963.16;607.196;2.24
1386;1995.51;575.701;2.24
1387;2005.28;573.748;2.24
1388;2015.04;563.738;2.24
1389;2000.39;579.608;2.24
1390;1968.35;577.654;2.24
1391;1970.79;595.477;2.24
1392;2020.23;546.159;2.24
1393;2047.39;573.748;2.24
1394;2059.6;595.477;2.24
1395;2054.72;536.149;2.25
1396;2020.23;563.738;2.25
1397;1990.32;565.935;2.25
1398;1995.51;583.514;2.25
1399;2022.67;563.738;2.25
1400;2030;569.842;2.25
1401;2030;548.112;2.25
1402;2010.16;585.467;2.25
1403;1968.35;579.608;2.25
1404;1941.19;540.056;2.25
1405;1978.11;587.42;2.25
1406;2005.28;583.514;2.25
1407;2015.04;579.608;2.25
1408;2015.04;561.785;2.25
1409;1997.95;585.467;2.25
1410;1968.35;573.748;2.25999
1411;1970.79;599.384;2.25999
1412;2022.67;561.785;2.25999
1413;2049.83;567.888;2.25999
1414;2062.04;605.243;2.25999
1415;2057.16;555.925;2.25999
1416;2030;567.888;2.25999
1417;1993.07;565.935;2.25999
1418;1997.95;583.514;2.25999
1419;2025.11;561.785;2.25999
1420;2030;571.795;2.25999
1421;2030;548.112;2.25999
1422;2012.6;593.524;2.25999
1423;1970.79;577.654;2.25999
1424;1943.63;540.056;2.25999
1425;1978.11;591.571;2.25999
1426;2005.28;581.561;2.27
1427;2017.48;579.608;2.27
1428;2022.67;561.785;2.27
1429;2000.39;583.514;2.27
1430;1973.23;575.701;2.27
1431;1975.67;599.384;2.27
1432;2027.55;553.972;2.27
1433;2052.27;569.842;2.27
1434;2066.92;603.29;2.27
1435;2062.04;550.066;2.27
1436;2032.44;567.888;2.27
1437;1997.95;565.935;2.27
1438;2000.39;583.514;2.27
1439;2025.11;559.832;2.27
1440;2034.88;571.795;2.27
1441;2034.88;550.066;2.28
1442;2012.6;599.384;2.28
1443;1973.23;575.701;2.28
1444;1946.07;540.056;2.28
1445;1978.11;597.43;2.28
1446;2007.72;577.654;2.28
1447;2017.48;579.608;2.28
1448;2022.67;561.785;2.28
1449;2007.72;585.467;2.28
1450;1975.67;571.795;2.28
1451;1978.11;597.43;2.28
1452;2027.55;550.066;2.28
1453;2054.72;567.888;2.28
1454;2069.36;603.29;2.28
1455;2066.92;546.159;2.28
1456;2037.32;569.842;2.29
1457;2002.83;567.888;2.29
1458;2002.83;585.467;2.29
1459;2032.44;559.832;2.29
1460;2039.76;571.795;2.29
1461;2042.2;550.066;2.29
1462;2022.67;601.337;2.29
1463;1980.56;577.654;2.29
1464;1950.95;542.009;2.29
1465;1983;601.337;2.29
1466;2012.6;575.701;2.29
1467;2025.11;577.654;2.29
1468;2030;563.738;2.29
1469;2015.04;583.514;2.29
1470;1980.56;571.795;2.3
1471;1980.56;595.477;2.3
1472;2030;546.159;2.3
1473;2059.6;569.842;2.3
1474;2071.81;601.337;2.3
1475;2069.36;542.009;2.3
1476;2042.2;567.888;2.3
1477;2005.28;565.935;2.3
1478;2005.28;581.561;2.3
1479;2034.88;563.738;2.3
1480;2044.64;569.842;2.3
1481;2044.64;552.019;2.3
1482;2025.11;601.337;2.3
1483;1983;577.654;2.3
1484;1955.84;544.206;2.31
1485;1985.44;605.243;2.31
1486;2015.04;575.701;2.31
1487;2030;575.701;2.31
1488;2034.88;561.785;2.31
1489;2020.23;583.514;2.31
1490;1985.44;575.701;2.31
1491;1983;593.524;2.31
1492;2032.44;546.159;2.31
1493;2062.04;571.795;2.31
1494;2074.55;599.384;2.31
1495;2076.99;538.102;2.31
1496;2049.83;571.795;2.31
1497;2012.6;569.842;2.31
1498;2010.16;585.467;2.32
1499;2037.32;563.738;2.32
1500;2049.83;569.842;2.32
1501;2049.83;553.972;2.32
1502;2032.44;597.43;2.32
1503;1990.32;571.795;2.32
1504;1958.28;544.206;2.32
1505;1987.88;609.149;2.32
1506;2020.23;571.795;2.32
1507;2034.88;573.748;2.32
1508;2037.32;561.785;2.32
1509;2025.11;581.561;2.32
1510;1993.07;577.654;2.32
1511;1985.44;591.571;2.32
1512;2034.88;546.159;2.32999
1513;2066.92;573.748;2.32999
1514;2081.88;595.477;2.32999
1515;2079.44;548.112;2.32999
1516;2052.27;569.842;2.32999
1517;2015.04;563.738;2.32999
1518;2012.6;585.467;2.32999
1519;2039.76;561.785;2.32999
1520;2049.83;571.795;2.32999
1521;2052.27;550.066;2.32999
1522;2034.88;599.384;2.32999
1523;1995.51;575.701;2.32999
1524;1963.16;542.009;2.32999
1525;1990.32;603.29;2.32999
1526;2027.55;573.748;2.34
1527;2034.88;575.701;2.34
1528;2042.2;561.785;2.34
1529;2027.55;581.561;2.34
1530;1995.51;571.795;2.34
1531;1987.88;595.477;2.34
1532;2039.76;544.206;2.34
1533;2069.36;567.888;2.34
1534;2081.88;599.384;2.34
1535;2084.32;542.009;2.34
1536;2057.16;569.842;2.34
1537;2017.48;567.888;2.34
1538;2015.04;579.608;2.34
1539;2039.76;559.832;2.35
1540;2054.72;567.888;2.35
1541;2054.72;550.066;2.35
1542;2037.32;601.337;2.35
1543;1995.51;573.748;2.35
1544;1963.16;542.009;2.35
1545;1990.32;605.243;2.35
1546;2027.55;573.748;2.35
1547;2042.2;573.748;2.35
1548;2047.39;559.832;2.35
1549;2034.88;579.608;2.35
1550;2002.83;571.795;2.35
1551;1995.51;593.524;2.35
1552;2042.2;544.206;2.36
1553;2074.55;571.795;2.36
1554;2089.2;599.384;2.36
1555;2089.2;538.102;2.36
1556;2064.48;567.888;2.36
1557;2030;567.888;2.36
1558;2022.67;583.514;2.36
1559;2049.83;561.785;2.36
1560;2062.04;567.888;2.36
1561;2062.04;555.925;2.36
1562;2047.39;601.337;2.36
1563;2005.28;573.748;2.36
1564;1970.79;546.159;2.36
1565;1997.95;609.149;2.37
1566;2034.88;571.795;2.37
1567;2049.83;571.795;2.37
1568;2052.27;561.785;2.37
1569;2039.76;581.561;2.37
1570;2010.16;577.654;2.37
1571;2000.39;591.571;2.37
1572;2047.39;546.159;2.37
1573;2081.88;571.795;2.37
1574;2096.53;601.337;2.37
1575;2096.53;557.878;2.37
1576;2069.36;561.785;2.37
1577;2034.88;563.738;2.37
1578;2027.55;583.514;2.38
1579;2057.16;561.785;2.38
1580;2064.48;567.888;2.38
1581;2066.92;544.206;2.38
1582;2052.27;585.467;2.38
1583;2010.16;577.654;2.38
1584;1975.67;538.102;2.38
1585;2000.39;589.618;2.38
1586;2039.76;579.608;2.38
1587;2052.27;579.608;2.38
1588;2059.6;559.832;2.38
1589;2047.39;583.514;2.38
1590;2015.04;573.748;2.38
1591;2000.39;597.43;2.39
1592;2049.83;557.878;2.39
1593;2081.88;565.935;2.39
1594;2098.97;601.337;2.39
1595;2101.71;555.925;2.39
1596;2074.55;561.785;2.39
1597;2037.32;563.738;2.39
1598;2032.44;581.561;2.39
1599;2059.6;557.878;2.39
1600;2069.36;567.888;2.39
1601;2071.81;546.159;2.39
1602;2059.6;591.571;2.39
1603;2017.48;573.748;2.39
1604;1980.56;538.102;2.39999
1605;2002.83;593.524;2.39999
1606;2042.2;575.701;2.39999
1607;2057.16;577.654;2.39999
1608;2064.48;559.832;2.39999
1609;2052.27;583.514;2.39999
1610;2020.23;571.795;2.39999
1611;2005.28;599.384;2.39999
1612;2052.27;552.019;2.39999
1613;2084.32;565.935;2.39999
1614;2101.71;603.29;2.39999
1615;2101.71;550.066;2.39999
1616;2076.99;565.935;2.39999
1617;2039.76;563.738;2.41
1618;2030;581.561;2.41
1619;2059.6;555.925;2.41
1620;2071.81;569.842;2.41
1621;2074.55;548.112;2.41
1622;2062.04;597.43;2.41
1623;2022.67;573.748;2.41
1624;1983;540.056;2.41
1625;2002.83;595.477;2.41
1626;2042.2;573.748;2.41
1627;2059.6;575.701;2.41
1628;2066.92;559.832;2.41
1629;2054.72;583.514;2.42
1630;2027.55;569.842;2.42
1631;2012.6;595.477;2.42
1632;2054.72;548.112;2.42
1633;2089.2;561.785;2.42
1634;2109.04;601.337;2.42
1635;2111.48;544.206;2.42
1636;2086.76;565.935;2.42
1637;2049.83;565.935;2.42
1638;2037.32;581.561;2.42
1639;2064.48;557.878;2.42
1640;2079.44;567.888;2.42
1641;2079.44;550.066;2.43
1642;2064.48;599.384;2.43
1643;2030;571.795;2.43
1644;1990.32;542.009;2.43
1645;2007.72;599.384;2.43
1646;2047.39;573.748;2.43
1647;2062.04;573.748;2.43
1648;2066.92;559.832;2.43
1649;2059.6;581.561;2.43
1650;2030;569.842;2.43
1651;2010.16;593.524;2.43
1652;2057.16;544.206;2.43
1653;2101.71;567.888;2.43999
1654;2113.92;599.384;2.43999
1655;2109.04;538.102;2.43999
1656;2076.99;567.888;2.43999
1657;2044.64;565.935;2.43999
1658;2052.27;581.561;2.43999
1659;2076.99;559.832;2.43999
1660;2084.32;565.935;2.43999
1661;2084.32;552.019;2.43999
1662;2059.6;599.384;2.43999
1663;2017.48;573.748;2.43999
1664;1993.07;542.009;2.43999
1665;2032.44;605.243;2.43999
1666;2059.6;569.842;2.45
1667;2074.55;573.748;2.45
1668;2074.55;557.878;2.45
1669;2057.16;581.561;2.45
1670;2025.11;573.748;2.45
1671;2030;589.618;2.45
1672;2079.44;544.206;2.45
1673;2109.04;567.888;2.45
1674;2121.25;597.43;2.45
1675;2116.36;534.196;2.45
1676;2084.32;567.888;2.45
1677;2052.27;567.888;2.46
1678;2057.16;579.608;2.46
