<WeldAnalyseData xmlns:i="http:www.w3.org/2001/XMLSchema-instance">
<WeldParameter>
<TimeStamp>DT#2024-01-25-09:39:19</TimeStamp>
<Generator>SG-22-10000</Generator>
<GenFreq>20</GenFreq>
<MaxForce>8000</MaxForce>
<MaxPower>10000</MaxPower>
<RunupPressure>1.5</RunupPressure>
<RunupDist>10</RunupDist>
<RunPress>0.8</RunPress>
<ShakeDelay>0.03</ShakeDelay>
<ShakeTime>0.3</ShakeTime>
<RunBackPress1>6</RunBackPress1>
<RunBackPress2>2</RunBackPress2>
<RunBackDist>1</RunBackDist>
<TrigValue>500</TrigValue>
<TrigModeUnit>W</TrigModeUnit>
<WeldModeUnit>Ws</WeldModeUnit>
<PressNr>0</PressNr>
<MaxLoss>1500</MaxLoss>
</WeldParameter>
<WeldSets>
<WeldSet>
<PressRiseTime>0</PressRiseTime>
<RunPressure>1</RunPressure>
<Amplitude>86</Amplitude>
<WeldMode>3270</WeldMode>
</WeldSet>
</WeldSets>
<WeldValue>
<WeldNr>2982</WeldNr>
<RecipeName>RickStyle</RecipeName>
<WeldTime>1686</WeldTime>
<DistDiff>2.32</DistDiff>
<DistAbs>78.02</DistAbs>
<Energy>3271.02</Energy>
<MaxPower>2163.25</MaxPower>
<CycleTime>6040</CycleTime>
<TrigForce>500.748</TrigForce>
<TrigDist>75.7</TrigDist>
<RunSpeed>68.7557</RunSpeed>
<MaxForce>625.019</MaxForce>
<LossPower>323.096</LossPower>
</WeldValue>
</WeldAnalyseData>
#CSV-START#
ms;Power[W];Force[N];Distance[mm]
1;0;0;0
2;0;500.748;0
3;0;504.654;0
4;0;502.701;0
5;0;504.654;0
6;0;504.654;0
7;0;502.701;0
8;0;479.019;0
9;0;427.503;0.0100021
10;0;405.774;0.0400009
11;0;370.373;0.0699997
12;37.3279;370.373;0.100006
13;106.3;342.784;0.139999
14;182.901;317.148;0.18
15;259.503;330.821;0.220001
16;323.592;309.091;0.260002
17;380.356;301.279;0.300003
18;439.562;289.315;0.350006
19;501.514;307.138;0.389999
20;555.837;307.138;0.43
21;615.043;328.867;0.470001
22;698.969;299.326;0.5
23;778.012;324.961;0.530006
24;852.172;360.363;0.560005
25;923.586;321.055;0.580002
26;975.467;350.597;0.600006
27;1017.58;362.56;0.610001
28;1061.83;384.045;0.620003
29;1123.79;378.185;0.630005
30;1170.48;397.961;0.639999
31;1210.15;384.045;0.650002
32;1232.43;435.56;0.650002
33;1237.32;419.691;0.650002
34;1242.2;392.102;0.660004
35;1279.13;445.326;0.660004
36;1323.68;421.644;0.670006
37;1360.61;427.503;0.670006
38;1390.21;413.831;0.68
39;1414.93;427.503;0.68
40;1422.56;429.456;0.690002
41;1439.65;447.279;0.700005
42;1496.42;427.503;0.700005
43;1543.42;423.597;0.710007
44;1577.9;455.336;0.710007
45;1600.18;425.55;0.720001
46;1600.18;419.691;0.720001
47;1592.86;431.654;0.730003
48;1605.06;441.42;0.740005
49;1649.62;433.607;0.740005
50;1679.22;433.607;0.75
51;1701.5;415.784;0.760002
52;1711.27;447.279;0.760002
53;1694.18;447.279;0.770004
54;1681.67;415.784;0.780006
55;1721.03;451.186;0.790001
56;1770.47;457.289;0.790001
57;1802.52;453.383;0.800003
58;1824.8;441.42;0.810005
59;1832.43;461.196;0.810005
60;1819.91;459.243;0.82
61;1822.36;480.972;0.82
62;1881.56;455.336;0.830002
63;1928.56;457.289;0.840004
64;1953.28;494.644;0.840004
65;1965.49;455.336;0.850006
66;1950.84;457.289;0.850006
67;1921.24;467.055;0.860001
68;1923.68;482.925;0.860001
69;1958.16;465.102;0.860001
70;1978;470.962;0.870003
71;1987.77;451.186;0.870003
72;1980.44;490.738;0.880005
73;1945.96;486.831;0.880005
74;1913.91;449.232;0.889999
75;1945.96;498.795;0.889999
76;1992.65;496.597;0.900002
77;2017.37;492.691;0.900002
78;2029.88;475.112;0.900002
79;2022.56;500.748;0.910004
80;1995.4;492.691;0.910004
81;1985.32;516.373;0.920006
82;2046.97;479.019;0.920006
83;2086.65;486.831;0.920006
84;2106.48;528.336;0.93
85;2113.81;477.065;0.93
86;2089.09;488.784;0.93
87;2054.6;488.784;0.940002
88;2046.97;508.56;0.940002
89;2076.88;488.784;0.950005
90;2093.97;498.795;0.950005
91;2098.85;475.112;0.950005
92;2086.65;520.524;0.960007
93;2049.72;508.56;0.960007
94;2012.49;470.962;0.960007
95;2037.21;528.336;0.970001
96;2079.32;514.42;0.970001
97;2098.85;516.373;0.970001
98;2106.48;496.597;0.980003
99;2089.09;522.477;0.980003
100;2064.37;512.467;0.980003
101;2049.72;538.102;0.990005
102;2101.29;492.691;0.990005
103;2138.53;508.56;0.990005
104;2158.36;548.112;1
105;2163.25;486.831;1
106;2131.2;508.56;1
107;2089.09;506.607;1
108;2076.88;526.383;1.01
109;2104.04;500.748;1.01
110;2116.25;512.467;1.01
111;2118.69;488.784;1.02
112;2104.04;538.102;1.02
113;2052.16;518.326;1.02
114;2017.37;482.925;1.03001
115;2054.6;544.206;1.03001
116;2091.53;522.477;1.03001
117;2106.48;522.477;1.03001
118;2111.37;506.607;1.04
119;2091.53;530.29;1.04
120;2057.04;522.477;1.04
121;2057.04;548.112;1.04
122;2108.92;498.795;1.05
123;2138.53;520.524;1.05
124;2153.18;557.878;1.05
125;2153.18;496.597;1.05
126;2116.25;520.524;1.06001
127;2076.88;516.373;1.06001
128;2074.13;536.149;1.06001
129;2096.41;514.42;1.06001
130;2106.48;524.43;1.07
131;2106.48;502.701;1.07
132;2081.76;553.972;1.07
133;2032.32;530.29;1.07
134;1995.4;496.597;1.08
135;2032.32;557.878;1.08
136;2066.81;532.243;1.08
137;2081.76;534.196;1.08
138;2084.2;516.373;1.09
139;2064.37;538.102;1.09
140;2029.88;530.29;1.09
141;2019.81;553.972;1.09
142;2074.13;506.607;1.10001
143;2104.04;528.336;1.10001
144;2116.25;563.738;1.10001
145;2113.81;496.597;1.10001
146;2079.32;530.29;1.10001
147;2037.21;528.336;1.11
148;2032.32;544.206;1.11
149;2061.93;518.326;1.11
150;2069.25;528.336;1.11
151;2071.69;508.56;1.11
152;2049.72;540.056;1.12
153;2002.72;538.102;1.12
154;1968.23;504.654;1.12
155;2000.28;542.009;1.12
156;2034.76;548.112;1.12
157;2046.97;538.102;1.13
158;2052.16;522.477;1.13
159;2034.76;542.009;1.13
160;2002.72;538.102;1.13
161;1992.65;559.832;1.13
162;2042.09;530.29;1.14
163;2071.69;530.29;1.14
164;2084.2;569.842;1.14
165;2079.32;524.43;1.14
166;2049.72;526.383;1.14
167;2010.04;536.149;1.15
168;2000.28;550.066;1.15
169;2029.88;530.29;1.15
170;2037.21;536.149;1.15
171;2037.21;516.373;1.15
172;2017.37;553.972;1.15
173;1970.68;546.159;1.16
174;1938.33;510.514;1.16
175;1968.23;555.925;1.16
176;2005.16;553.972;1.16
177;2019.81;548.112;1.16
178;2019.81;530.29;1.16
179;2005.16;553.972;1.17001
180;1970.68;546.159;1.17001
181;1970.68;569.842;1.17001
182;2017.37;534.196;1.17001
183;2049.72;540.056;1.17001
184;2064.37;579.608;1.17001
185;2061.93;526.383;1.17001
186;2029.88;538.102;1.18
187;1990.21;540.056;1.18
188;1987.77;557.878;1.18
189;2014.93;532.243;1.18
190;2022.56;544.206;1.18
191;2025;522.477;1.18
192;2005.16;563.738;1.18
193;1960.6;552.019;1.19
194;1923.68;512.467;1.19
195;1953.28;567.888;1.19
196;1985.32;553.972;1.19
197;2000.28;552.019;1.19
198;2005.16;534.196;1.19
199;1990.21;559.832;1.2
200;1958.16;548.112;1.2
201;1948.4;573.748;1.2
202;1997.84;532.243;1.2
203;2027.44;544.206;1.2
204;2039.65;583.514;1.2
205;2039.65;526.383;1.2
206;2007.6;544.206;1.21001
207;1968.23;542.009;1.21001
208;1960.6;561.785;1.21001
209;1990.21;538.102;1.21001
210;2000.28;548.112;1.21001
211;2000.28;526.383;1.21001
212;1980.44;573.748;1.21001
213;1935.88;557.878;1.22
214;1901.4;520.524;1.22
215;1928.56;575.701;1.22
216;1960.6;557.878;1.22
217;1970.68;555.925;1.22
218;1978;540.056;1.22
219;1963.05;567.888;1.22
220;1933.44;552.019;1.23
221;1923.68;579.608;1.23
222;1973.12;530.29;1.23
223;2005.16;552.019;1.23
224;2019.81;589.618;1.23
225;2022.56;524.43;1.23
226;1990.21;550.066;1.23
227;1950.84;548.112;1.24001
228;1943.51;563.738;1.24001
229;1968.23;544.206;1.24001
230;1980.44;553.972;1.24001
231;1980.44;532.243;1.24001
232;1963.05;581.561;1.24001
233;1921.24;557.878;1.24001
234;1889.19;522.477;1.24001
235;1913.91;585.467;1.25
236;1948.4;557.878;1.25
237;1963.05;561.785;1.25
238;1970.68;546.159;1.25
239;1955.72;565.935;1.25
240;1926.12;555.925;1.25
241;1916.35;581.561;1.25
242;1963.05;528.336;1.26
243;1995.4;553.972;1.26
244;2010.04;589.618;1.26
245;2010.04;526.383;1.26
246;1978;553.972;1.26
247;1943.51;553.972;1.26
248;1935.88;571.795;1.26
249;1960.6;550.066;1.26
250;1973.12;555.925;1.27
251;1973.12;538.102;1.27
252;1955.72;587.42;1.27
253;1913.91;559.832;1.27
254;1881.56;530.29;1.27
255;1903.84;595.477;1.27
256;1935.88;561.785;1.27
257;1953.28;563.738;1.27
258;1955.72;550.066;1.28001
259;1945.96;571.795;1.28001
260;1916.35;563.738;1.28001
261;1906.28;587.42;1.28001
262;1953.28;542.009;1.28001
263;1982.88;555.925;1.28001
264;1997.84;595.477;1.28001
265;1997.84;536.149;1.28001
266;1968.23;555.925;1.29
267;1933.44;553.972;1.29
268;1923.68;573.748;1.29
269;1950.84;552.019;1.29
270;1960.6;563.738;1.29
271;1960.6;536.149;1.29
272;1945.96;589.618;1.29
273;1906.28;567.888;1.29
274;1869.35;528.336;1.3
275;1894.07;593.524;1.3
276;1926.12;569.842;1.3
277;1943.51;569.842;1.3
278;1945.96;555.925;1.3
279;1938.33;579.608;1.3
280;1908.72;567.888;1.3
281;1896.52;591.571;1.3
282;1943.51;544.206;1.3
283;1975.56;563.738;1.31001
284;1990.21;599.384;1.31001
285;1992.65;536.149;1.31001
286;1968.23;561.785;1.31001
287;1928.56;561.785;1.31001
288;1918.79;579.608;1.31001
289;1941.07;557.878;1.31001
290;1953.28;565.935;1.31001
291;1955.72;544.206;1.32
292;1941.07;597.43;1.32
293;1901.4;573.748;1.32
294;1864.47;538.102;1.32
295;1886.75;601.337;1.32
296;1923.68;573.748;1.32
297;1941.07;575.701;1.32
298;1945.96;557.878;1.32
299;1933.44;581.561;1.33
300;1906.28;573.748;1.33
301;1894.07;595.477;1.33
302;1938.33;548.112;1.33
303;1970.68;571.795;1.33
304;1987.77;603.29;1.33
305;1987.77;538.102;1.33
306;1960.6;571.795;1.33
307;1926.12;567.888;1.33
308;1916.35;585.467;1.34
309;1938.33;565.935;1.34
310;1948.4;571.795;1.34
311;1953.28;553.972;1.34
312;1935.88;601.337;1.34
313;1896.52;577.654;1.34
314;1859.59;546.159;1.34
315;1884;613.3;1.34
316;1918.79;577.654;1.34
317;1933.44;581.561;1.35001
318;1938.33;565.935;1.35001
319;1928.56;585.467;1.35001
320;1901.4;579.608;1.35001
321;1889.19;603.29;1.35001
322;1933.44;571.795;1.35001
323;1965.49;571.795;1.35001
324;1982.88;609.149;1.35001
325;1987.77;561.785;1.35001
326;1960.6;565.935;1.36
327;1926.12;571.795;1.36
328;1911.16;587.42;1.36
329;1935.88;569.842;1.36
330;1948.4;573.748;1.36
331;1948.4;553.972;1.36
332;1933.44;593.524;1.36
333;1896.52;583.514;1.36
334;1859.59;548.112;1.36
335;1879.12;597.43;1.37
336;1916.35;587.42;1.37
337;1933.44;589.618;1.37
338;1938.33;567.888;1.37
339;1931;593.524;1.37
340;1901.4;579.608;1.37
341;1889.19;609.149;1.37
342;1933.44;569.842;1.37
343;1965.49;577.654;1.37
344;1982.88;615.253;1.37
345;1982.88;563.738;1.38
346;1960.6;573.748;1.38
347;1926.12;571.795;1.38
348;1911.16;593.524;1.38
349;1933.44;569.842;1.38
350;1945.96;579.608;1.38
351;1948.4;555.925;1.38
352;1935.88;603.29;1.38
353;1896.52;583.514;1.38
354;1859.59;548.112;1.38
355;1879.12;603.29;1.39
356;1916.35;589.618;1.39
357;1933.44;589.618;1.39
358;1941.07;569.842;1.39
359;1928.56;595.477;1.39
360;1903.84;581.561;1.39
361;1889.19;609.149;1.39
362;1931;567.888;1.39
363;1968.23;577.654;1.39
364;1982.88;617.206;1.4
365;1982.88;559.832;1.4
366;1960.6;577.654;1.4
367;1923.68;575.701;1.4
368;1911.16;597.43;1.4
369;1938.33;571.795;1.4
370;1948.4;581.561;1.4
371;1950.84;557.878;1.4
372;1938.33;607.196;1.4
373;1903.84;587.42;1.4
374;1864.47;550.066;1.4
375;1881.56;611.347;1.41
376;1918.79;591.571;1.41
377;1933.44;589.618;1.41
378;1938.33;571.795;1.41
379;1931;597.43;1.41
380;1903.84;585.467;1.41
381;1889.19;611.347;1.41
382;1933.44;561.785;1.41
383;1968.23;579.608;1.41
384;1982.88;617.206;1.41
385;1985.32;555.925;1.42001
386;1965.49;579.608;1.42001
387;1926.12;577.654;1.42001
388;1911.16;597.43;1.42001
389;1938.33;573.748;1.42001
390;1950.84;581.561;1.42001
391;1953.28;561.785;1.42001
392;1941.07;611.347;1.42001
393;1901.4;585.467;1.42001
394;1866.91;553.972;1.42001
395;1879.12;617.206;1.43
396;1916.35;587.42;1.43
397;1935.88;589.618;1.43
398;1941.07;571.795;1.43
399;1928.56;593.524;1.43
400;1906.28;585.467;1.43
401;1889.19;609.149;1.43
402;1931;559.832;1.43
403;1965.49;583.514;1.43
404;1980.44;615.253;1.43
405;1987.77;550.066;1.43
406;1963.05;581.561;1.44
407;1926.12;577.654;1.44
408;1911.16;599.384;1.44
409;1938.33;575.701;1.44
410;1950.84;581.561;1.44
411;1950.84;563.738;1.44
412;1938.33;611.347;1.44
413;1903.84;585.467;1.44
414;1864.47;553.972;1.44
415;1879.12;621.113;1.44
416;1918.79;587.42;1.44
417;1933.44;591.571;1.45
418;1945.96;573.748;1.45
419;1931;595.477;1.45
420;1908.72;587.42;1.45
421;1891.63;609.149;1.45
422;1931;557.878;1.45
423;1968.23;585.467;1.45
424;1985.32;613.3;1.45
425;1990.21;548.112;1.45
426;1963.05;579.608;1.45
427;1928.56;577.654;1.45
428;1913.91;595.477;1.45
429;1938.33;575.701;1.46001
430;1950.84;579.608;1.46001
431;1953.28;557.878;1.46001
432;1928.56;595.477;1.46001
433;1889.19;591.571;1.46001
434;1862.03;553.972;1.46001
435;1896.52;597.43;1.46001
436;1928.56;593.524;1.46001
437;1938.33;589.618;1.46001
438;1941.07;573.748;1.46001
439;1921.24;597.43;1.46001
440;1894.07;587.42;1.47
441;1898.96;609.149;1.47
442;1948.4;571.795;1.47
443;1975.56;579.608;1.47
444;1987.77;619.16;1.47
445;1980.44;567.888;1.47
446;1950.84;575.701;1.47
447;1913.91;575.701;1.47
448;1918.79;597.43;1.47
449;1943.51;571.795;1.47
450;1950.84;583.514;1.47
451;1950.84;557.878;1.47
452;1926.12;601.337;1.48
453;1886.75;587.42;1.48
454;1862.03;552.019;1.48
455;1898.96;601.337;1.48
456;1923.68;589.618;1.48
457;1941.07;591.571;1.48
458;1941.07;571.795;1.48
459;1921.24;595.477;1.48
460;1898.96;585.467;1.48
461;1896.52;611.347;1.48
462;1943.51;565.935;1.48
463;1975.56;579.608;1.48
464;1987.77;617.206;1.49001
465;1982.88;561.785;1.49001
466;1950.84;579.608;1.49001
467;1918.79;573.748;1.49001
468;1918.79;595.477;1.49001
469;1943.51;573.748;1.49001
470;1953.28;581.561;1.49001
471;1950.84;559.832;1.49001
472;1928.56;607.196;1.49001
473;1889.19;587.42;1.49001
474;1862.03;550.066;1.49001
475;1896.52;609.149;1.49001
476;1926.12;587.42;1.49001
477;1941.07;589.618;1.5
478;1948.4;571.795;1.5
479;1928.56;595.477;1.5
480;1901.4;583.514;1.5
481;1898.96;607.196;1.5
482;1948.4;561.785;1.5
483;1975.56;581.561;1.5
484;1987.77;615.253;1.5
485;1987.77;557.878;1.5
486;1958.16;579.608;1.5
487;1923.68;577.654;1.5
488;1921.24;595.477;1.5
489;1945.96;573.748;1.51
490;1950.84;581.561;1.51
491;1953.28;557.878;1.51
492;1931;613.3;1.51
493;1889.19;587.42;1.51
494;1866.91;553.972;1.51
495;1901.4;617.206;1.51
496;1931;587.42;1.51
497;1945.96;589.618;1.51
498;1948.4;571.795;1.51
499;1931;595.477;1.51
500;1903.84;585.467;1.51
501;1901.4;607.196;1.51
502;1950.84;557.878;1.52
503;1975.56;581.561;1.52
504;1987.77;615.253;1.52
505;1990.21;552.019;1.52
506;1958.16;581.561;1.52
507;1921.24;577.654;1.52
508;1923.68;595.477;1.52
509;1948.4;571.795;1.52
510;1955.72;581.561;1.52
511;1955.72;561.785;1.52
512;1935.88;613.3;1.52
513;1894.07;587.42;1.52
514;1866.91;555.925;1.52
515;1896.52;621.113;1.53001
516;1931;587.42;1.53001
517;1943.51;587.42;1.53001
518;1948.4;575.701;1.53001
519;1931;595.477;1.53001
520;1903.84;585.467;1.53001
521;1901.4;609.149;1.53001
522;1948.4;557.878;1.53001
523;1978;583.514;1.53001
524;1992.65;613.3;1.53001
525;1990.21;548.112;1.53001
526;1958.16;581.561;1.53001
527;1923.68;581.561;1.53001
528;1923.68;595.477;1.54
529;1950.84;573.748;1.54
530;1955.72;577.654;1.54
531;1958.16;565.935;1.54
532;1935.88;611.347;1.54
533;1898.96;585.467;1.54
534;1866.91;559.832;1.54
535;1901.4;625.019;1.54
536;1931;585.467;1.54
537;1943.51;585.467;1.54
538;1945.96;571.795;1.54
539;1931;595.477;1.54
540;1898.96;583.514;1.54
541;1898.96;609.149;1.55
542;1950.84;559.832;1.55
543;1978;583.514;1.55
544;1992.65;617.206;1.55
545;1987.77;555.925;1.55
546;1960.6;581.561;1.55
547;1923.68;577.654;1.55
548;1921.24;595.477;1.55
549;1948.4;573.748;1.55
550;1953.28;581.561;1.55
551;1958.16;563.738;1.55
552;1938.33;613.3;1.55
553;1898.96;587.42;1.55
554;1871.8;553.972;1.55
555;1903.84;617.206;1.56001
556;1935.88;589.618;1.56001
557;1948.4;587.42;1.56001
558;1953.28;573.748;1.56001
559;1938.33;595.477;1.56001
560;1908.72;585.467;1.56001
561;1908.72;609.149;1.56001
562;1955.72;557.878;1.56001
563;1985.32;583.514;1.56001
564;2000.28;615.253;1.56001
565;1997.84;550.066;1.56001
566;1970.68;583.514;1.56001
567;1933.44;579.608;1.56001
568;1931;595.477;1.57
569;1958.16;573.748;1.57
570;1965.49;581.561;1.57
571;1965.49;563.738;1.57
572;1945.96;613.3;1.57
573;1906.28;585.467;1.57
574;1874.24;557.878;1.57
575;1908.72;623.066;1.57
576;1938.33;583.514;1.57
577;1953.28;587.42;1.57
578;1958.16;575.701;1.57
579;1941.07;593.524;1.57
580;1913.91;587.42;1.57
581;1908.72;605.243;1.57
582;1955.72;559.832;1.58
583;1985.32;585.467;1.58
584;1997.84;609.149;1.58
585;2000.28;546.159;1.58
586;1970.68;583.514;1.58
587;1933.44;581.561;1.58
588;1926.12;595.477;1.58
589;1953.28;575.701;1.58
590;1963.05;579.608;1.58
591;1965.49;569.842;1.58
592;1948.4;611.347;1.58
593;1906.28;591.571;1.58
594;1874.24;552.019;1.58
595;1903.84;599.384;1.58
596;1938.33;591.571;1.59
597;1950.84;589.618;1.59
598;1953.28;573.748;1.59
599;1941.07;595.477;1.59
600;1911.16;585.467;1.59
601;1906.28;609.149;1.59
602;1953.28;573.748;1.59
603;1985.32;579.608;1.59
604;1997.84;617.206;1.59
605;1997.84;563.738;1.59
606;1968.23;575.701;1.59
607;1931;575.701;1.59
608;1926.12;593.524;1.59
609;1953.28;569.842;1.60001
610;1963.05;581.561;1.60001
611;1965.49;559.832;1.60001
612;1948.4;603.29;1.60001
613;1906.28;589.618;1.60001
614;1874.24;550.066;1.60001
615;1903.84;605.243;1.60001
616;1938.33;589.618;1.60001
617;1953.28;591.571;1.60001
618;1958.16;571.795;1.60001
619;1945.96;597.43;1.60001
620;1916.35;583.514;1.60001
621;1906.28;609.149;1.60001
622;1955.72;563.738;1.60001
623;1985.32;579.608;1.61
624;2002.72;615.253;1.61
625;2000.28;557.878;1.61
626;1970.68;577.654;1.61
627;1935.88;575.701;1.61
628;1933.44;595.477;1.61
629;1955.72;571.795;1.61
630;1968.23;583.514;1.61
631;1968.23;557.878;1.61
632;1950.84;607.196;1.61
633;1908.72;585.467;1.61
634;1874.24;548.112;1.61
635;1903.84;613.3;1.61
636;1941.07;585.467;1.61
637;1955.72;589.618;1.62
638;1958.16;569.842;1.62
639;1945.96;595.477;1.62
640;1918.79;583.514;1.62
641;1908.72;607.196;1.62
642;1955.72;557.878;1.62
643;1987.77;579.608;1.62
644;2000.28;615.253;1.62
645;2000.28;552.019;1.62
646;1973.12;579.608;1.62
647;1938.33;575.701;1.62
648;1928.56;593.524;1.62
649;1955.72;571.795;1.62
650;1968.23;581.561;1.62
651;1968.23;559.832;1.63
652;1953.28;611.347;1.63
653;1913.91;583.514;1.63
654;1881.56;552.019;1.63
655;1906.28;617.206;1.63
656;1943.51;585.467;1.63
657;1958.16;587.42;1.63
658;1963.05;571.795;1.63
659;1950.84;593.524;1.63
660;1921.24;583.514;1.63
661;1911.16;603.29;1.63
662;1958.16;557.878;1.63
663;1987.77;579.608;1.63
664;2002.72;611.347;1.63
665;2005.16;546.159;1.64
666;1978;579.608;1.64
667;1941.07;575.701;1.64
668;1933.44;591.571;1.64
669;1960.6;569.842;1.64
670;1968.23;579.608;1.64
671;1970.68;561.785;1.64
672;1953.28;609.149;1.64
673;1913.91;583.514;1.64
674;1881.56;553.972;1.64
675;1903.84;619.16;1.64
676;1941.07;583.514;1.64
677;1958.16;583.514;1.64
678;1963.05;571.795;1.64
679;1950.84;587.42;1.64
680;1921.24;583.514;1.65
681;1913.91;601.337;1.65
682;1958.16;555.925;1.65
683;1990.21;583.514;1.65
684;2007.6;609.149;1.65
685;2007.6;544.206;1.65
686;1980.44;579.608;1.65
687;1945.96;579.608;1.65
688;1933.44;589.618;1.65
689;1963.05;571.795;1.65
690;1970.68;575.701;1.65
691;1975.56;563.738;1.65
692;1958.16;605.243;1.65
693;1916.35;579.608;1.65
694;1884;555.925;1.66
695;1906.28;623.066;1.66
696;1945.96;581.561;1.66
697;1960.6;579.608;1.66
698;1968.23;569.842;1.66
699;1955.72;589.618;1.66
700;1928.56;585.467;1.66
701;1916.35;595.477;1.66
702;1960.6;557.878;1.66
703;1995.4;575.701;1.66
704;2010.04;613.3;1.66
705;2012.49;561.785;1.66
706;1985.32;571.795;1.66
707;1948.4;571.795;1.66
708;1938.33;591.571;1.66
709;1963.05;565.935;1.67001
710;1975.56;577.654;1.67001
711;1975.56;555.925;1.67001
712;1960.6;599.384;1.67001
713;1921.24;583.514;1.67001
714;1886.75;546.159;1.67001
715;1908.72;601.337;1.67001
716;1945.96;587.42;1.67001
717;1960.6;585.467;1.67001
718;1965.49;569.842;1.67001
719;1955.72;593.524;1.67001
720;1928.56;577.654;1.67001
721;1913.91;605.243;1.67001
722;1963.05;561.785;1.67001
723;1995.4;577.654;1.67001
724;2010.04;611.347;1.68
725;2012.49;555.925;1.68
726;1985.32;575.701;1.68
727;1950.84;571.795;1.68
728;1935.88;589.618;1.68
729;1958.16;567.888;1.68
730;1973.12;579.608;1.68
731;1973.12;553.972;1.68
732;1960.6;603.29;1.68
733;1916.35;583.514;1.68
734;1884;548.112;1.68
735;1908.72;609.149;1.68
736;1943.51;585.467;1.68
737;1960.6;587.42;1.68
738;1968.23;569.842;1.68
739;1953.28;593.524;1.68
740;1926.12;577.654;1.69
741;1911.16;603.29;1.69
742;1958.16;557.878;1.69
743;1990.21;577.654;1.69
744;2005.16;611.347;1.69
745;2007.6;550.066;1.69
746;1982.88;577.654;1.69
747;1945.96;573.748;1.69
748;1933.44;591.571;1.69
749;1958.16;567.888;1.69
750;1970.68;577.654;1.69
751;1973.12;557.878;1.69
752;1958.16;607.196;1.69
753;1901.4;581.561;1.69
754;1881.56;548.112;1.69
755;1921.24;609.149;1.7
756;1948.4;581.561;1.7
757;1960.6;583.514;1.7
758;1963.05;569.842;1.7
759;1943.51;589.618;1.7
760;1913.91;577.654;1.7
761;1921.24;603.29;1.7
762;1970.68;553.972;1.7
763;1992.65;577.654;1.7
764;2005.16;611.347;1.7
765;2000.28;546.159;1.7
766;1965.49;577.654;1.7
767;1931;573.748;1.7
768;1941.07;589.618;1.7
769;1965.49;569.842;1.7
770;1970.68;577.654;1.71001
771;1970.68;555.925;1.71001
772;1943.51;607.196;1.71001
773;1903.84;581.561;1.71001
774;1881.56;550.066;1.71001
775;1918.79;619.16;1.71001
776;1948.4;579.608;1.71001
777;1960.6;583.514;1.71001
778;1965.49;567.888;1.71001
779;1945.96;589.618;1.71001
780;1916.35;579.608;1.71001
781;1923.68;601.337;1.71001
782;1975.56;553.972;1.71001
783;1997.84;577.654;1.71001
784;2012.49;607.196;1.71001
785;2005.16;542.009;1.72
786;1973.12;579.608;1.72
787;1935.88;575.701;1.72
788;1945.96;589.618;1.72
789;1970.68;569.842;1.72
790;1978;575.701;1.72
791;1973.12;561.785;1.72
792;1948.4;603.29;1.72
793;1906.28;579.608;1.72
794;1884;553.972;1.72
795;1923.68;619.16;1.72
796;1953.28;579.608;1.72
797;1968.23;577.654;1.72
798;1968.23;571.795;1.72
799;1950.84;585.467;1.72
800;1918.79;583.514;1.73
801;1926.12;597.43;1.73
802;1975.56;557.878;1.73
803;1997.84;579.608;1.73
804;2012.49;603.29;1.73
805;2005.16;542.009;1.73
806;1973.12;577.654;1.73
807;1938.33;579.608;1.73
808;1945.96;587.42;1.73
809;1968.23;569.842;1.73
810;1975.56;571.795;1.73
811;1975.56;563.738;1.73
812;1953.28;603.29;1.73
813;1911.16;573.748;1.73
814;1886.75;559.832;1.73
815;1923.68;611.347;1.74001
816;1953.28;581.561;1.74001
817;1963.05;583.514;1.74001
818;1968.23;569.842;1.74001
819;1950.84;589.618;1.74001
820;1918.79;579.608;1.74001
821;1921.24;599.384;1.74001
822;1973.12;553.972;1.74001
823;1997.84;577.654;1.74001
824;2010.04;609.149;1.74001
825;2005.16;542.009;1.74001
826;1975.56;575.701;1.74001
827;1941.07;573.748;1.74001
828;1943.51;589.618;1.74001
829;1965.49;569.842;1.74001
830;1975.56;573.748;1.75
831;1975.56;559.832;1.75
832;1950.84;605.243;1.75
833;1908.72;577.654;1.75
834;1886.75;552.019;1.75
835;1921.24;617.206;1.75
836;1953.28;579.608;1.75
837;1963.05;579.608;1.75
838;1965.49;569.842;1.75
839;1950.84;587.42;1.75
840;1918.79;581.561;1.75
841;1923.68;597.43;1.75
842;1973.12;552.019;1.75
843;1997.84;579.608;1.75
844;2012.49;603.29;1.75
845;2005.16;540.056;1.75
846;1975.56;577.654;1.76
847;1938.33;577.654;1.76
848;1943.51;587.42;1.76
849;1968.23;569.842;1.76
850;1980.44;571.795;1.76
851;1975.56;561.785;1.76
852;1953.28;603.29;1.76
853;1913.91;577.654;1.76
854;1886.75;553.972;1.76
855;1921.24;619.16;1.76
856;1950.84;577.654;1.76
857;1963.05;577.654;1.76
858;1965.49;571.795;1.76
859;1948.4;585.467;1.76
860;1918.79;583.514;1.76
861;1921.24;593.524;1.77
862;1973.12;557.878;1.77
863;2000.28;585.467;1.77
864;2012.49;599.384;1.77
865;2007.6;542.009;1.77
866;1978;577.654;1.77
867;1941.07;579.608;1.77
868;1941.07;587.42;1.77
869;1965.49;571.795;1.77
870;1975.56;575.701;1.77
871;1973.12;552.019;1.77
872;1948.4;599.384;1.77
873;1908.72;581.561;1.77
874;1884;544.206;1.77
875;1918.79;603.29;1.77
876;1950.84;583.514;1.78001
877;1963.05;581.561;1.78001
878;1963.05;563.738;1.78001
879;1948.4;589.618;1.78001
880;1918.79;577.654;1.78001
881;1921.24;603.29;1.78001
882;1970.68;559.832;1.78001
883;1995.4;571.795;1.78001
884;2010.04;609.149;1.78001
885;2005.16;553.972;1.78001
886;1978;571.795;1.78001
887;1941.07;571.795;1.78001
888;1943.51;589.618;1.78001
889;1965.49;563.738;1.78001
890;1973.12;575.701;1.78001
891;1973.12;553.972;1.79
892;1950.84;605.243;1.79
893;1908.72;581.561;1.79
894;1881.56;544.206;1.79
895;1913.91;605.243;1.79
896;1948.4;583.514;1.79
897;1963.05;585.467;1.79
898;1965.49;565.935;1.79
899;1948.4;589.618;1.79
900;1921.24;577.654;1.79
901;1921.24;601.337;1.79
902;1973.12;553.972;1.79
903;2000.28;575.701;1.79
904;2010.04;611.347;1.79
905;2007.6;548.112;1.79
906;1978;573.748;1.79
907;1941.07;571.795;1.8
908;1941.07;589.618;1.8
909;1968.23;565.935;1.8
910;1980.44;573.748;1.8
911;1978;553.972;1.8
912;1950.84;605.243;1.8
913;1908.72;579.608;1.8
914;1891.63;544.206;1.8
915;1928.56;611.347;1.8
916;1958.16;581.561;1.8
917;1968.23;579.608;1.8
918;1968.23;565.935;1.8
919;1953.28;589.618;1.8
920;1918.79;577.654;1.8
921;1931;599.384;1.8
922;1982.88;550.066;1.81001
923;2007.6;575.701;1.81001
924;2014.93;605.243;1.81001
925;2007.6;542.009;1.81001
926;1975.56;573.748;1.81001
927;1941.07;573.748;1.81001
928;1950.84;585.467;1.81001
929;1973.12;567.888;1.81001
930;1980.44;573.748;1.81001
931;1978;557.878;1.81001
932;1948.4;605.243;1.81001
933;1908.72;577.654;1.81001
934;1889.19;546.159;1.81001
935;1926.12;617.206;1.81001
936;1955.72;579.608;1.81001
937;1968.23;579.608;1.82
938;1968.23;569.842;1.82
939;1945.96;587.42;1.82
940;1916.35;579.608;1.82
941;1928.56;597.43;1.82
942;1980.44;552.019;1.82
943;2005.16;577.654;1.82
944;2014.93;603.29;1.82
945;2007.6;540.056;1.82
946;1973.12;573.748;1.82
947;1941.07;573.748;1.82
948;1950.84;587.42;1.82
949;1973.12;567.888;1.82
950;1978;569.842;1.82
951;1978;559.832;1.82
952;1950.84;599.384;1.83
953;1908.72;573.748;1.83
954;1889.19;553.972;1.83
955;1926.12;617.206;1.83
956;1953.28;577.654;1.83
957;1965.49;573.748;1.83
958;1968.23;567.888;1.83
959;1945.96;585.467;1.83
960;1918.79;581.561;1.83
961;1928.56;595.477;1.83
962;1978;552.019;1.83
963;2002.72;581.561;1.83
964;2017.37;599.384;1.83
965;2005.16;542.009;1.83
966;1973.12;575.701;1.83
967;1941.07;575.701;1.84
968;1948.4;583.514;1.84
969;1970.68;567.888;1.84
970;1978;567.888;1.84
971;1973.12;563.738;1.84
972;1948.4;597.43;1.84
973;1908.72;569.842;1.84
974;1886.75;557.878;1.84
975;1923.68;617.206;1.84
976;1953.28;577.654;1.84
977;1965.49;573.748;1.84
978;1965.49;569.842;1.84
979;1950.84;583.514;1.84
980;1916.35;585.467;1.84
981;1923.68;591.571;1.84
982;1973.12;557.878;1.85001
983;2000.28;573.748;1.85001
984;2010.04;611.347;1.85001
985;2005.16;552.019;1.85001
986;1970.68;573.748;1.85001
987;1938.33;571.795;1.85001
988;1945.96;589.618;1.85001
989;1968.23;563.738;1.85001
990;1978;573.748;1.85001
991;1973.12;552.019;1.85001
992;1950.84;603.29;1.85001
993;1908.72;579.608;1.85001
994;1886.75;546.159;1.85001
995;1923.68;603.29;1.85001
996;1955.72;581.561;1.85001
997;1965.49;579.608;1.85001
998;1968.23;565.935;1.86
999;1948.4;589.618;1.86
1000;1918.79;575.701;1.86
1001;1926.12;601.337;1.86
1002;1978;553.972;1.86
1003;2002.72;573.748;1.86
1004;2012.49;611.347;1.86
1005;2007.6;548.112;1.86
1006;1975.56;573.748;1.86
1007;1941.07;569.842;1.86
1008;1948.4;585.467;1.86
1009;1970.68;565.935;1.86
1010;1978;573.748;1.86
1011;1975.56;555.925;1.86
1012;1950.84;605.243;1.86
1013;1908.72;575.701;1.86
1014;1886.75;546.159;1.87
1015;1923.68;609.149;1.87
1016;1950.84;579.608;1.87
1017;1968.23;579.608;1.87
1018;1968.23;565.935;1.87
1019;1945.96;589.618;1.87
1020;1918.79;575.701;1.87
1021;1926.12;599.384;1.87
1022;1975.56;548.112;1.87
1023;2002.72;573.748;1.87
1024;2014.93;605.243;1.87
1025;2005.16;542.009;1.87
1026;1978;575.701;1.87
1027;1941.07;571.795;1.87
1028;1948.4;587.42;1.87
1029;1970.68;567.888;1.88
1030;1978;571.795;1.88
1031;1975.56;555.925;1.88
1032;1950.84;605.243;1.88
1033;1911.16;577.654;1.88
1034;1889.19;548.112;1.88
1035;1928.56;615.253;1.88
1036;1955.72;577.654;1.88
1037;1965.49;577.654;1.88
1038;1970.68;565.935;1.88
1039;1950.84;587.42;1.88
1040;1921.24;577.654;1.88
1041;1928.56;595.477;1.88
1042;1978;550.066;1.88
1043;2002.72;573.748;1.88
1044;2017.37;603.29;1.89
1045;2010.04;538.102;1.89
1046;1978;571.795;1.89
1047;1945.96;573.748;1.89
1048;1948.4;587.42;1.89
1049;1973.12;569.842;1.89
1050;1982.88;569.842;1.89
1051;1978;559.832;1.89
1052;1955.72;601.337;1.89
1053;1913.91;573.748;1.89
1054;1889.19;550.066;1.89
1055;1926.12;617.206;1.89
1056;1955.72;577.654;1.89
1057;1970.68;575.701;1.89
1058;1973.12;567.888;1.89
1059;1953.28;583.514;1.89
1060;1923.68;579.608;1.9
1061;1928.56;593.524;1.9
1062;1978;552.019;1.9
1063;2005.16;581.561;1.9
1064;2014.93;597.43;1.9
1065;2012.49;540.056;1.9
1066;1978;575.701;1.9
1067;1945.96;575.701;1.9
1068;1948.4;585.467;1.9
1069;1973.12;569.842;1.9
1070;1982.88;569.842;1.9
1071;1982.88;563.738;1.9
1072;1958.16;599.384;1.9
1073;1918.79;569.842;1.9
1074;1894.07;555.925;1.9
1075;1926.12;613.3;1.91
1076;1958.16;577.654;1.91
1077;1970.68;573.748;1.91
1078;1973.12;567.888;1.91
1079;1955.72;581.561;1.91
1080;1923.68;585.467;1.91
1081;1928.56;589.618;1.91
1082;1978;555.925;1.91
1083;2005.16;583.514;1.91
1084;2019.81;595.477;1.91
1085;2014.93;544.206;1.91
1086;1982.88;573.748;1.91
1087;1948.4;577.654;1.91
1088;1950.84;587.42;1.91
1089;1978;571.795;1.91
1090;1985.32;563.738;1.91
1091;1985.32;567.888;1.92001
1092;1960.6;597.43;1.92001
1093;1921.24;575.701;1.92001
1094;1894.07;550.066;1.92001
1095;1928.56;615.253;1.92001
1096;1960.6;579.608;1.92001
1097;1973.12;577.654;1.92001
1098;1975.56;565.935;1.92001
1099;1960.6;585.467;1.92001
1100;1928.56;579.608;1.92001
1101;1931;595.477;1.92001
1102;1978;550.066;1.92001
1103;2005.16;577.654;1.92001
1104;2017.37;603.29;1.92001
1105;2014.93;538.102;1.92001
1106;1982.88;573.748;1.92001
1107;1943.51;575.701;1.92001
1108;1948.4;585.467;1.93
1109;1973.12;569.842;1.93
1110;1980.44;571.795;1.93
1111;1982.88;559.832;1.93
1112;1960.6;599.384;1.93
1113;1921.24;573.748;1.93
1114;1891.63;552.019;1.93
1115;1926.12;619.16;1.93
1116;1958.16;575.701;1.93
1117;1970.68;575.701;1.93
1118;1973.12;567.888;1.93
1119;1958.16;583.514;1.93
1120;1928.56;581.561;1.93
1121;1931;593.524;1.93
1122;1978;553.972;1.93
1123;2005.16;579.608;1.93
1124;2017.37;593.524;1.93
1125;2014.93;542.009;1.94
1126;1985.32;573.748;1.94
1127;1948.4;575.701;1.94
1128;1950.84;583.514;1.94
1129;1978;569.842;1.94
1130;1987.77;563.738;1.94
1131;1987.77;563.738;1.94
1132;1968.23;597.43;1.94
1133;1926.12;569.842;1.94
1134;1898.96;557.878;1.94
1135;1928.56;613.3;1.94
1136;1963.05;577.654;1.94
1137;1973.12;573.748;1.94
1138;1980.44;567.888;1.94
1139;1963.05;583.514;1.94
1140;1928.56;585.467;1.94
1141;1931;587.42;1.95
1142;1982.88;557.878;1.95
1143;2012.49;585.467;1.95
1144;2022.56;591.571;1.95
1145;2019.81;546.159;1.95
1146;1990.21;573.748;1.95
1147;1955.72;579.608;1.95
1148;1953.28;587.42;1.95
1149;1978;565.935;1.95
1150;1987.77;571.795;1.95
1151;1985.32;552.019;1.95
1152;1965.49;603.29;1.95
1153;1926.12;579.608;1.95
1154;1896.52;542.009;1.95
1155;1928.56;605.243;1.95
1156;1963.05;579.608;1.95
1157;1975.56;581.561;1.96001
1158;1980.44;563.738;1.96001
1159;1965.49;589.618;1.96001
1160;1933.44;573.748;1.96001
1161;1931;599.384;1.96001
1162;1982.88;550.066;1.96001
1163;2012.49;571.795;1.96001
1164;2025;607.196;1.96001
1165;2022.56;546.159;1.96001
1166;1992.65;571.795;1.96001
1167;1953.28;567.888;1.96001
1168;1955.72;587.42;1.96001
1169;1978;565.935;1.96001
1170;1990.21;573.748;1.96001
1171;1987.77;552.019;1.96001
1172;1970.68;603.29;1.97
1173;1928.56;577.654;1.97
1174;1898.96;546.159;1.97
1175;1928.56;609.149;1.97
1176;1963.05;577.654;1.97
1177;1975.56;579.608;1.97
1178;1982.88;563.738;1.97
1179;1965.49;587.42;1.97
1180;1935.88;575.701;1.97
1181;1928.56;599.384;1.97
1182;1980.44;548.112;1.97
1183;2007.6;573.748;1.97
1184;2022.56;605.243;1.97
1185;2019.81;540.056;1.97
1186;1992.65;571.795;1.97
1187;1953.28;569.842;1.97
1188;1948.4;589.618;1.98
1189;1975.56;565.935;1.98
1190;1985.32;571.795;1.98
1191;1987.77;555.925;1.98
1192;1968.23;603.29;1.98
1193;1926.12;575.701;1.98
1194;1896.52;546.159;1.98
1195;1926.12;613.3;1.98
1196;1963.05;577.654;1.98
1197;1973.12;577.654;1.98
1198;1980.44;565.935;1.98
1199;1963.05;583.514;1.98
1200;1935.88;577.654;1.98
1201;1931;595.477;1.98
1202;1980.44;550.066;1.98
1203;2012.49;575.701;1.99001
1204;2025;599.384;1.99001
1205;2025;538.102;1.99001
1206;1997.84;575.701;1.99001
1207;1960.6;573.748;1.99001
1208;1955.72;585.467;1.99001
1209;1982.88;569.842;1.99001
1210;1992.65;571.795;1.99001
1211;1992.65;557.878;1.99001
1212;1975.56;599.384;1.99001
1213;1933.44;573.748;1.99001
1214;1903.84;552.019;1.99001
1215;1933.44;617.206;1.99001
1216;1970.68;577.654;1.99001
1217;1985.32;575.701;1.99001
1218;1992.65;565.935;2
1219;1975.56;583.514;2
1220;1945.96;581.561;2
1221;1938.33;591.571;2
1222;1985.32;552.019;2
1223;2014.93;579.608;2
1224;2029.88;595.477;2
1225;2027.44;540.056;2
1226;1997.84;573.748;2
1227;1965.49;577.654;2
1228;1970.68;583.514;2
1229;1992.65;567.888;2
1230;1995.4;563.738;2
1231;1995.4;563.738;2
1232;1963.05;595.477;2
1233;1918.79;567.888;2
1234;1908.72;555.925;2.01
1235;1953.28;611.347;2.01
1236;1975.56;575.701;2.01
1237;1985.32;573.748;2.01
1238;1982.88;569.842;2.01
1239;1960.6;579.608;2.01
1240;1935.88;587.42;2.01
1241;1950.84;589.618;2.01
1242;1997.84;553.972;2.01
1243;2019.81;581.561;2.01
1244;2032.32;591.571;2.01
1245;2019.81;542.009;2.01
1246;1985.32;573.748;2.01
1247;1953.28;579.608;2.01
1248;1965.49;583.514;2.01
1249;1987.77;569.842;2.02
1250;1992.65;563.738;2.02
1251;1987.77;567.888;2.02
1252;1958.16;593.524;2.02
1253;1916.35;565.935;2.02
1254;1903.84;561.785;2.02
1255;1945.96;611.347;2.02
1256;1970.68;573.748;2.02
1257;1980.44;569.842;2.02
1258;1978;569.842;2.02
1259;1958.16;581.561;2.02
1260;1928.56;575.701;2.02
1261;1945.96;599.384;2.02
1262;1997.84;552.019;2.02
1263;2019.81;571.795;2.02
1264;2029.88;609.149;2.03001
1265;2019.81;542.009;2.03001
1266;1985.32;569.842;2.03001
1267;1953.28;567.888;2.03001
1268;1970.68;587.42;2.03001
1269;1990.21;567.888;2.03001
1270;1997.84;571.795;2.03001
1271;1995.4;552.019;2.03001
1272;1968.23;603.29;2.03001
1273;1921.24;577.654;2.03001
1274;1908.72;544.206;2.03001
1275;1950.84;607.196;2.03001
1276;1978;577.654;2.03001
1277;1987.77;577.654;2.03001
1278;1987.77;563.738;2.04
1279;1968.23;585.467;2.04
1280;1935.88;573.748;2.04
1281;1955.72;597.43;2.04
1282;2002.72;550.066;2.04
1283;2027.44;571.795;2.04
1284;2037.21;603.29;2.04
1285;2025;540.056;2.04
1286;1992.65;573.748;2.04
1287;1960.6;569.842;2.04
1288;1973.12;585.467;2.04
1289;1995.4;563.738;2.04
1290;2005.16;571.795;2.04
1291;2000.28;553.972;2.04
1292;1973.12;603.29;2.04
1293;1931;573.748;2.05
1294;1916.35;546.159;2.05
1295;1958.16;615.253;2.05
1296;1985.32;577.654;2.05
1297;1997.84;577.654;2.05
1298;1997.84;563.738;2.05
1299;1975.56;583.514;2.05
1300;1948.4;577.654;2.05
1301;1960.6;595.477;2.05
1302;2010.04;552.019;2.05
1303;2032.32;573.748;2.05
1304;2044.53;601.337;2.05
1305;2032.32;538.102;2.05
1306;2000.28;573.748;2.05
1307;1965.49;573.748;2.05
1308;1980.44;583.514;2.06001
1309;2005.16;569.842;2.06001
1310;2010.04;569.842;2.06001
1311;2007.6;557.878;2.06001
1312;1980.44;601.337;2.06001
1313;1933.44;571.795;2.06001
1314;1918.79;550.066;2.06001
1315;1963.05;617.206;2.06001
1316;1987.77;577.654;2.06001
1317;1997.84;573.748;2.06001
1318;2000.28;567.888;2.06001
1319;1980.44;583.514;2.06001
1320;1945.96;579.608;2.06001
1321;1960.6;591.571;2.06001
1322;2012.49;553.972;2.06001
1323;2034.76;577.654;2.07
1324;2046.97;595.477;2.07
1325;2034.76;540.056;2.07
1326;2000.28;571.795;2.07
1327;1965.49;577.654;2.07
1328;1980.44;583.514;2.07
1329;2000.28;569.842;2.07
1330;2007.6;565.935;2.07
1331;2005.16;563.738;2.07
1332;1978;597.43;2.07
1333;1935.88;571.795;2.07
1334;1918.79;553.972;2.07
1335;1960.6;615.253;2.07
1336;1987.77;575.701;2.07
1337;2000.28;573.748;2.07
1338;2000.28;567.888;2.08
1339;1978;581.561;2.08
1340;1945.96;583.514;2.08
1341;1960.6;589.618;2.08
1342;2010.04;555.925;2.08
1343;2034.76;583.514;2.08
1344;2046.97;593.524;2.08
1345;2037.21;544.206;2.08
1346;2002.72;575.701;2.08
1347;1970.68;577.654;2.08
1348;1980.44;583.514;2.08
1349;2002.72;569.842;2.08
1350;2007.6;561.785;2.08
1351;2005.16;567.888;2.08
1352;1980.44;597.43;2.08
1353;1938.33;567.888;2.09
1354;1916.35;559.832;2.09
1355;1958.16;607.196;2.09
1356;1985.32;575.701;2.09
1357;1997.84;569.842;2.09
1358;2000.28;567.888;2.09
1359;1978;581.561;2.09
1360;1945.96;589.618;2.09
1361;1958.16;585.467;2.09
1362;2007.6;557.878;2.09
1363;2034.76;587.42;2.09
1364;2044.53;585.467;2.09
1365;2034.76;546.159;2.09
1366;2005.16;573.748;2.09
1367;1970.68;579.608;2.09
1368;1982.88;583.514;2.10001
1369;2005.16;571.795;2.10001
1370;2010.04;559.832;2.10001
1371;2007.6;559.832;2.10001
1372;1980.44;599.384;2.10001
1373;1941.07;571.795;2.10001
1374;1916.35;553.972;2.10001
1375;1958.16;617.206;2.10001
1376;1985.32;575.701;2.10001
1377;1997.84;575.701;2.10001
1378;1997.84;567.888;2.10001
1379;1980.44;581.561;2.10001
1380;1948.4;583.514;2.10001
1381;1958.16;593.524;2.10001
1382;2012.49;552.019;2.10001
1383;2034.76;579.608;2.11
1384;2049.72;597.43;2.11
1385;2042.09;542.009;2.11
1386;2010.04;573.748;2.11
1387;1978;575.701;2.11
1388;1985.32;585.467;2.11
1389;2007.6;569.842;2.11
1390;2014.93;561.785;2.11
1391;2014.93;563.738;2.11
1392;1987.77;597.43;2.11
1393;1943.51;567.888;2.11
1394;1921.24;557.878;2.11
1395;1965.49;611.347;2.11
1396;1992.65;577.654;2.11
1397;2005.16;571.795;2.11
1398;2005.16;567.888;2.12
1399;1987.77;581.561;2.12
1400;1958.16;589.618;2.12
1401;1965.49;589.618;2.12
1402;2017.37;559.832;2.12
1403;2042.09;583.514;2.12
1404;2057.04;591.571;2.12
1405;2046.97;544.206;2.12
1406;2014.93;573.748;2.12
1407;1978;577.654;2.12
1408;1985.32;583.514;2.12
1409;2012.49;569.842;2.12
1410;2017.37;561.785;2.12
1411;2014.93;567.888;2.12
1412;1990.21;593.524;2.12
1413;1945.96;563.738;2.12
1414;1926.12;563.738;2.13
1415;1965.49;609.149;2.13
1416;1997.84;575.701;2.13
1417;2007.6;567.888;2.13
1418;2010.04;567.888;2.13
1419;1992.65;581.561;2.13
1420;1960.6;589.618;2.13
1421;1965.49;587.42;2.13
1422;2017.37;559.832;2.13
1423;2044.53;589.618;2.13
1424;2057.04;587.42;2.13
1425;2046.97;548.112;2.13
1426;2017.37;575.701;2.13
1427;1980.44;569.842;2.13
1428;1990.21;585.467;2.13
1429;2014.93;563.738;2.14
1430;2025;571.795;2.14
1431;2019.81;553.972;2.14
1432;1995.4;605.243;2.14
1433;1953.28;577.654;2.14
1434;1931;544.206;2.14
1435;1968.23;611.347;2.14
1436;2000.28;575.701;2.14
1437;2012.49;579.608;2.14
1438;2014.93;563.738;2.14
1439;1997.84;585.467;2.14
1440;1963.05;575.701;2.14
1441;1970.68;597.43;2.14
1442;2025;550.066;2.14
1443;2049.72;571.795;2.14
1444;2061.93;605.243;2.15
1445;2054.6;540.056;2.15
1446;2022.56;575.701;2.15
1447;1987.77;571.795;2.15
1448;1992.65;585.467;2.15
1449;2019.81;565.935;2.15
1450;2027.44;571.795;2.15
1451;2025;555.925;2.15
1452;2000.28;601.337;2.15
1453;1958.16;577.654;2.15
1454;1935.88;550.066;2.15
1455;1973.12;615.253;2.15
1456;2002.72;573.748;2.15
1457;2014.93;575.701;2.15
1458;2017.37;565.935;2.15
1459;2000.28;583.514;2.15
1460;1970.68;577.654;2.16
1461;1973.12;593.524;2.16
1462;2022.56;550.066;2.16
1463;2049.72;575.701;2.16
1464;2064.37;599.384;2.16
1465;2057.04;538.102;2.16
1466;2025;573.748;2.16
1467;1990.21;569.842;2.16
1468;1992.65;581.561;2.16
1469;2022.56;567.888;2.16
1470;2027.44;567.888;2.16
1471;2029.88;559.832;2.16
1472;2002.72;599.384;2.16
1473;1963.05;569.842;2.16
1474;1938.33;553.972;2.16
1475;1975.56;615.253;2.16
1476;2007.6;573.748;2.17001
1477;2019.81;571.795;2.17001
1478;2025;569.842;2.17001
1479;2007.6;581.561;2.17001
1480;1978;579.608;2.17001
1481;1978;591.571;2.17001
1482;2029.88;553.972;2.17001
1483;2054.6;577.654;2.17001
1484;2069.25;595.477;2.17001
1485;2064.37;538.102;2.17001
1486;2032.32;573.748;2.17001
1487;1995.4;577.654;2.17001
1488;1997.84;583.514;2.17001
1489;2025;567.888;2.17001
1490;2034.76;563.738;2.17001
1491;2034.76;561.785;2.18
1492;2012.49;597.43;2.18
1493;1968.23;567.888;2.18
1494;1941.07;555.925;2.18
1495;1978;615.253;2.18
1496;2012.49;575.701;2.18
1497;2025;571.795;2.18
1498;2025;567.888;2.18
1499;2007.6;581.561;2.18
1500;1978;583.514;2.18
1501;1978;587.42;2.18
1502;2027.44;553.972;2.18
1503;2057.04;585.467;2.18
1504;2069.25;591.571;2.18
1505;2064.37;544.206;2.18
1506;2034.76;573.748;2.18
1507;1995.4;575.701;2.19
1508;1995.4;583.514;2.19
1509;2025;569.842;2.19
1510;2034.76;559.832;2.19
1511;2032.32;565.935;2.19
1512;2007.6;593.524;2.19
1513;1968.23;561.785;2.19
1514;1941.07;559.832;2.19
1515;1978;611.347;2.19
1516;2007.6;575.701;2.19
1517;2019.81;567.888;2.19
1518;2025;567.888;2.19
1519;2007.6;581.561;2.19
1520;1978;587.42;2.19
1521;1978;585.467;2.19
1522;2029.88;557.878;2.2
1523;2057.04;587.42;2.2
1524;2069.25;585.467;2.2
1525;2066.81;548.112;2.2
1526;2037.21;575.701;2.2
1527;2000.28;579.608;2.2
1528;2000.28;581.561;2.2
1529;2027.44;569.842;2.2
1530;2034.76;555.925;2.2
1531;2034.76;573.748;2.2
1532;2012.49;589.618;2.2
1533;1970.68;559.832;2.2
1534;1945.96;563.738;2.2
1535;1980.44;603.29;2.2
1536;2012.49;573.748;2.2
1537;2027.44;567.888;2.21001
1538;2029.88;563.738;2.21001
1539;2014.93;585.467;2.21001
1540;1980.44;573.748;2.21001
1541;1980.44;595.477;2.21001
1542;2032.32;548.112;2.21001
1543;2059.48;573.748;2.21001
1544;2071.69;605.243;2.21001
1545;2069.25;542.009;2.21001
1546;2037.21;573.748;2.21001
1547;1997.84;569.842;2.21001
1548;2014.93;585.467;2.21001
1549;2032.32;563.738;2.21001
1550;2042.09;569.842;2.21001
1551;2034.76;553.972;2.22
1552;2005.16;605.243;2.22
1553;1958.16;573.748;2.22
1554;1950.84;546.159;2.22
1555;2000.28;613.3;2.22
1556;2022.56;573.748;2.22
1557;2032.32;575.701;2.22
1558;2029.88;563.738;2.22
1559;2005.16;585.467;2.22
1560;1975.56;575.701;2.22
1561;2002.72;595.477;2.22
1562;2049.72;548.112;2.22
1563;2074.13;573.748;2.22
1564;2081.76;601.337;2.22
1565;2066.81;536.149;2.23
1566;2029.88;571.795;2.23
1567;2002.72;571.795;2.23
1568;2019.81;583.514;2.23
1569;2042.09;565.935;2.23
1570;2046.97;567.888;2.23
1571;2042.09;557.878;2.23
1572;2010.04;599.384;2.23
1573;1965.49;571.795;2.23
1574;1960.6;550.066;2.23
1575;2005.16;617.206;2.23
1576;2029.88;573.748;2.23
1577;2042.09;571.795;2.23
1578;2039.65;565.935;2.23
1579;2012.49;581.561;2.24001
1580;1985.32;577.654;2.24001
1581;2007.6;591.571;2.24001
1582;2057.04;550.066;2.24001
1583;2079.32;577.654;2.24001
1584;2089.09;595.477;2.24001
1585;2074.13;538.102;2.24001
1586;2039.65;573.748;2.24001
1587;2010.04;575.701;2.24001
1588;2029.88;581.561;2.24001
1589;2049.72;565.935;2.24001
1590;2057.04;563.738;2.24001
1591;2049.72;561.785;2.24001
1592;2017.37;597.43;2.24001
1593;1975.56;565.935;2.25
1594;1965.49;552.019;2.25
1595;2012.49;615.253;2.25
1596;2037.21;573.748;2.25
1597;2046.97;571.795;2.25
1598;2044.53;565.935;2.25
1599;2019.81;581.561;2.25
1600;1990.21;583.514;2.25
1601;2014.93;589.618;2.25
1602;2061.93;553.972;2.25
1603;2086.65;585.467;2.25
1604;2096.41;593.524;2.25
1605;2081.76;544.206;2.25
1606;2046.97;571.795;2.25
1607;2014.93;577.654;2.26
1608;2032.32;583.514;2.26
1609;2057.04;569.842;2.26
1610;2059.48;561.785;2.26
1611;2057.04;567.888;2.26
1612;2025;593.524;2.26
1613;1980.44;563.738;2.26
1614;1968.23;559.832;2.26
1615;2014.93;609.149;2.26
1616;2042.09;573.748;2.26
1617;2052.16;569.842;2.26
1618;2049.72;567.888;2.26
1619;2025;579.608;2.26
1620;1997.84;587.42;2.27
1621;2017.37;585.467;2.27
1622;2066.81;555.925;2.27
1623;2091.53;587.42;2.27
1624;2101.29;585.467;2.27
1625;2091.53;542.009;2.27
1626;2054.6;573.748;2.27
1627;2019.81;579.608;2.27
1628;2037.21;581.561;2.27
1629;2061.93;567.888;2.27
1630;2066.81;555.925;2.27
1631;2061.93;569.842;2.27
1632;2032.32;589.618;2.27
1633;1990.21;557.878;2.28001
1634;1975.56;565.935;2.28001
1635;2025;601.337;2.28001
1636;2049.72;573.748;2.28001
1637;2059.48;563.738;2.28001
1638;2057.04;567.888;2.28001
1639;2034.76;577.654;2.28001
1640;2002.72;589.618;2.28001
1641;2025;581.561;2.28001
1642;2074.13;559.832;2.28001
1643;2096.41;591.571;2.28001
1644;2106.48;579.608;2.28001
1645;2093.97;550.066;2.28001
1646;2059.48;573.748;2.29
1647;2027.44;579.608;2.29
1648;2042.09;581.561;2.29
1649;2066.81;565.935;2.29
1650;2071.69;561.785;2.29
1651;2069.25;563.738;2.29
1652;2039.65;595.477;2.29
1653;1995.4;567.888;2.29
1654;1982.88;552.019;2.29
1655;2029.88;611.347;2.29
1656;2057.04;573.748;2.29
1657;2066.81;567.888;2.29
1658;2064.37;563.738;2.29
1659;2042.09;579.608;2.3
1660;2012.49;587.42;2.3
1661;2029.88;585.467;2.3
1662;2079.32;553.972;2.3
1663;2104.04;585.467;2.3
1664;2116.25;589.618;2.3
1665;2104.04;542.009;2.3
1666;2069.25;573.748;2.3
1667;2034.76;577.654;2.3
1668;2052.16;579.608;2.3
1669;2074.13;565.935;2.3
1670;2081.76;559.832;2.3
1671;2076.88;567.888;2.31001
1672;2046.97;595.477;2.31001
1673;2002.72;559.832;2.31001
1674;1987.77;559.832;2.31001
1675;2032.32;605.243;2.31001
1676;2059.48;573.748;2.31001
1677;2071.69;567.888;2.31001
1678;2069.25;565.935;2.31001
1679;2046.97;579.608;2.31001
1680;2014.93;589.618;2.31001
1681;2032.32;583.514;2.31001
1682;2084.2;557.878;2.31001
1683;2108.92;587.42;2.31001
1684;2118.69;583.514;2.32
1685;2108.92;546.159;2.32
1686;2069.25;571.795;2.32
