<WeldAnalyseData xmlns:i="http:www.w3.org/2001/XMLSchema-instance">
<WeldParameter>
<TimeStamp>DT#2024-01-25-09:40:08</TimeStamp>
<Generator>SG-22-10000</Generator>
<GenFreq>20</GenFreq>
<MaxForce>8000</MaxForce>
<MaxPower>10000</MaxPower>
<RunupPressure>1.5</RunupPressure>
<RunupDist>10</RunupDist>
<RunPress>0.8</RunPress>
<ShakeDelay>0.03</ShakeDelay>
<ShakeTime>0.3</ShakeTime>
<RunBackPress1>6</RunBackPress1>
<RunBackPress2>2</RunBackPress2>
<RunBackDist>1</RunBackDist>
<TrigValue>500</TrigValue>
<TrigModeUnit>W</TrigModeUnit>
<WeldModeUnit>Ws</WeldModeUnit>
<PressNr>0</PressNr>
<MaxLoss>1500</MaxLoss>
</WeldParameter>
<WeldSets>
<WeldSet>
<PressRiseTime>0</PressRiseTime>
<RunPressure>1</RunPressure>
<Amplitude>86</Amplitude>
<WeldMode>3270</WeldMode>
</WeldSet>
</WeldSets>
<WeldValue>
<WeldNr>2983</WeldNr>
<RecipeName>RickStyle</RecipeName>
<WeldTime>1669</WeldTime>
<DistDiff>2.39</DistDiff>
<DistAbs>78.08</DistAbs>
<Energy>3271.34</Energy>
<MaxPower>2204.73</MaxPower>
<CycleTime>5950</CycleTime>
<TrigForce>502.701</TrigForce>
<TrigDist>75.69</TrigDist>
<RunSpeed>68.1278</RunSpeed>
<MaxForce>625.019</MaxForce>
<LossPower>323.42</LossPower>
</WeldValue>
</WeldAnalyseData>
#CSV-START#
ms;Power[W];Force[N];Distance[mm]
1;0;0;0
2;0;500.748;0
3;0;502.701;0
4;0;502.701;0
5;0;504.654;0
6;0;502.701;0
7;0;500.748;0
8;0;488.784;0
9;0;431.654;0.00999451
10;0;413.831;0.0299988
11;0;370.373;0.0699997
12;26.9326;366.466;0.0999985
13;88.8852;340.831;0.139999
14;165.181;309.091;0.18
15;239.341;326.914;0.220001
16;300.989;299.326;0.269997
17;350.429;289.315;0.32
18;409.635;275.643;0.369995
19;469.146;285.409;0.409996
20;520.722;291.269;0.459999
21;582.675;309.091;0.5
22;659.276;283.456;0.540001
23;733.131;305.185;0.57
24;804.849;334.727;0.599998
25;873.821;295.419;0.619995
26;923.261;330.821;0.649994
27;967.818;338.633;0.669998
28;1024.58;362.56;0.68
29;1086.23;360.363;0.689995
30;1135.67;374.279;0.699997
31;1175.04;370.373;0.709999
32;1197.32;413.831;0.720001
33;1202.2;401.868;0.720001
34;1224.48;384.045;0.720001
35;1273.92;439.467;0.729996
36;1316.03;409.925;0.729996
37;1348.08;415.784;0.739998
38;1380.12;405.774;0.75
39;1395.08;421.644;0.75
40;1402.4;423.597;0.759995
41;1436.89;437.513;0.759995
42;1498.54;403.821;0.769997
43;1538.21;429.456;0.769997
44;1570.25;447.279;0.779999
45;1590.09;396.008;0.779999
46;1585.21;427.503;0.790001
47;1577.58;429.456;0.790001
48;1607.18;439.467;0.799995
49;1649.3;427.503;0.809998
50;1676.46;427.503;0.809998
51;1693.85;423.597;0.82
52;1693.85;457.289;0.829994
53;1671.58;429.456;0.829994
54;1676.46;419.691;0.839996
55;1730.78;472.915;0.849998
56;1772.59;441.42;0.860001
57;1809.82;439.467;0.860001
58;1824.47;439.467;0.869995
59;1824.47;453.383;0.879997
60;1814.71;461.196;0.879997
61;1841.87;465.102;0.889999
62;1905.96;439.467;0.889999
63;1943.19;470.962;0.899994
64;1967.91;472.915;0.909996
65;1970.35;433.607;0.909996
66;1950.51;463.149;0.919998
67;1928.24;470.962;0.919998
68;1948.07;475.112;0.93
69;1992.32;461.196;0.93
70;2007.28;455.336;0.93
71;2012.16;465.102;0.939995
72;1987.44;492.691;0.939995
73;1950.51;463.149;0.949997
74;1952.96;465.102;0.949997
75;2007.28;510.514;0.959999
76;2036.88;479.019;0.959999
77;2056.72;472.915;0.970001
78;2059.16;475.112;0.970001
79;2039.32;488.784;0.970001
80;2017.04;500.748;0.979996
81;2046.65;494.644;0.979996
82;2098.53;470.962;0.989998
83;2130.88;506.607;0.989998
84;2143.09;498.795;1
85;2133.32;461.196;1
86;2098.53;492.691;1.00999
87;2071.37;498.795;1.00999
88;2096.09;500.748;1.02
89;2123.25;490.738;1.02
90;2135.76;477.065;1.02
91;2130.88;494.644;1.03
92;2100.97;522.477;1.03
93;2059.16;494.644;1.03
94;2051.84;480.972;1.04
95;2098.53;538.102;1.04
96;2128.13;504.654;1.05
97;2140.64;500.748;1.05
98;2140.64;494.644;1.05
99;2115.92;510.514;1.06
100;2088.76;516.373;1.06
101;2115.92;522.477;1.06
102;2170.25;484.878;1.07
103;2194.97;516.373;1.07
104;2204.73;526.383;1.07
105;2187.64;475.112;1.07999
106;2147.97;508.56;1.07999
107;2111.04;512.467;1.07999
108;2128.13;518.326;1.09
109;2147.97;500.748;1.09
110;2155.29;496.597;1.09
111;2147.97;504.654;1.1
112;2113.48;530.29;1.1
113;2064.04;502.701;1.1
114;2051.84;496.597;1.11
115;2093.65;546.159;1.11
116;2125.69;514.42;1.11
117;2133.32;508.56;1.12
118;2130.88;508.56;1.12
119;2103.72;520.524;1.12
120;2071.37;530.29;1.12
121;2096.09;526.383;1.13
122;2147.97;500.748;1.13
123;2172.69;530.29;1.13
124;2187.64;532.243;1.13
125;2172.69;488.784;1.14
126;2135.76;520.524;1.14
127;2100.97;528.336;1.14
128;2115.92;530.29;1.14
129;2138.2;518.326;1.14999
130;2140.64;506.607;1.14999
131;2135.76;518.326;1.14999
132;2098.53;538.102;1.14999
133;2046.65;508.56;1.16
134;2032;514.42;1.16
135;2079;553.972;1.16
136;2106.16;522.477;1.17
137;2115.92;518.326;1.17
138;2111.04;516.373;1.17
139;2083.88;528.336;1.17
140;2051.84;542.009;1.18
141;2068.93;532.243;1.18
142;2118.37;514.42;1.18
143;2140.64;546.159;1.18
144;2150.41;534.196;1.18
145;2135.76;502.701;1.18999
146;2096.09;526.383;1.18999
147;2061.6;536.149;1.18999
148;2076.56;536.149;1.18999
149;2096.09;518.326;1.18999
150;2103.72;528.336;1.2
151;2100.97;510.514;1.2
152;2066.48;559.832;1.2
153;2022.23;532.243;1.2
154;2004.84;500.748;1.2
155;2051.84;567.888;1.21
156;2076.56;532.243;1.21
157;2086.32;532.243;1.21
158;2083.88;522.477;1.21
159;2056.72;540.056;1.21
160;2024.67;534.196;1.22
161;2044.21;555.925;1.22
162;2093.65;506.607;1.22
163;2115.92;534.196;1.22
164;2125.69;561.785;1.22
165;2113.48;498.795;1.23
166;2076.56;534.196;1.23
167;2041.76;530.29;1.23
168;2054.28;546.159;1.23
169;2076.56;526.383;1.23
170;2083.88;532.243;1.24
171;2079;520.524;1.24
172;2046.65;565.935;1.24
173;1999.95;534.196;1.24
174;1987.44;512.467;1.24
175;2029.56;579.608;1.24
176;2054.28;538.102;1.25
177;2066.48;538.102;1.25
178;2066.48;532.243;1.25
179;2041.76;548.112;1.25
180;2009.72;546.159;1.25
181;2027.12;559.832;1.25
182;2076.56;518.326;1.25999
183;2093.65;542.009;1.25999
184;2106.16;565.935;1.25999
185;2093.65;504.654;1.25999
186;2054.28;540.056;1.25999
187;2022.23;540.056;1.25999
188;2032;550.066;1.27
189;2054.28;532.243;1.27
190;2061.6;534.196;1.27
191;2056.72;528.336;1.27
192;2024.67;567.888;1.27
193;1977.68;538.102;1.27
194;1962.72;522.477;1.28
195;2004.84;581.561;1.28
196;2029.56;544.206;1.28
197;2039.32;542.009;1.28
198;2041.76;536.149;1.28
199;2017.04;550.066;1.29
200;1985;553.972;1.29
201;1999.95;559.832;1.29
202;2051.84;524.43;1.29
203;2073.81;552.019;1.29
204;2083.88;563.738;1.29
205;2071.37;514.42;1.29
206;2036.88;546.159;1.3
207;1999.95;548.112;1.3
208;2012.16;555.925;1.3
209;2036.88;542.009;1.3
210;2041.76;536.149;1.3
211;2039.32;536.149;1.3
212;2009.72;571.795;1.3
213;1965.16;540.056;1.31
214;1948.07;530.29;1.31
215;1987.44;583.514;1.31
216;2017.04;550.066;1.31
217;2029.56;542.009;1.31
218;2029.56;542.009;1.31
219;2004.84;555.925;1.32
220;1972.79;559.832;1.32
221;1985;561.785;1.32
222;2034.44;532.243;1.32
223;2056.72;561.785;1.32
224;2068.93;563.738;1.32
225;2056.72;522.477;1.32
226;2019.49;552.019;1.32999
227;1987.44;555.925;1.32999
228;1997.51;559.832;1.32999
229;2022.23;548.112;1.32999
230;2027.12;536.149;1.32999
231;2024.67;544.206;1.32999
232;1995.07;567.888;1.32999
233;1955.4;540.056;1.34
234;1933.12;540.056;1.34
235;1972.79;585.467;1.34
236;1999.95;550.066;1.34
237;2012.16;546.159;1.34
238;2012.16;546.159;1.34
239;1989.88;557.878;1.34
240;1957.84;569.842;1.35
241;1970.35;561.785;1.35
242;2019.49;536.149;1.35
243;2046.65;569.842;1.35
244;2056.72;565.935;1.35
245;2044.21;526.383;1.35
246;2012.16;555.925;1.35
247;1977.68;559.832;1.36
248;1987.44;563.738;1.36
249;2007.28;550.066;1.36
250;2014.6;538.102;1.36
251;2012.16;555.925;1.36
252;1985;567.888;1.36
253;1940.75;540.056;1.36
254;1918.47;552.019;1.36
255;1962.72;587.42;1.37
256;1989.88;555.925;1.37
257;2002.4;548.112;1.37
258;2002.4;550.066;1.37
259;1977.68;559.832;1.37
260;1948.07;559.832;1.37
261;1957.84;579.608;1.37
262;2009.72;530.29;1.37
263;2032;557.878;1.38
264;2046.65;587.42;1.38
265;2034.44;524.43;1.38
266;1997.51;557.878;1.38
267;1967.91;555.925;1.38
268;1970.35;571.795;1.38
269;1995.07;550.066;1.38
270;2002.4;555.925;1.38
271;1997.51;544.206;1.38
272;1970.35;589.618;1.39
273;1930.68;561.785;1.39
274;1908.4;534.196;1.39
275;1948.07;601.337;1.39
276;1977.68;563.738;1.39
277;1989.88;563.738;1.39
278;1989.88;552.019;1.39
279;1970.35;571.795;1.39
280;1938;565.935;1.39999
281;1948.07;579.608;1.39999
282;1999.95;540.056;1.39999
283;2019.49;567.888;1.39999
284;2032;589.618;1.39999
285;2024.67;526.383;1.39999
286;1989.88;561.785;1.39999
287;1952.96;563.738;1.39999
288;1962.72;573.748;1.41
289;1987.44;559.832;1.41
290;1997.51;561.785;1.41
291;1989.88;550.066;1.41
292;1967.91;589.618;1.41
293;1920.91;563.738;1.41
294;1903.52;546.159;1.41
295;1940.75;607.196;1.41
296;1967.91;567.888;1.41
297;1980.12;569.842;1.42
298;1980.12;561.785;1.42
299;1962.72;575.701;1.42
300;1930.68;575.701;1.42
301;1938;585.467;1.42
302;1989.88;548.112;1.42
303;2014.6;573.748;1.42
304;2029.56;591.571;1.42
305;2019.49;536.149;1.42
306;1987.44;569.842;1.42
307;1950.51;573.748;1.43
308;1960.28;581.561;1.43
309;1982.56;563.738;1.43
310;1992.32;563.738;1.43
311;1987.44;561.785;1.43
312;1960.28;595.477;1.43
313;1923.35;567.888;1.43
314;1898.63;553.972;1.43
315;1938;609.149;1.43
316;1962.72;573.748;1.43999
317;1977.68;571.795;1.43999
318;1977.68;567.888;1.43999
319;1960.28;581.561;1.43999
320;1930.68;583.514;1.43999
321;1935.56;589.618;1.43999
322;1985;553.972;1.43999
323;2012.16;587.42;1.43999
324;2024.67;593.524;1.43999
325;2012.16;544.206;1.43999
326;1985;575.701;1.45
327;1948.07;579.608;1.45
328;1955.4;585.467;1.45
329;1977.68;569.842;1.45
330;1985;563.738;1.45
331;1987.44;569.842;1.45
332;1962.72;597.43;1.45
333;1920.91;567.888;1.45
334;1893.75;563.738;1.45
335;1930.68;611.347;1.45
336;1962.72;575.701;1.46
337;1975.23;571.795;1.46
338;1975.23;569.842;1.46
339;1955.4;583.514;1.46
340;1923.35;591.571;1.46
341;1930.68;587.42;1.46
342;1982.56;563.738;1.46
343;2009.72;593.524;1.46
344;2022.23;589.618;1.46
345;2014.6;552.019;1.46
346;1982.56;579.608;1.47
347;1945.63;585.467;1.47
348;1950.51;587.42;1.47
349;1977.68;575.701;1.47
350;1980.12;561.785;1.47
351;1980.12;573.748;1.47
352;1955.4;597.43;1.47
353;1913.59;565.935;1.47
354;1891.31;573.748;1.47
355;1925.79;609.149;1.47
356;1955.4;581.561;1.47
357;1970.35;573.748;1.48
358;1972.79;571.795;1.48
359;1952.96;583.514;1.48
360;1920.91;597.43;1.48
361;1928.24;585.467;1.48
362;1975.23;569.842;1.48
363;1999.95;595.477;1.48
364;2014.6;587.42;1.48
365;2009.72;557.878;1.48
366;1977.68;581.561;1.48
367;1943.19;587.42;1.48
368;1943.19;591.571;1.49
369;1967.91;575.701;1.49
370;1975.23;559.832;1.49
371;1975.23;581.561;1.49
372;1950.51;601.337;1.49
373;1908.4;573.748;1.49
374;1883.68;565.935;1.49
375;1920.91;617.206;1.49
376;1950.51;581.561;1.49
377;1965.16;579.608;1.49
378;1967.91;573.748;1.49
379;1945.63;585.467;1.49
380;1918.47;593.524;1.5
381;1920.91;595.477;1.5
382;1970.35;563.738;1.5
383;1997.51;593.524;1.5
384;2009.72;597.43;1.5
385;2007.28;552.019;1.5
386;1972.79;585.467;1.5
387;1935.56;589.618;1.5
388;1938;591.571;1.5
389;1962.72;577.654;1.5
390;1970.35;569.842;1.5
391;1970.35;575.701;1.50999
392;1945.63;599.384;1.50999
393;1891.31;571.795;1.50999
394;1888.87;569.842;1.50999
395;1930.68;617.206;1.50999
396;1952.96;583.514;1.50999
397;1965.16;577.654;1.50999
398;1962.72;577.654;1.50999
399;1938;587.42;1.50999
400;1910.84;597.43;1.50999
401;1940.75;589.618;1.50999
402;1985;569.842;1.50999
403;2004.84;597.43;1.52
404;2014.6;591.571;1.52
405;1997.51;557.878;1.52
406;1962.72;581.561;1.52
407;1933.12;589.618;1.52
408;1952.96;589.618;1.52
409;1967.91;575.701;1.52
410;1977.68;567.888;1.52
411;1970.35;581.561;1.52
412;1938;595.477;1.52
413;1896.19;565.935;1.52
414;1891.31;575.701;1.53
415;1935.56;611.347;1.53
416;1957.84;583.514;1.53
417;1967.91;577.654;1.53
418;1965.16;575.701;1.53
419;1943.19;587.42;1.53
420;1913.59;603.29;1.53
421;1938;589.618;1.53
422;1985;571.795;1.53
423;2004.84;603.29;1.53
424;2017.04;589.618;1.53
425;2002.4;563.738;1.53
426;1962.72;581.561;1.53
427;1935.56;591.571;1.54
428;1950.51;591.571;1.54
429;1972.79;573.748;1.54
430;1975.23;581.561;1.54
431;1970.35;565.935;1.54
432;1938;613.3;1.54
433;1898.63;583.514;1.54
434;1893.75;555.925;1.54
435;1935.56;625.019;1.54
436;1957.84;583.514;1.54
437;1970.35;585.467;1.54
438;1962.72;571.795;1.54
439;1940.75;591.571;1.55
440;1913.59;585.467;1.55
441;1935.56;603.29;1.55
442;1982.56;557.878;1.55
443;2002.4;583.514;1.55
444;2014.6;609.149;1.55
445;1999.95;546.159;1.55
446;1965.16;579.608;1.55
447;1933.12;581.561;1.55
448;1952.96;591.571;1.55
449;1972.79;573.748;1.55
450;1977.68;579.608;1.55
451;1975.23;567.888;1.56
452;1940.75;609.149;1.56
453;1903.52;583.514;1.56
454;1888.87;561.785;1.56
455;1933.12;625.019;1.56
456;1957.84;585.467;1.56
457;1965.16;583.514;1.56
458;1965.16;573.748;1.56
459;1940.75;591.571;1.56
460;1913.59;589.618;1.56
461;1938;601.337;1.56
462;1982.56;557.878;1.56
463;2004.84;589.618;1.56
464;2012.16;603.29;1.57
465;1999.95;546.159;1.57
466;1962.72;581.561;1.57
467;1933.12;583.514;1.57
468;1952.96;591.571;1.57
469;1970.35;575.701;1.57
470;1977.68;573.748;1.57
471;1970.35;569.842;1.57
472;1940.75;603.29;1.57
473;1901.07;577.654;1.57
474;1891.31;565.935;1.57
475;1935.56;621.113;1.57
476;1955.4;585.467;1.57
477;1967.91;579.608;1.57999
478;1965.16;575.701;1.57999
479;1943.19;589.618;1.57999
480;1918.47;591.571;1.57999
481;1935.56;599.384;1.57999
482;1982.56;563.738;1.57999
483;2004.84;591.571;1.57999
484;2014.6;601.337;1.57999
485;1999.95;552.019;1.57999
486;1965.16;583.514;1.57999
487;1933.12;585.467;1.57999
488;1950.51;591.571;1.57999
489;1975.23;577.654;1.57999
490;1977.68;571.795;1.57999
491;1977.68;573.748;1.59
492;1948.07;603.29;1.59
493;1903.52;573.748;1.59
494;1896.19;569.842;1.59
495;1938;617.206;1.59
496;1960.28;581.561;1.59
497;1972.79;577.654;1.59
498;1972.79;575.701;1.59
499;1948.07;591.571;1.59
500;1920.91;595.477;1.59
501;1940.75;593.524;1.59
502;1987.44;567.888;1.59
503;2007.28;599.384;1.59
504;2014.6;597.43;1.6
505;2004.84;553.972;1.6
506;1970.35;581.561;1.6
507;1938;589.618;1.6
508;1955.4;591.571;1.6
509;1977.68;577.654;1.6
510;1982.56;565.935;1.6
511;1980.12;579.608;1.6
512;1952.96;601.337;1.6
513;1908.4;571.795;1.6
514;1896.19;573.748;1.6
515;1933.12;613.3;1.6
516;1960.28;583.514;1.6
517;1972.79;575.701;1.61
518;1972.79;577.654;1.61
519;1950.51;587.42;1.61
520;1920.91;599.384;1.61
521;1940.75;589.618;1.61
522;1987.44;569.842;1.61
523;2007.28;601.337;1.61
524;2019.49;591.571;1.61
525;2004.84;559.832;1.61
526;1972.79;583.514;1.61
527;1943.19;589.618;1.61
528;1957.84;593.524;1.61
529;1977.68;579.608;1.61
530;1985;563.738;1.61
531;1980.12;583.514;1.62
532;1950.51;599.384;1.62
533;1905.96;563.738;1.62
534;1893.75;581.561;1.62
535;1938;609.149;1.62
536;1962.72;585.467;1.62
537;1975.23;577.654;1.62
538;1975.23;579.608;1.62
539;1952.96;589.618;1.62
540;1923.35;585.467;1.62
541;1940.75;605.243;1.62
542;1989.88;557.878;1.62
543;2012.16;583.514;1.62
544;2022.23;613.3;1.62
545;2012.16;548.112;1.63
546;1975.23;581.561;1.63
547;1943.19;583.514;1.63
548;1955.4;595.477;1.63
549;1980.12;575.701;1.63
550;1982.56;579.608;1.63
551;1980.12;569.842;1.63
552;1952.96;611.347;1.63
553;1908.4;585.467;1.63
554;1898.63;557.878;1.63
555;1935.56;625.019;1.63
556;1960.28;585.467;1.63
557;1975.23;583.514;1.63
558;1977.68;577.654;1.63
559;1950.51;593.524;1.64
560;1923.35;587.42;1.64
561;1940.75;603.29;1.64
562;1985;557.878;1.64
563;2009.72;585.467;1.64
564;2022.23;609.149;1.64
565;2009.72;544.206;1.64
566;1975.23;583.514;1.64
567;1943.19;583.514;1.64
568;1955.4;591.571;1.64
569;1980.12;575.701;1.64
570;1985;575.701;1.64
571;1982.56;569.842;1.64
572;1952.96;609.149;1.64
573;1913.59;579.608;1.64
574;1901.07;563.738;1.64999
575;1938;621.113;1.64999
576;1962.72;585.467;1.64999
577;1977.68;581.561;1.64999
578;1977.68;575.701;1.64999
579;1957.84;591.571;1.64999
580;1925.79;589.618;1.64999
581;1940.75;599.384;1.64999
582;1989.88;563.738;1.64999
583;2012.16;589.618;1.64999
584;2027.12;603.29;1.64999
585;2017.04;548.112;1.64999
586;1982.56;583.514;1.64999
587;1948.07;587.42;1.64999
588;1960.28;595.477;1.66
589;1982.56;575.701;1.66
590;1989.88;571.795;1.66
591;1989.88;573.748;1.66
592;1960.28;603.29;1.66
593;1918.47;575.701;1.66
594;1901.07;567.888;1.66
595;1940.75;621.113;1.66
596;1970.35;581.561;1.66
597;1977.68;577.654;1.66
598;1980.12;577.654;1.66
599;1960.28;589.618;1.66
600;1930.68;595.477;1.66
601;1943.19;593.524;1.66
602;1992.32;565.935;1.66
603;2017.04;595.477;1.67
604;2029.56;599.384;1.67
605;2019.49;552.019;1.67
606;1985;581.561;1.67
607;1950.51;587.42;1.67
608;1962.72;593.524;1.67
609;1985;577.654;1.67
610;1989.88;569.842;1.67
611;1989.88;579.608;1.67
612;1962.72;597.43;1.67
613;1920.91;569.842;1.67
614;1901.07;571.795;1.67
615;1945.63;615.253;1.67
616;1970.35;583.514;1.67
617;1985;573.748;1.67
618;1982.56;575.701;1.68
619;1962.72;589.618;1.68
620;1930.68;599.384;1.68
621;1945.63;591.571;1.68
622;1995.07;567.888;1.68
623;2019.49;599.384;1.68
624;2027.12;589.618;1.68
625;2022.23;555.925;1.68
626;1989.88;579.608;1.68
627;1955.4;591.571;1.68
628;1962.72;591.571;1.68
629;1987.44;577.654;1.68
630;1997.51;561.785;1.68
631;1989.88;581.561;1.68
632;1965.16;595.477;1.68
633;1923.35;565.935;1.68
634;1903.52;575.701;1.68999
635;1940.75;609.149;1.68999
636;1970.35;581.561;1.68999
637;1980.12;571.795;1.68999
638;1980.12;573.748;1.68999
639;1960.28;587.42;1.68999
640;1933.12;601.337;1.68999
641;1940.75;585.467;1.68999
642;1989.88;567.888;1.68999
643;2012.16;603.29;1.68999
644;2027.12;585.467;1.68999
645;2019.49;559.832;1.68999
646;1985;579.608;1.68999
647;1950.51;587.42;1.68999
648;1960.28;591.571;1.68999
649;1982.56;577.654;1.7
650;1989.88;559.832;1.7
651;1989.88;573.748;1.7
652;1962.72;601.337;1.7
653;1920.91;571.795;1.7
654;1901.07;567.888;1.7
655;1940.75;615.253;1.7
656;1967.91;579.608;1.7
657;1980.12;575.701;1.7
658;1980.12;573.748;1.7
659;1962.72;587.42;1.7
660;1933.12;591.571;1.7
661;1940.75;591.571;1.7
662;1989.88;561.785;1.7
663;2014.6;593.524;1.7
664;2024.67;593.524;1.7
665;2019.49;553.972;1.71
666;1985;579.608;1.71
667;1950.51;587.42;1.71
668;1957.84;589.618;1.71
669;1980.12;573.748;1.71
670;1989.88;565.935;1.71
671;1987.44;579.608;1.71
672;1965.16;595.477;1.71
673;1920.91;563.738;1.71
674;1898.63;569.842;1.71
675;1935.56;611.347;1.71
676;1967.91;579.608;1.71
677;1977.68;573.748;1.71
678;1980.12;573.748;1.71
679;1960.28;585.467;1.71
680;1930.68;597.43;1.71
681;1938;587.42;1.72
682;1985;565.935;1.72
683;2012.16;597.43;1.72
684;2024.67;585.467;1.72
685;2014.6;557.878;1.72
686;1982.56;577.654;1.72
687;1948.07;587.42;1.72
688;1950.51;589.618;1.72
689;1977.68;575.701;1.72
690;1987.44;559.832;1.72
691;1982.56;579.608;1.72
692;1960.28;591.571;1.72
693;1918.47;561.785;1.72
694;1896.19;575.701;1.72
695;1930.68;605.243;1.72
696;1962.72;579.608;1.72
697;1972.79;573.748;1.73
698;1975.23;573.748;1.73
699;1955.4;583.514;1.73
700;1925.79;599.384;1.73
701;1928.24;581.561;1.73
702;1980.12;569.842;1.73
703;2007.28;601.337;1.73
704;2019.49;581.561;1.73
705;2012.16;559.832;1.73
706;1980.12;577.654;1.73
707;1943.19;575.701;1.73
708;1948.07;591.571;1.73
709;1977.68;571.795;1.73
710;1985;575.701;1.73
711;1975.23;561.785;1.73
712;1945.63;605.243;1.73
713;1901.07;577.654;1.74
714;1903.52;553.972;1.74
715;1945.63;619.16;1.74
716;1965.16;581.561;1.74
717;1975.23;579.608;1.74
718;1972.79;569.842;1.74
719;1943.19;587.42;1.74
720;1920.91;583.514;1.74
721;1950.51;597.43;1.74
722;1995.07;555.925;1.74
723;2014.6;583.514;1.74
724;2022.23;601.337;1.74
725;2002.4;542.009;1.74
726;1967.91;577.654;1.74
727;1945.63;577.654;1.74
728;1962.72;589.618;1.75
729;1980.12;571.795;1.75
730;1985;571.795;1.75
731;1977.68;563.738;1.75
732;1945.63;605.243;1.75
733;1908.4;575.701;1.75
734;1901.07;555.925;1.75
735;1943.19;619.16;1.75
736;1962.72;579.608;1.75
737;1975.23;577.654;1.75
738;1970.35;569.842;1.75
739;1945.63;585.467;1.75
740;1916.03;587.42;1.75
741;1950.51;593.524;1.75
742;1995.07;553.972;1.75
743;2012.16;583.514;1.75999
744;2022.23;597.43;1.75999
745;2004.84;548.112;1.75999
746;1967.91;579.608;1.75999
747;1943.19;579.608;1.75999
748;1962.72;589.618;1.75999
749;1977.68;571.795;1.75999
750;1982.56;567.888;1.75999
751;1977.68;567.888;1.75999
752;1943.19;599.384;1.75999
753;1903.52;569.842;1.75999
754;1901.07;561.785;1.75999
755;1945.63;613.3;1.75999
756;1965.16;579.608;1.75999
757;1975.23;573.748;1.75999
758;1972.79;571.795;1.75999
759;1948.07;583.514;1.77
760;1918.47;589.618;1.77
761;1945.63;591.571;1.77
762;1992.32;559.832;1.77
763;2012.16;587.42;1.77
764;2019.49;593.524;1.77
765;2004.84;548.112;1.77
766;1970.35;573.748;1.77
767;1940.75;579.608;1.77
768;1962.72;587.42;1.77
769;1977.68;573.748;1.77
770;1985;561.785;1.77
771;1977.68;571.795;1.77
772;1948.07;597.43;1.77
773;1905.96;565.935;1.77
774;1901.07;565.935;1.77
775;1945.63;611.347;1.78
776;1965.16;577.654;1.78
777;1975.23;571.795;1.78
778;1972.79;571.795;1.78
779;1948.07;583.514;1.78
780;1923.35;591.571;1.78
781;1948.07;587.42;1.78
782;1992.32;561.785;1.78
783;2014.6;593.524;1.78
784;2022.23;587.42;1.78
785;2004.84;552.019;1.78
786;1970.35;577.654;1.78
787;1943.19;585.467;1.78
788;1960.28;587.42;1.78
789;1980.12;573.748;1.78
790;1982.56;559.832;1.78
791;1975.23;575.701;1.79
792;1948.07;593.524;1.79
793;1905.96;561.785;1.79
794;1898.63;573.748;1.79
795;1940.75;605.243;1.79
796;1965.16;577.654;1.79
797;1972.79;571.795;1.79
798;1970.35;571.795;1.79
799;1948.07;579.608;1.79
800;1918.47;597.43;1.79
801;1940.75;583.514;1.79
802;1989.88;565.935;1.79
803;2009.72;597.43;1.79
804;2017.04;583.514;1.79
805;1999.95;555.925;1.79
806;1967.91;577.654;1.8
807;1940.75;587.42;1.8
808;1957.84;587.42;1.8
809;1977.68;575.701;1.8
810;1985;553.972;1.8
811;1977.68;579.608;1.8
812;1945.63;589.618;1.8
813;1905.96;557.878;1.8
814;1898.63;575.701;1.8
815;1938;599.384;1.8
816;1962.72;579.608;1.8
817;1970.35;569.842;1.8
818;1970.35;573.748;1.8
819;1948.07;587.42;1.8
820;1918.47;579.608;1.8
821;1940.75;595.477;1.81
822;1989.88;552.019;1.81
823;2012.16;577.654;1.81
824;2022.23;605.243;1.81
825;2007.28;540.056;1.81
826;1972.79;577.654;1.81
827;1943.19;575.701;1.81
828;1960.28;587.42;1.81
829;1977.68;571.795;1.81
830;1982.56;571.795;1.81
831;1980.12;561.785;1.81
832;1948.07;601.337;1.81
833;1908.4;575.701;1.81
834;1901.07;555.925;1.81
835;1940.75;617.206;1.81
836;1962.72;577.654;1.81
837;1977.68;577.654;1.82
838;1970.35;569.842;1.82
839;1950.51;585.467;1.82
840;1920.91;579.608;1.82
841;1943.19;595.477;1.82
842;1987.44;552.019;1.82
843;2012.16;577.654;1.82
844;2019.49;599.384;1.82
845;2007.28;544.206;1.82
846;1972.79;577.654;1.82
847;1943.19;577.654;1.82
848;1960.28;587.42;1.82
849;1980.12;571.795;1.82
850;1985;567.888;1.82
851;1977.68;561.785;1.82
852;1948.07;599.384;1.82
853;1908.4;571.795;1.82999
854;1896.19;559.832;1.82999
855;1940.75;615.253;1.82999
856;1965.16;577.654;1.82999
857;1975.23;573.748;1.82999
858;1975.23;571.795;1.82999
859;1950.51;583.514;1.82999
860;1923.35;587.42;1.82999
861;1943.19;591.571;1.82999
862;1987.44;557.878;1.82999
863;2009.72;583.514;1.82999
864;2022.23;595.477;1.82999
865;2007.28;546.159;1.82999
866;1975.23;575.701;1.82999
867;1943.19;581.561;1.82999
868;1957.84;585.467;1.84
869;1980.12;571.795;1.84
870;1985;563.738;1.84
871;1975.23;567.888;1.84
872;1940.75;595.477;1.84
873;1901.07;563.738;1.84
874;1903.52;563.738;1.84
875;1945.63;609.149;1.84
876;1965.16;575.701;1.84
877;1975.23;569.842;1.84
878;1970.35;569.842;1.84
879;1943.19;579.608;1.84
880;1918.47;589.618;1.84
881;1952.96;589.618;1.84
882;1995.07;557.878;1.84
883;2014.6;589.618;1.84
884;2024.67;589.618;1.85
885;2004.84;548.112;1.85
886;1970.35;575.701;1.85
887;1945.63;581.561;1.85
888;1965.16;583.514;1.85
889;1980.12;571.795;1.85
890;1985;559.832;1.85
891;1972.79;571.795;1.85
892;1943.19;593.524;1.85
893;1903.52;559.832;1.85
894;1903.52;565.935;1.85
895;1948.07;605.243;1.85
896;1965.16;575.701;1.85
897;1975.23;569.842;1.85
898;1970.35;571.795;1.85
899;1948.07;579.608;1.85
900;1920.91;593.524;1.86
901;1950.51;583.514;1.86
902;1997.51;563.738;1.86
903;2014.6;591.571;1.86
904;2024.67;583.514;1.86
905;2007.28;552.019;1.86
906;1972.79;573.748;1.86
907;1943.19;583.514;1.86
908;1965.16;583.514;1.86
909;1980.12;571.795;1.86
910;1985;555.925;1.86
911;1977.68;575.701;1.86
912;1943.19;591.571;1.86
913;1903.52;555.925;1.86
914;1905.96;573.748;1.86
915;1945.63;599.384;1.87
916;1967.91;577.654;1.87
917;1977.68;567.888;1.87
918;1970.35;569.842;1.87
919;1948.07;577.654;1.87
920;1920.91;595.477;1.87
921;1948.07;579.608;1.87
922;1995.07;563.738;1.87
923;2012.16;597.43;1.87
924;2019.49;577.654;1.87
925;2002.4;553.972;1.87
926;1967.91;575.701;1.87
927;1943.19;583.514;1.87
928;1960.28;583.514;1.87
929;1975.23;571.795;1.87
930;1980.12;553.972;1.87
931;1975.23;579.608;1.88
932;1943.19;587.42;1.88
933;1901.07;565.935;1.88
934;1896.19;563.738;1.88
935;1940.75;607.196;1.88
936;1962.72;575.701;1.88
937;1970.35;569.842;1.88
938;1965.16;569.842;1.88
939;1943.19;579.608;1.88
940;1918.47;589.618;1.88
941;1948.07;585.467;1.88
942;1989.88;559.832;1.88
943;2009.72;587.42;1.88
944;2019.49;585.467;1.88
945;2004.84;550.066;1.88
946;1970.35;577.654;1.88
947;1943.19;583.514;1.89
948;1962.72;583.514;1.89
949;1982.56;573.748;1.89
950;1985;559.832;1.89
951;1980.12;569.842;1.89
952;1948.07;591.571;1.89
953;1905.96;561.785;1.89
954;1901.07;567.888;1.89
955;1945.63;603.29;1.89
956;1967.91;575.701;1.89
957;1975.23;569.842;1.89
958;1977.68;569.842;1.89
959;1952.96;579.608;1.89
960;1925.79;591.571;1.89
961;1950.51;581.561;1.89
962;1995.07;563.738;1.89
963;2014.6;595.477;1.89999
964;2024.67;581.561;1.89999
965;2009.72;555.925;1.89999
966;1972.79;573.748;1.89999
967;1943.19;585.467;1.89999
968;1962.72;583.514;1.89999
969;1980.12;571.795;1.89999
970;1987.44;553.972;1.89999
971;1980.12;575.701;1.89999
972;1948.07;587.42;1.89999
973;1908.4;555.925;1.89999
974;1901.07;573.748;1.89999
975;1943.19;599.384;1.89999
976;1967.91;575.701;1.89999
977;1975.23;565.935;1.89999
978;1970.35;569.842;1.89999
979;1950.51;579.608;1.91
980;1920.91;597.43;1.91
981;1948.07;577.654;1.91
982;1995.07;565.935;1.91
983;2012.16;599.384;1.91
984;2024.67;575.701;1.91
985;2007.28;555.925;1.91
986;1972.79;573.748;1.91
987;1945.63;583.514;1.91
988;1960.28;581.561;1.91
989;1980.12;567.888;1.91
990;1985;571.795;1.91
991;1982.56;561.785;1.91
992;1950.51;599.384;1.91
993;1908.4;573.748;1.91
994;1903.52;550.066;1.91
995;1945.63;615.253;1.92
996;1967.91;575.701;1.92
997;1977.68;575.701;1.92
998;1975.23;567.888;1.92
999;1952.96;583.514;1.92
1000;1925.79;581.561;1.92
1001;1948.07;593.524;1.92
1002;1995.07;553.972;1.92
1003;2017.04;579.608;1.92
1004;2022.23;597.43;1.92
1005;2012.16;542.009;1.92
1006;1975.23;575.701;1.92
1007;1943.19;573.748;1.92
1008;1962.72;583.514;1.92
1009;1985;567.888;1.92
1010;1987.44;565.935;1.92
1011;1985;561.785;1.92
1012;1952.96;599.384;1.93
1013;1913.59;569.842;1.93
1014;1903.52;553.972;1.93
1015;1945.63;613.3;1.93
1016;1967.91;577.654;1.93
1017;1982.56;573.748;1.93
1018;1977.68;567.888;1.93
1019;1957.84;579.608;1.93
1020;1928.24;583.514;1.93
1021;1948.07;587.42;1.93
1022;1997.51;555.925;1.93
1023;2019.49;583.514;1.93
1024;2027.12;593.524;1.93
1025;2014.6;544.206;1.93
1026;1982.56;573.748;1.93
1027;1952.96;579.608;1.93
1028;1965.16;579.608;1.93
1029;1987.44;569.842;1.93999
1030;1992.32;561.785;1.93999
1031;1989.88;565.935;1.93999
1032;1960.28;595.477;1.93999
1033;1918.47;563.738;1.93999
1034;1905.96;561.785;1.93999
1035;1948.07;609.149;1.93999
1036;1972.79;575.701;1.93999
1037;1985;571.795;1.93999
1038;1985;567.888;1.93999
1039;1962.72;577.654;1.93999
1040;1933.12;589.618;1.93999
1041;1952.96;585.467;1.93999
1042;1999.95;557.878;1.93999
1043;2022.23;587.42;1.93999
1044;2027.12;587.42;1.93999
1045;2019.49;546.159;1.93999
1046;1985;573.748;1.95
1047;1952.96;581.561;1.95
1048;1967.91;583.514;1.95
1049;1987.44;569.842;1.95
1050;1992.32;559.832;1.95
1051;1992.32;569.842;1.95
1052;1960.28;591.571;1.95
1053;1918.47;559.832;1.95
1054;1905.96;565.935;1.95
1055;1948.07;605.243;1.95
1056;1972.79;573.748;1.95
1057;1985;567.888;1.95
1058;1985;567.888;1.95
1059;1962.72;579.608;1.95
1060;1930.68;591.571;1.95
1061;1948.07;583.514;1.95
1062;1997.51;561.785;1.95
1063;2019.49;591.571;1.96
1064;2029.56;583.514;1.96
1065;2017.04;552.019;1.96
1066;1982.56;573.748;1.96
1067;1950.51;579.608;1.96
1068;1965.16;581.561;1.96
1069;1985;569.842;1.96
1070;1989.88;555.925;1.96
1071;1985;573.748;1.96
1072;1957.84;587.42;1.96
1073;1918.47;553.972;1.96
1074;1901.07;571.795;1.96
1075;1945.63;599.384;1.96
1076;1970.35;573.748;1.96
1077;1982.56;565.935;1.96
1078;1982.56;569.842;1.96
1079;1960.28;579.608;1.97
1080;1928.24;593.524;1.97
1081;1948.07;577.654;1.97
1082;1999.95;565.935;1.97
1083;2022.23;597.43;1.97
1084;2032;575.701;1.97
1085;2022.23;553.972;1.97
1086;1989.88;573.748;1.97
1087;1957.84;583.514;1.97
1088;1967.91;583.514;1.97
1089;1992.32;569.842;1.97
1090;1997.51;552.019;1.97
1091;1995.07;579.608;1.97
1092;1967.91;585.467;1.97
1093;1925.79;552.019;1.97
1094;1908.4;575.701;1.97
1095;1950.51;597.43;1.98
1096;1972.79;577.654;1.98
1097;1989.88;567.888;1.98
1098;1987.44;573.748;1.98
1099;1965.16;579.608;1.98
1100;1935.56;601.337;1.98
1101;1952.96;573.748;1.98
1102;2002.4;552.019;1.98
1103;2024.67;575.701;1.98
1104;2039.32;599.384;1.98
1105;2027.12;538.102;1.98
1106;1995.07;575.701;1.98
1107;1960.28;573.748;1.98
1108;1972.79;581.561;1.98
1109;1995.07;567.888;1.98
1110;2002.4;569.842;1.98
1111;1997.51;561.785;1.99
1112;1970.35;595.477;1.99
1113;1928.24;571.795;1.99
1114;1910.84;553.972;1.99
1115;1952.96;615.253;1.99
1116;1980.12;573.748;1.99
1117;1992.32;573.748;1.99
1118;1995.07;565.935;1.99
1119;1972.79;583.514;1.99
1120;1940.75;583.514;1.99
1121;1955.4;589.618;1.99
1122;2004.84;552.019;1.99
1123;2027.12;581.561;1.99
1124;2039.32;593.524;1.99
1125;2029.56;542.009;1.99
1126;1997.51;573.748;1.99
1127;1962.72;575.701;2
1128;1972.79;583.514;2
1129;1997.51;567.888;2
1130;1999.95;563.738;2
1131;1997.51;561.785;2
1132;1970.35;593.524;2
1133;1925.79;563.738;2
1134;1908.4;557.878;2
1135;1948.07;609.149;2
1136;1977.68;573.748;2
1137;1989.88;571.795;2
1138;1989.88;567.888;2
1139;1970.35;579.608;2
1140;1938;583.514;2
1141;1950.51;585.467;2
1142;1999.95;557.878;2
1143;2027.12;585.467;2.00999
1144;2036.88;587.42;2.00999
1145;2027.12;546.159;2.00999
1146;1995.07;573.748;2.00999
1147;1962.72;579.608;2.00999
1148;1970.35;581.561;2.00999
1149;1997.51;567.888;2.00999
1150;2002.4;559.832;2.00999
1151;2002.4;567.888;2.00999
1152;1975.23;591.571;2.00999
1153;1933.12;561.785;2.00999
1154;1913.59;561.785;2.00999
1155;1957.84;607.196;2.00999
1156;1987.44;573.748;2.00999
1157;1997.51;567.888;2.00999
1158;1997.51;565.935;2.00999
1159;1980.12;579.608;2.02
1160;1948.07;589.618;2.02
1161;1957.84;583.514;2.02
1162;2012.16;559.832;2.02
1163;2034.44;591.571;2.02
1164;2046.65;583.514;2.02
1165;2039.32;548.112;2.02
1166;2002.4;575.701;2.02
1167;1967.91;581.561;2.02
1168;1977.68;579.608;2.02
1169;1999.95;567.888;2.02
1170;2007.28;553.972;2.02
1171;2007.28;571.795;2.02
1172;1980.12;589.618;2.02
1173;1938;555.925;2.02
1174;1916.03;567.888;2.03
1175;1957.84;603.29;2.03
1176;1985;571.795;2.03
1177;1997.51;565.935;2.03
1178;1997.51;567.888;2.03
1179;1977.68;577.654;2.03
1180;1950.51;591.571;2.03
1181;1957.84;579.608;2.03
1182;2007.28;561.785;2.03
1183;2034.44;595.477;2.03
1184;2044.21;577.654;2.03
1185;2024.67;552.019;2.03
1186;1987.44;573.748;2.03
1187;1967.91;583.514;2.03
1188;1989.88;583.514;2.03
1189;2007.28;569.842;2.04
1190;2007.28;552.019;2.04
1191;1999.95;577.654;2.04
1192;1965.16;585.467;2.04
1193;1920.91;552.019;2.04
1194;1930.68;573.748;2.04
1195;1972.79;599.384;2.04
1196;1992.32;573.748;2.04
1197;2002.4;565.935;2.04
1198;1995.07;573.748;2.04
1199;1967.91;579.608;2.04
1200;1943.19;595.477;2.04
1201;1977.68;577.654;2.04
1202;2022.23;563.738;2.04
1203;2039.32;601.337;2.04
1204;2049.39;571.795;2.05
1205;2027.12;557.878;2.05
1206;1989.88;571.795;2.05
1207;1967.91;581.561;2.05
1208;1989.88;577.654;2.05
1209;2007.28;569.842;2.05
1210;2009.72;552.019;2.05
1211;1999.95;579.608;2.05
1212;1967.91;583.514;2.05
1213;1925.79;548.112;2.05
1214;1925.79;563.738;2.05
1215;1972.79;603.29;2.05
1216;1995.07;573.748;2.05
1217;2004.84;567.888;2.05
1218;1997.51;567.888;2.05
1219;1972.79;579.608;2.06
1220;1948.07;591.571;2.06
1221;1980.12;581.561;2.06
1222;2024.67;559.832;2.06
1223;2044.21;591.571;2.06
1224;2049.39;581.561;2.06
1225;2029.56;550.066;2.06
1226;1992.32;575.701;2.06
1227;1970.35;581.561;2.06
1228;1997.51;585.467;2.06
1229;2009.72;571.795;2.06
1230;2014.6;553.972;2.06
1231;2007.28;573.748;2.06
1232;1975.23;585.467;2.06
1233;1930.68;553.972;2.06
1234;1930.68;569.842;2.07
1235;1975.23;603.29;2.07
1236;1997.51;575.701;2.07
1237;2007.28;565.935;2.07
1238;2004.84;567.888;2.07
1239;1977.68;577.654;2.07
1240;1952.96;593.524;2.07
1241;1985;577.654;2.07
1242;2029.56;561.785;2.07
1243;2049.39;597.43;2.07
1244;2054.28;575.701;2.07
1245;2036.88;553.972;2.07
1246;1999.95;573.748;2.07
1247;1975.23;581.561;2.07
1248;1997.51;583.514;2.07
1249;2014.6;569.842;2.07999
1250;2019.49;553.972;2.07999
1251;2012.16;579.608;2.07999
1252;1980.12;585.467;2.07999
1253;1933.12;552.019;2.07999
1254;1935.56;575.701;2.07999
1255;1977.68;595.477;2.07999
1256;1999.95;575.701;2.07999
1257;2009.72;565.935;2.07999
1258;2004.84;573.748;2.07999
1259;1980.12;577.654;2.07999
1260;1952.96;597.43;2.07999
1261;1985;571.795;2.07999
1262;2029.56;565.935;2.07999
1263;2049.39;599.384;2.07999
1264;2054.28;569.842;2.09
1265;2039.32;557.878;2.09
1266;1999.95;571.795;2.09
1267;1975.23;583.514;2.09
1268;1997.51;575.701;2.09
1269;2014.6;567.888;2.09
1270;2019.49;565.935;2.09
1271;2009.72;559.832;2.09
1272;1980.12;597.43;2.09
1273;1933.12;567.888;2.09
1274;1935.56;553.972;2.09
1275;1980.12;611.347;2.09
1276;2002.4;575.701;2.09
1277;2014.6;571.795;2.09
1278;2007.28;565.935;2.09
1279;1982.56;579.608;2.1
1280;1957.84;583.514;2.1
1281;1985;587.42;2.1
1282;2032;550.066;2.1
1283;2054.28;581.561;2.1
1284;2061.6;591.571;2.1
1285;2046.65;540.056;2.1
1286;2007.28;573.748;2.1
1287;1980.12;577.654;2.1
1288;1999.95;583.514;2.1
1289;2019.49;565.935;2.1
1290;2022.23;563.738;2.1
1291;2017.04;565.935;2.1
1292;1982.56;593.524;2.1
1293;1943.19;563.738;2.1
1294;1938;557.878;2.11
1295;1982.56;609.149;2.11
1296;2004.84;571.795;2.11
1297;2014.6;567.888;2.11
1298;2009.72;565.935;2.11
1299;1985;579.608;2.11
1300;1957.84;585.467;2.11
1301;1987.44;585.467;2.11
1302;2029.56;555.925;2.11
1303;2051.84;585.467;2.11
1304;2061.6;589.618;2.11
1305;2041.76;542.009;2.11
1306;2007.28;573.748;2.11
1307;1980.12;579.608;2.11
1308;1997.51;581.561;2.12
1309;2014.6;567.888;2.12
1310;2022.23;559.832;2.12
1311;2012.16;567.888;2.12
1312;1982.56;591.571;2.12
1313;1938;559.832;2.12
1314;1933.12;561.785;2.12
1315;1977.68;607.196;2.12
1316;1999.95;575.701;2.12
1317;2012.16;567.888;2.12
1318;2007.28;567.888;2.12
1319;1982.56;577.654;2.12
1320;1955.4;589.618;2.12
1321;1982.56;581.561;2.12
1322;2027.12;559.832;2.12
1323;2049.39;591.571;2.13
1324;2056.72;581.561;2.13
1325;2044.21;548.112;2.13
1326;2007.28;575.701;2.13
1327;1980.12;581.561;2.13
1328;1997.51;581.561;2.13
1329;2019.49;569.842;2.13
1330;2027.12;553.972;2.13
1331;2019.49;573.748;2.13
1332;1985;589.618;2.13
1333;1940.75;555.925;2.13
1334;1935.56;565.935;2.13
1335;1980.12;605.243;2.13
1336;2002.4;573.748;2.13
1337;2014.6;563.738;2.13
1338;2012.16;565.935;2.14
1339;1987.44;577.654;2.14
1340;1957.84;595.477;2.14
1341;1985;581.561;2.14
1342;2029.56;561.785;2.14
1343;2056.72;593.524;2.14
1344;2064.04;577.654;2.14
1345;2049.39;552.019;2.14
1346;2014.6;571.795;2.14
1347;1985;581.561;2.14
1348;2002.4;583.514;2.14
1349;2022.23;569.842;2.14
1350;2027.12;552.019;2.14
1351;2022.23;577.654;2.14
1352;1989.88;585.467;2.14
1353;1948.07;550.066;2.14999
1354;1938;573.748;2.14999
1355;1985;597.43;2.14999
1356;2004.84;573.748;2.14999
1357;2014.6;561.785;2.14999
1358;2017.04;569.842;2.14999
1359;1989.88;577.654;2.14999
1360;1962.72;595.477;2.14999
1361;1987.44;573.748;2.14999
1362;2032;565.935;2.14999
1363;2056.72;601.337;2.14999
1364;2066.48;571.795;2.14999
1365;2051.84;555.925;2.14999
1366;2014.6;569.842;2.14999
1367;1985;583.514;2.14999
1368;2004.84;577.654;2.16
1369;2024.67;569.842;2.16
1370;2029.56;550.066;2.16
1371;2027.12;577.654;2.16
1372;1995.07;581.561;2.16
1373;1952.96;546.159;2.16
1374;1945.63;579.608;2.16
1375;1989.88;591.571;2.16
1376;2012.16;575.701;2.16
1377;2024.67;561.785;2.16
1378;2022.23;577.654;2.16
1379;1999.95;577.654;2.16
1380;1967.91;579.608;2.16
1381;1992.32;587.42;2.16
1382;2039.32;552.019;2.16
1383;2064.04;579.608;2.17
1384;2071.37;595.477;2.17
1385;2061.6;538.102;2.17
1386;2024.67;573.748;2.17
1387;1995.07;575.701;2.17
1388;2012.16;581.561;2.17
1389;2034.44;565.935;2.17
1390;2036.88;561.785;2.17
1391;2034.44;561.785;2.17
1392;2002.4;593.524;2.17
1393;1957.84;565.935;2.17
1394;1948.07;555.925;2.17
1395;1995.07;609.149;2.17
1396;2019.49;573.748;2.17
1397;2032;569.842;2.18
1398;2029.56;565.935;2.18
1399;2007.28;579.608;2.18
1400;1977.68;583.514;2.18
1401;1997.51;585.467;2.18
1402;2044.21;555.925;2.18
1403;2068.93;583.514;2.18
1404;2076.56;589.618;2.18
1405;2066.48;542.009;2.18
1406;2029.56;571.795;2.18
1407;1999.95;577.654;2.18
1408;2012.16;581.561;2.18
1409;2036.88;567.888;2.18
1410;2041.76;559.832;2.18
1411;2036.88;567.888;2.18
1412;2007.28;591.571;2.18
1413;1965.16;559.832;2.18999
1414;1952.96;559.832;2.18999
1415;1995.07;607.196;2.18999
1416;2022.23;573.748;2.18999
1417;2032;565.935;2.18999
1418;2032;567.888;2.18999
1419;2009.72;577.654;2.18999
1420;1977.68;585.467;2.18999
1421;1997.51;581.561;2.18999
1422;2049.39;559.832;2.18999
1423;2071.37;587.42;2.18999
1424;2081.44;583.514;2.18999
1425;2066.48;546.159;2.18999
1426;2029.56;573.748;2.18999
1427;1999.95;581.561;2.18999
1428;2014.6;579.608;2.2
1429;2036.88;567.888;2.2
1430;2044.21;555.925;2.2
1431;2039.32;571.795;2.2
1432;2009.72;589.618;2.2
1433;1967.91;555.925;2.2
1434;1952.96;565.935;2.2
1435;1997.51;603.29;2.2
1436;2024.67;573.748;2.2
1437;2036.88;561.785;2.2
1438;2034.44;563.738;2.2
1439;2012.16;577.654;2.2
1440;1982.56;593.524;2.2
1441;2002.4;577.654;2.2
1442;2051.84;557.878;2.2
1443;2073.81;593.524;2.21
1444;2086.32;577.654;2.21
1445;2076.56;552.019;2.21
1446;2039.32;569.842;2.21
1447;2004.84;581.561;2.21
1448;2019.49;581.561;2.21
1449;2041.76;569.842;2.21
1450;2046.65;552.019;2.21
1451;2046.65;573.748;2.21
1452;2017.04;585.467;2.21
1453;1970.35;550.066;2.21
1454;1955.4;569.842;2.21
1455;2002.4;597.43;2.21
1456;2027.12;575.701;2.21
1457;2039.32;563.738;2.22
1458;2036.88;567.888;2.22
1459;2017.04;577.654;2.22
1460;1987.44;593.524;2.22
1461;1999.95;573.748;2.22
1462;2051.84;563.738;2.22
1463;2076.56;597.43;2.22
1464;2086.32;573.748;2.22
1465;2076.56;553.972;2.22
1466;2044.21;571.795;2.22
1467;2009.72;581.561;2.22
1468;2019.49;577.654;2.22
1469;2044.21;567.888;2.22
1470;2051.84;550.066;2.23
1471;2046.65;579.608;2.23
1472;2019.49;585.467;2.23
1473;1972.79;546.159;2.23
1474;1960.28;577.654;2.23
1475;2004.84;595.477;2.23
1476;2032;575.701;2.23
1477;2044.21;563.738;2.23
1478;2044.21;575.701;2.23
1479;2022.23;575.701;2.23
1480;1992.32;599.384;2.23
1481;2004.84;569.842;2.23
1482;2056.72;565.935;2.23
1483;2081.44;603.29;2.23
1484;2093.65;567.888;2.24
1485;2081.44;557.878;2.24
1486;2049.39;567.888;2.24
1487;2014.6;583.514;2.24
1488;2024.67;571.795;2.24
1489;2051.84;569.842;2.24
1490;2054.28;548.112;2.24
1491;2054.28;583.514;2.24
1492;2024.67;587.42;2.24
1493;1980.12;553.972;2.24
1494;1965.16;567.888;2.24
1495;2007.28;601.337;2.24
1496;2034.44;573.748;2.24
1497;2046.65;563.738;2.25
1498;2046.65;565.935;2.25
1499;2027.12;577.654;2.25
1500;1989.88;591.571;2.25
1501;2032;575.701;2.25
1502;2073.81;559.832;2.25
1503;2091.2;593.524;2.25
1504;2098.53;573.748;2.25
1505;2073.81;550.066;2.25
1506;2036.88;569.842;2.25
1507;2017.04;579.608;2.25
1508;2041.76;579.608;2.25
1509;2061.6;569.842;2.25
1510;2061.6;550.066;2.25
1511;2051.84;575.701;2.25999
1512;2017.04;583.514;2.25999
1513;1972.79;550.066;2.25999
1514;1982.56;571.795;2.25999
1515;2027.12;593.524;2.25999
1516;2049.39;575.701;2.25999
1517;2059.16;561.785;2.25999
1518;2049.39;569.842;2.25999
1519;2019.49;577.654;2.25999
1520;1997.51;595.477;2.25999
1521;2034.44;571.795;2.25999
1522;2081.44;561.785;2.25999
1523;2098.53;597.43;2.25999
1524;2103.72;571.795;2.27
1525;2083.88;553.972;2.27
1526;2044.21;569.842;2.27
1527;2027.12;581.561;2.27
1528;2049.39;575.701;2.27
1529;2066.48;567.888;2.27
1530;2068.93;548.112;2.27
1531;2061.6;579.608;2.27
1532;2024.67;583.514;2.27
1533;1980.12;546.159;2.27
1534;1987.44;575.701;2.27
1535;2036.88;591.571;2.27
1536;2056.72;575.701;2.27
1537;2066.48;561.785;2.28
1538;2061.6;575.701;2.28
1539;2032;575.701;2.28
1540;2004.84;595.477;2.28
1541;2041.76;567.888;2.28
1542;2088.76;565.935;2.28
1543;2106.16;599.384;2.28
1544;2111.04;563.738;2.28
1545;2091.2;559.832;2.28
1546;2051.84;565.935;2.28
1547;2032;581.561;2.28
1548;2059.16;579.608;2.28
1549;2073.81;563.738;2.29
1550;2079;559.832;2.29
1551;2068.93;559.832;2.29
1552;2034.44;597.43;2.29
1553;1987.44;563.738;2.29
1554;1997.51;553.972;2.29
1555;2044.21;607.196;2.29
1556;2064.04;573.748;2.29
1557;2076.56;565.935;2.29
1558;2066.48;565.935;2.29
1559;2039.32;577.654;2.29
1560;2014.6;583.514;2.29
1561;2049.39;585.467;2.29
1562;2093.65;553.972;2.3
1563;2113.48;581.561;2.3
1564;2118.37;589.618;2.3
1565;2098.53;540.056;2.3
1566;2061.6;571.795;2.3
1567;2036.88;577.654;2.3
1568;2064.04;579.608;2.3
1569;2079;565.935;2.3
1570;2083.88;555.925;2.3
1571;2073.81;563.738;2.3
1572;2041.76;591.571;2.3
1573;1995.07;557.878;2.3
1574;1999.95;557.878;2.31
1575;2049.39;605.243;2.31
1576;2071.37;571.795;2.31
1577;2081.44;565.935;2.31
1578;2073.81;565.935;2.31
1579;2046.65;577.654;2.31
1580;2019.49;587.42;2.31
1581;2054.28;581.561;2.31
1582;2100.97;555.925;2.31
1583;2120.81;585.467;2.31
1584;2128.13;581.561;2.31
1585;2106.16;544.206;2.31
1586;2068.93;567.888;2.31
1587;2046.65;579.608;2.32
1588;2066.48;581.561;2.32
1589;2088.76;567.888;2.32
1590;2093.65;552.019;2.32
1591;2083.88;567.888;2.32
1592;2046.65;589.618;2.32
1593;2007.28;555.925;2.32
1594;2007.28;561.785;2.32
1595;2051.84;603.29;2.32
1596;2076.56;571.795;2.32
1597;2083.88;561.785;2.32
1598;2079;565.935;2.32
1599;2049.39;577.654;2.32
1600;2024.67;589.618;2.32999
1601;2061.6;575.701;2.32999
1602;2103.72;559.832;2.32999
1603;2125.69;591.571;2.32999
1604;2130.88;575.701;2.32999
1605;2111.04;548.112;2.32999
1606;2073.81;571.795;2.32999
1607;2049.39;579.608;2.32999
1608;2071.37;579.608;2.32999
1609;2091.2;567.888;2.32999
1610;2096.09;550.066;2.32999
1611;2088.76;573.748;2.32999
1612;2054.28;585.467;2.34
1613;2007.28;552.019;2.34
1614;2009.72;567.888;2.34
1615;2059.16;597.43;2.34
1616;2079;573.748;2.34
1617;2091.2;561.785;2.34
1618;2083.88;565.935;2.34
1619;2056.72;573.748;2.34
1620;2032;595.477;2.34
1621;2064.04;575.701;2.34
1622;2111.04;559.832;2.34
1623;2133.32;597.43;2.34
1624;2140.64;571.795;2.35
1625;2120.81;552.019;2.35
1626;2083.88;571.795;2.35
1627;2056.72;577.654;2.35
1628;2079;577.654;2.35
1629;2098.53;565.935;2.35
1630;2100.97;548.112;2.35
1631;2093.65;579.608;2.35
1632;2056.72;581.561;2.35
1633;2012.16;544.206;2.35
1634;2012.16;577.654;2.35
1635;2061.6;591.571;2.35
1636;2086.32;575.701;2.36
1637;2093.65;559.832;2.36
1638;2091.2;571.795;2.36
1639;2064.04;573.748;2.36
1640;2034.44;595.477;2.36
1641;2066.48;571.795;2.36
1642;2113.48;561.785;2.36
1643;2133.32;597.43;2.36
1644;2143.09;565.935;2.36
1645;2125.69;557.878;2.36
1646;2086.32;565.935;2.36
1647;2059.16;581.561;2.36
1648;2083.88;569.842;2.37
1649;2100.97;567.888;2.37
1650;2108.6;548.112;2.37
1651;2103.72;579.608;2.37
1652;2064.04;579.608;2.37
1653;2022.23;540.056;2.37
1654;2022.23;583.514;2.37
1655;2068.93;587.42;2.37
1656;2093.65;577.654;2.37
1657;2103.72;559.832;2.37
1658;2100.97;579.608;2.37
1659;2066.48;573.748;2.38
1660;2044.21;597.43;2.38
1661;2086.32;585.467;2.38
1662;2128.13;548.112;2.38
1663;2143.09;579.608;2.38
1664;2147.97;587.42;2.38
1665;2125.69;536.149;2.38
1666;2083.88;569.842;2.38
1667;2066.48;575.701;2.38
1668;2091.2;577.654;2.38
1669;2108.6;563.738;2.38
