<WeldAnalyseData xmlns:i="http:www.w3.org/2001/XMLSchema-instance">
<WeldParameter>
<TimeStamp>DT#2024-01-25-14:04:08</TimeStamp>
<Generator>SG-22-10000</Generator>
<GenFreq>20</GenFreq>
<MaxForce>8000</MaxForce>
<MaxPower>10000</MaxPower>
<RunupPressure>1.5</RunupPressure>
<RunupDist>10</RunupDist>
<RunPress>0.8</RunPress>
<ShakeDelay>0.03</ShakeDelay>
<ShakeTime>0.3</ShakeTime>
<RunBackPress1>6</RunBackPress1>
<RunBackPress2>2</RunBackPress2>
<RunBackDist>1</RunBackDist>
<TrigValue>500</TrigValue>
<TrigModeUnit>W</TrigModeUnit>
<WeldModeUnit>Ws</WeldModeUnit>
<PressNr>0</PressNr>
<MaxLoss>1500</MaxLoss>
</WeldParameter>
<WeldSets>
<WeldSet>
<PressRiseTime>0</PressRiseTime>
<RunPressure>1</RunPressure>
<Amplitude>86</Amplitude>
<WeldMode>3270</WeldMode>
</WeldSet>
</WeldSets>
<WeldValue>
<WeldNr>3016</WeldNr>
<RecipeName>RickStyle</RecipeName>
<WeldTime>1678</WeldTime>
<DistDiff>2.36</DistDiff>
<DistAbs>78.08</DistAbs>
<Energy>3270.53</Energy>
<MaxPower>2153.79</MaxPower>
<CycleTime>6040</CycleTime>
<TrigForce>506.607</TrigForce>
<TrigDist>75.72</TrigDist>
<RunSpeed>67.9103</RunSpeed>
<MaxForce>619.16</MaxForce>
<LossPower>320.044</LossPower>
</WeldValue>
</WeldAnalyseData>
#CSV-START#
ms;Power[W];Force[N];Distance[mm]
1;0;0;0
2;0;508.56;0
3;0;508.56;0
4;0;504.654;0.0100021
5;0;508.56;0.0100021
6;0;510.514;0.0100021
7;0;510.514;0.0100021
8;0;480.972;0.0100021
9;0;433.607;0.0199966
10;0;407.971;0.0400009
11;0;378.185;0.0699997
12;35.4968;370.373;0.110001
13;109.352;340.831;0.150002
14;195.719;330.821;0.190002
15;267.438;328.867;0.229996
16;334.273;301.279;0.269997
17;391.037;297.372;0.32
18;450.243;297.372;0.369995
19;504.566;309.091;0.409996
20;575.98;317.148;0.449997
21;645.257;317.148;0.489998
22;711.787;319.102;0.510002
23;781.064;328.867;0.540001
24;832.945;354.503;0.559998
25;874.756;348.643;0.580002
26;936.708;356.456;0.589996
27;1003.24;396.008;0.599998
28;1057.56;388.195;0.610001
29;1107;394.055;0.619995
30;1148.81;397.961;0.629997
31;1168.65;417.737;0.629997
32;1195.81;435.56;0.629997
33;1250.13;427.503;0.639999
34;1297.13;413.831;0.639999
35;1336.5;441.42;0.650002
36;1371.29;427.503;0.650002
37;1390.82;407.971;0.659996
38;1395.71;427.503;0.659996
39;1410.66;433.607;0.669998
40;1452.78;435.56;0.68
41;1489.7;427.503;0.68
42;1519.31;411.878;0.690002
43;1536.7;435.56;0.690002
44;1529.07;441.42;0.699997
45;1516.87;413.831;0.709999
46;1546.47;437.513;0.709999
47;1598.35;451.186;0.720001
48;1632.84;441.42;0.729996
49;1660;429.456;0.729996
50;1674.95;441.42;0.739998
51;1672.51;441.42;0.75
52;1679.83;465.102;0.760002
53;1734.16;441.42;0.760002
54;1786.04;437.513;0.769997
55;1822.97;472.915;0.779999
56;1845.24;441.42;0.790001
57;1837.92;439.467;0.790001
58;1820.52;449.232;0.799995
59;1820.52;467.055;0.809998
60;1857.45;459.243;0.809998
61;1887.05;459.243;0.82
62;1904.45;439.467;0.82
63;1904.45;479.019;0.830002
64;1879.73;472.915;0.830002
65;1847.69;439.467;0.839996
66;1874.85;480.972;0.849998
67;1921.85;484.878;0.849998
68;1951.45;479.019;0.860001
69;1966.1;465.102;0.860001
70;1966.1;484.878;0.869995
71;1944.12;480.972;0.869995
72;1934.05;506.607;0.869995
73;1985.93;470.962;0.879997
74;2035.37;477.065;0.879997
75;2060.09;514.42;0.889999
76;2067.42;467.055;0.889999
77;2050.02;475.112;0.900002
78;2015.54;479.019;0.900002
79;2008.21;498.795;0.909996
80;2042.7;480.972;0.909996
81;2064.98;486.831;0.919998
82;2074.74;465.102;0.919998
83;2067.42;488.784;0.919998
84;2028.05;508.56;0.93
85;1993.26;477.065;0.93
86;2013.1;490.738;0.940002
87;2057.65;526.383;0.940002
88;2079.93;498.795;0.940002
89;2089.7;490.738;0.949997
90;2079.93;496.597;0.949997
91;2052.77;506.607;0.959999
92;2035.37;522.477;0.959999
93;2084.81;508.56;0.959999
94;2124.18;492.691;0.970001
95;2144.02;528.336;0.970001
96;2151.35;510.514;0.970001
97;2121.74;486.831;0.979996
98;2084.81;508.56;0.979996
99;2069.86;518.326;0.979996
100;2099.46;518.326;0.989998
101;2116.86;508.56;0.989998
102;2119.3;490.738;0.989998
103;2107.09;514.42;1
104;2064.98;522.477;1
105;2020.42;486.831;1
106;2040.26;510.514;1.01
107;2079.93;536.149;1.01
108;2097.02;516.373;1.01
109;2104.35;504.654;1.02
110;2089.7;512.467;1.02
111;2057.65;516.373;1.02
112;2042.7;542.009;1.03
113;2084.81;514.42;1.03
114;2121.74;508.56;1.03
115;2141.58;546.159;1.04
116;2141.58;512.467;1.04
117;2111.98;502.701;1.04
118;2072.3;514.42;1.04
119;2057.65;530.29;1.05
120;2074.74;522.477;1.05
121;2097.02;518.326;1.05
122;2101.91;494.644;1.05
123;2097.02;532.243;1.06
124;2060.09;528.336;1.06
125;2013.1;494.644;1.06
126;2000.89;532.243;1.07
127;2047.58;540.056;1.07
128;2067.42;530.29;1.07
129;2079.93;514.42;1.07
130;2074.74;536.149;1.08
131;2047.58;530.29;1.08
132;2015.54;553.972;1.08
133;2037.82;520.524;1.08
134;2087.26;522.477;1.09
135;2109.53;559.832;1.09
136;2116.86;516.373;1.09
137;2101.91;516.373;1.09
138;2062.54;520.524;1.1
139;2030.49;540.056;1.1
140;2047.58;520.524;1.1
141;2069.86;524.43;1.1
142;2077.19;504.654;1.11
143;2069.86;544.206;1.11
144;2035.37;536.149;1.11
145;1988.38;500.748;1.11
146;1976.17;534.196;1.12
147;2017.98;552.019;1.12
148;2042.7;536.149;1.12
149;2050.02;520.524;1.12
150;2042.7;536.149;1.12
151;2017.98;536.149;1.13
152;1985.93;555.925;1.13
153;2013.1;530.29;1.13
154;2060.09;526.383;1.13
155;2079.93;565.935;1.13
156;2089.7;526.383;1.14
157;2072.3;520.524;1.14
158;2032.93;528.336;1.14
159;2000.89;546.159;1.14
160;2020.42;532.243;1.14
161;2042.7;532.243;1.15
162;2047.58;512.467;1.15
163;2042.7;546.159;1.15
164;2008.21;544.206;1.15
165;1961.21;508.56;1.15
166;1951.45;552.019;1.16
167;1990.82;550.066;1.16
168;2013.1;546.159;1.16
169;2022.86;528.336;1.16
170;2017.98;550.066;1.16
171;1990.82;542.009;1.17
172;1961.21;567.888;1.17
173;1990.82;530.29;1.17
174;2032.93;534.196;1.17
175;2055.21;573.748;1.17
176;2064.98;526.383;1.17
177;2047.58;512.467;1.18
178;2010.65;540.056;1.18
179;1983.49;548.112;1.18
180;1998.45;550.066;1.18
181;2020.42;540.056;1.18
182;2028.05;524.43;1.18
183;2017.98;540.056;1.19
184;1983.49;559.832;1.19
185;1941.38;526.383;1.19
186;1931.61;538.102;1.19
187;1973.73;573.748;1.19
188;1998.45;544.206;1.19
189;2008.21;538.102;1.2
190;2005.77;538.102;1.2
191;1976.17;548.112;1.2
192;1951.45;565.935;1.2
193;1973.73;552.019;1.2
194;2020.42;534.196;1.2
195;2042.7;567.888;1.21
196;2050.02;550.066;1.21
197;2032.93;522.477;1.21
198;1993.26;548.112;1.21
199;1966.1;555.925;1.21
200;1985.93;555.925;1.21
201;2005.77;546.159;1.22
202;2013.1;522.477;1.22
203;2005.77;553.972;1.22
204;1968.54;555.925;1.22
205;1924.29;524.43;1.22
206;1919.4;550.066;1.22
207;1963.66;569.842;1.23
208;1983.49;553.972;1.23
209;1993.26;540.056;1.23
210;1988.38;548.112;1.23
211;1961.21;553.972;1.23
212;1934.05;575.701;1.23
213;1961.21;548.112;1.23
214;2005.77;542.009;1.24
215;2028.05;579.608;1.24
216;2035.37;546.159;1.24
217;2017.98;536.149;1.24
218;1981.05;550.066;1.24
219;1953.89;563.738;1.24
220;1971.29;553.972;1.24
221;1993.26;548.112;1.25
222;1998.45;526.383;1.25
223;1988.38;561.785;1.25
224;1956.33;559.832;1.25
225;1911.77;526.383;1.25
226;1906.89;563.738;1.25
227;1951.45;569.842;1.25
228;1971.29;561.785;1.26
229;1981.05;544.206;1.26
230;1973.73;563.738;1.26
231;1949.01;555.925;1.26
232;1921.85;581.561;1.26
233;1949.01;550.066;1.26
234;1990.82;548.112;1.26
235;2015.54;587.42;1.27
236;2022.86;544.206;1.27
237;2005.77;546.159;1.27
238;1971.29;550.066;1.27
239;1946.57;567.888;1.27
240;1963.66;565.935;1.27
241;1985.93;550.066;1.27
242;1988.38;542.009;1.28
243;1981.05;553.972;1.28
244;1949.01;575.701;1.28
245;1904.45;542.009;1.28
246;1902.01;550.066;1.28
247;1941.38;591.571;1.28
248;1963.66;559.832;1.28
249;1973.73;550.066;1.29
250;1966.1;553.972;1.29
251;1941.38;565.935;1.29
252;1914.22;577.654;1.29
253;1941.38;563.738;1.29
254;1988.38;544.206;1.29
255;2008.21;579.608;1.29
256;2017.98;567.888;1.3
257;1998.45;538.102;1.3
258;1963.66;561.785;1.3
259;1936.49;569.842;1.3
260;1953.89;571.795;1.3
261;1973.73;557.878;1.3
262;1981.05;542.009;1.3
263;1968.54;561.785;1.3
264;1934.05;575.701;1.31
265;1897.13;540.056;1.31
266;1894.68;563.738;1.31
267;1934.05;587.42;1.31
268;1953.89;565.935;1.31
269;1963.66;555.925;1.31
270;1961.21;561.785;1.31
271;1931.61;567.888;1.31
272;1909.33;589.618;1.32
273;1936.49;563.738;1.32
274;1978.61;557.878;1.32
275;1998.45;591.571;1.32
276;2005.77;565.935;1.32
277;1988.38;552.019;1.32
278;1951.45;565.935;1.32
279;1926.73;579.608;1.32
280;1944.12;571.795;1.33
281;1963.66;565.935;1.33
282;1966.1;546.159;1.33
283;1958.77;575.701;1.33
284;1926.73;575.701;1.33
285;1882.17;540.056;1.33
286;1884.61;579.608;1.33
287;1926.73;585.467;1.34
288;1946.57;577.654;1.34
289;1958.77;561.785;1.34
290;1949.01;577.654;1.34
291;1926.73;573.748;1.34
292;1899.57;599.384;1.34
293;1926.73;567.888;1.34
294;1968.54;563.738;1.34
295;1988.38;603.29;1.34
296;1995.7;561.785;1.35
297;1978.61;563.738;1.35
298;1941.38;569.842;1.35
299;1919.4;583.514;1.35
300;1941.38;565.935;1.35
301;1956.33;569.842;1.35
302;1963.66;548.112;1.35
303;1953.89;575.701;1.35
304;1919.4;581.561;1.36
305;1877.29;550.066;1.36
306;1882.17;575.701;1.36
307;1919.4;597.43;1.36
308;1938.94;579.608;1.36
309;1946.57;565.935;1.36
310;1938.94;571.795;1.36
311;1911.77;579.608;1.36
312;1889.8;601.337;1.36
313;1921.85;573.748;1.37
314;1963.66;567.888;1.37
315;1985.93;605.243;1.37
316;1990.82;571.795;1.37
317;1976.17;565.935;1.37
318;1941.38;571.795;1.37
319;1916.96;585.467;1.37
320;1936.49;575.701;1.37
321;1951.45;575.701;1.37
322;1958.77;552.019;1.38
323;1949.01;587.42;1.38
324;1911.77;585.467;1.38
325;1877.29;550.066;1.38
326;1874.85;587.42;1.38
327;1916.96;593.524;1.38
328;1938.94;583.514;1.38
329;1946.57;569.842;1.38
330;1938.94;589.618;1.39
331;1911.77;579.608;1.39
332;1889.8;605.243;1.39
333;1921.85;571.795;1.39
334;1961.21;559.832;1.39
335;1983.49;591.571;1.39
336;1988.38;593.524;1.39
337;1973.73;550.066;1.39
338;1934.05;579.608;1.39
339;1911.77;583.514;1.4
340;1931.61;587.42;1.4
341;1949.01;573.748;1.4
342;1949.01;563.738;1.4
343;1941.38;575.701;1.4
344;1906.89;595.477;1.4
345;1865.08;565.935;1.4
346;1869.96;571.795;1.4
347;1909.33;609.149;1.4
348;1926.73;579.608;1.41
349;1936.49;573.748;1.41
350;1929.17;573.748;1.41
351;1904.45;585.467;1.41
352;1884.61;599.384;1.41
353;1911.77;583.514;1.41
354;1956.33;565.935;1.41
355;1973.73;601.337;1.41
356;1983.49;587.42;1.41
357;1963.66;557.878;1.42
358;1931.61;581.561;1.42
359;1906.89;589.618;1.42
360;1926.73;589.618;1.42
361;1941.38;575.701;1.42
362;1949.01;557.878;1.42
363;1938.94;583.514;1.42
364;1904.45;593.524;1.42
365;1865.08;557.878;1.42
366;1869.96;581.561;1.43
367;1909.33;605.243;1.43
368;1926.73;585.467;1.43
369;1936.49;571.795;1.43
370;1934.05;577.654;1.43
371;1909.33;585.467;1.43
372;1884.61;607.196;1.43
373;1916.96;583.514;1.43
374;1956.33;571.795;1.43
375;1978.61;609.149;1.43
376;1983.49;579.608;1.44
377;1968.54;565.935;1.44
378;1931.61;579.608;1.44
379;1911.77;591.571;1.44
380;1934.05;581.561;1.44
381;1951.45;577.654;1.44
382;1953.89;555.925;1.44
383;1944.12;589.618;1.44
384;1909.33;589.618;1.44
385;1867.52;553.972;1.44
386;1872.41;591.571;1.44
387;1916.96;597.43;1.45
388;1931.61;587.42;1.45
389;1941.38;573.748;1.45
390;1934.05;589.618;1.45
391;1911.77;585.467;1.45
392;1884.61;607.196;1.45
393;1921.85;577.654;1.45
394;1961.21;575.701;1.45
395;1976.17;613.3;1.45
396;1983.49;571.795;1.45
397;1963.66;552.019;1.46
398;1926.73;581.561;1.46
399;1909.33;585.467;1.46
400;1929.17;589.618;1.46
401;1944.12;577.654;1.46
402;1946.57;567.888;1.46
403;1938.94;577.654;1.46
404;1902.01;601.337;1.46
405;1865.08;569.842;1.46
406;1869.96;573.748;1.46
407;1911.77;613.3;1.46
408;1929.17;581.561;1.47
409;1934.05;577.654;1.47
410;1929.17;575.701;1.47
411;1902.01;587.42;1.47
412;1882.17;599.384;1.47
413;1914.22;591.571;1.47
414;1953.89;567.888;1.47
415;1971.29;599.384;1.47
416;1978.61;591.571;1.47
417;1961.21;559.832;1.47
418;1924.29;583.514;1.47
419;1904.45;591.571;1.48
420;1926.73;591.571;1.48
421;1941.38;577.654;1.48
422;1946.57;563.738;1.48
423;1934.05;583.514;1.48
424;1899.57;595.477;1.48
425;1859.89;563.738;1.48
426;1867.52;581.561;1.48
427;1906.89;607.196;1.48
428;1926.73;583.514;1.48
429;1931.61;575.701;1.48
430;1926.73;577.654;1.48
431;1897.13;585.467;1.49
432;1877.29;609.149;1.49
433;1911.77;583.514;1.49
434;1951.45;573.748;1.49
435;1968.54;609.149;1.49
436;1973.73;581.561;1.49
437;1956.33;567.888;1.49
438;1919.4;581.561;1.49
439;1902.01;591.571;1.49
440;1924.29;589.618;1.49
441;1938.94;577.654;1.49
442;1941.38;561.785;1.5
443;1931.61;589.618;1.5
444;1899.57;593.524;1.5
445;1857.45;557.878;1.5
446;1867.52;591.571;1.5
447;1906.89;601.337;1.5
448;1919.4;587.42;1.5
449;1931.61;575.701;1.5
450;1921.85;587.42;1.5
451;1894.68;585.467;1.5
452;1872.41;609.149;1.5
453;1909.33;579.608;1.5
454;1949.01;577.654;1.51
455;1966.1;613.3;1.51
456;1973.73;573.748;1.51
457;1951.45;571.795;1.51
458;1916.96;579.608;1.51
459;1899.57;595.477;1.51
460;1921.85;595.477;1.51
461;1936.49;579.608;1.51
462;1941.38;561.785;1.51
463;1929.17;587.42;1.51
464;1894.68;595.477;1.51
465;1855.01;563.738;1.51
466;1865.08;585.467;1.52
467;1904.45;607.196;1.52
468;1921.85;585.467;1.52
469;1929.17;575.701;1.52
470;1921.85;581.561;1.52
471;1897.13;587.42;1.52
472;1879.73;611.347;1.52
473;1911.77;585.467;1.52
474;1949.01;575.701;1.52
475;1971.29;609.149;1.52
476;1973.73;579.608;1.52
477;1953.89;569.842;1.52
478;1916.96;581.561;1.53
479;1902.01;593.524;1.53
480;1924.29;585.467;1.53
481;1938.94;583.514;1.53
482;1946.57;557.878;1.53
483;1931.61;593.524;1.53
484;1899.57;591.571;1.53
485;1857.45;555.925;1.53
486;1867.52;595.477;1.53
487;1911.77;599.384;1.53
488;1926.73;589.618;1.53
489;1934.05;573.748;1.53
490;1924.29;593.524;1.53
491;1902.01;589.618;1.54
492;1882.17;597.43;1.54
493;1921.85;597.43;1.54
494;1956.33;565.935;1.54
495;1976.17;595.477;1.54
496;1978.61;601.337;1.54
497;1966.1;553.972;1.54
498;1931.61;583.514;1.54
499;1909.33;589.618;1.54
500;1921.85;593.524;1.54
501;1941.38;581.561;1.54
502;1946.57;567.888;1.54
503;1941.38;581.561;1.55
504;1909.33;601.337;1.55
505;1867.52;571.795;1.55
506;1865.08;575.701;1.55
507;1909.33;615.253;1.55
508;1924.29;587.42;1.55
509;1934.05;579.608;1.55
510;1929.17;577.654;1.55
511;1909.33;589.618;1.55
512;1884.61;603.29;1.55
513;1911.77;591.571;1.55
514;1953.89;575.701;1.55
515;1973.73;601.337;1.55
516;1983.49;591.571;1.56
517;1966.1;563.738;1.56
518;1931.61;585.467;1.56
519;1909.33;593.524;1.56
520;1926.73;595.477;1.56
521;1946.57;583.514;1.56
522;1949.01;563.738;1.56
523;1944.12;587.42;1.56
524;1911.77;597.43;1.56
525;1869.96;565.935;1.56
526;1869.96;583.514;1.56
527;1909.33;609.149;1.56
528;1926.73;587.42;1.56
529;1934.05;577.654;1.57
530;1931.61;581.561;1.57
531;1909.33;589.618;1.57
532;1882.17;611.347;1.57
533;1914.22;587.42;1.57
534;1958.77;577.654;1.57
535;1981.05;611.347;1.57
536;1988.38;583.514;1.57
537;1971.29;569.842;1.57
538;1934.05;583.514;1.57
539;1911.77;595.477;1.57
540;1936.49;589.618;1.57
541;1949.01;585.467;1.57
542;1953.89;563.738;1.58
543;1946.57;593.524;1.58
544;1916.96;595.477;1.58
545;1874.85;559.832;1.58
546;1877.29;593.524;1.58
547;1916.96;603.29;1.58
548;1936.49;593.524;1.58
549;1944.12;575.701;1.58
550;1938.94;593.524;1.58
551;1914.22;589.618;1.58
552;1892.24;611.347;1.58
553;1919.4;599.384;1.58
554;1961.21;565.935;1.58
555;1983.49;595.477;1.59
556;1990.82;605.243;1.59
557;1971.29;555.925;1.59
558;1934.05;587.42;1.59
559;1911.77;589.618;1.59
560;1934.05;595.477;1.59
561;1949.01;579.608;1.59
562;1953.89;571.795;1.59
563;1944.12;579.608;1.59
564;1911.77;607.196;1.59
565;1869.96;575.701;1.59
566;1872.41;575.701;1.59
567;1914.22;619.16;1.59
568;1931.61;585.467;1.59
569;1941.38;577.654;1.6
570;1934.05;579.608;1.6
571;1911.77;589.618;1.6
572;1887.05;605.243;1.6
573;1919.4;595.477;1.6
574;1958.77;571.795;1.6
575;1981.05;601.337;1.6
576;1988.38;595.477;1.6
577;1971.29;563.738;1.6
578;1934.05;581.561;1.6
579;1911.77;591.571;1.6
580;1934.05;595.477;1.6
581;1951.45;583.514;1.6
582;1951.45;567.888;1.61
583;1946.57;585.467;1.61
584;1911.77;599.384;1.61
585;1872.41;567.888;1.61
586;1874.85;581.561;1.61
587;1914.22;611.347;1.61
588;1934.05;585.467;1.61
589;1946.57;577.654;1.61
590;1938.94;579.608;1.61
591;1914.22;591.571;1.61
592;1889.8;607.196;1.61
593;1921.85;589.618;1.61
594;1963.66;573.748;1.61
595;1983.49;611.347;1.61
596;1990.82;585.467;1.62
597;1971.29;565.935;1.62
598;1934.05;583.514;1.62
599;1914.22;595.477;1.62
600;1936.49;593.524;1.62
601;1953.89;583.514;1.62
602;1961.21;561.785;1.62
603;1949.01;591.571;1.62
604;1916.96;593.524;1.62
605;1877.29;557.878;1.62
606;1879.73;589.618;1.62
607;1921.85;601.337;1.62
608;1941.38;589.618;1.62
609;1949.01;575.701;1.62
610;1941.38;589.618;1.63
611;1916.96;587.42;1.63
612;1897.13;613.3;1.63
613;1929.17;583.514;1.63
614;1971.29;575.701;1.63
615;1985.93;615.253;1.63
616;1995.7;589.618;1.63
617;1978.61;561.785;1.63
618;1941.38;583.514;1.63
619;1921.85;591.571;1.63
620;1944.12;593.524;1.63
621;1958.77;581.561;1.63
622;1961.21;559.832;1.63
623;1953.89;585.467;1.63
624;1919.4;595.477;1.64
625;1879.73;563.738;1.64
626;1882.17;581.561;1.64
627;1921.85;607.196;1.64
628;1938.94;585.467;1.64
629;1949.01;575.701;1.64
630;1941.38;583.514;1.64
631;1916.96;585.467;1.64
632;1897.13;609.149;1.64
633;1926.73;583.514;1.64
634;1968.54;573.748;1.64
635;1988.38;609.149;1.64
636;1993.26;581.561;1.64
637;1976.17;567.888;1.64
638;1938.94;577.654;1.64
639;1916.96;593.524;1.65
640;1941.38;587.42;1.65
641;1956.33;581.561;1.65
642;1961.21;559.832;1.65
643;1951.45;589.618;1.65
644;1919.4;591.571;1.65
645;1879.73;555.925;1.65
646;1882.17;593.524;1.65
647;1924.29;619.16;1.65
648;1941.38;585.467;1.65
649;1951.45;579.608;1.65
650;1941.38;575.701;1.65
651;1914.22;593.524;1.65
652;1894.68;593.524;1.65
653;1931.61;595.477;1.66
654;1971.29;561.785;1.66
655;1990.82;593.524;1.66
656;1995.7;599.384;1.66
657;1978.61;553.972;1.66
658;1941.38;581.561;1.66
659;1924.29;585.467;1.66
660;1944.12;591.571;1.66
661;1961.21;579.608;1.66
662;1961.21;569.842;1.66
663;1951.45;575.701;1.66
664;1919.4;597.43;1.66
665;1879.73;569.842;1.66
666;1884.61;571.795;1.66
667;1926.73;615.253;1.66
668;1944.12;583.514;1.67
669;1953.89;575.701;1.67
670;1946.57;575.701;1.67
671;1919.4;587.42;1.67
672;1899.57;599.384;1.67
673;1934.05;591.571;1.67
674;1973.73;567.888;1.67
675;1990.82;597.43;1.67
676;1998.45;589.618;1.67
677;1978.61;557.878;1.67
678;1944.12;581.561;1.67
679;1924.29;587.42;1.67
680;1936.49;591.571;1.67
681;1961.21;577.654;1.67
682;1966.1;563.738;1.67
683;1958.77;581.561;1.68
684;1934.05;595.477;1.68
685;1894.68;561.785;1.68
686;1874.85;581.561;1.68
687;1916.96;607.196;1.68
688;1941.38;583.514;1.68
689;1953.89;573.748;1.68
690;1956.33;575.701;1.68
691;1934.05;585.467;1.68
692;1904.45;605.243;1.68
693;1916.96;587.42;1.68
694;1966.1;569.842;1.68
695;1988.38;607.196;1.68
696;2000.89;581.561;1.68
697;1993.26;567.888;1.68
698;1961.21;579.608;1.68
699;1924.29;591.571;1.69
700;1938.94;587.42;1.69
701;1961.21;579.608;1.69
702;1966.1;557.878;1.69
703;1961.21;587.42;1.69
704;1936.49;589.618;1.69
705;1892.24;553.972;1.69
706;1877.29;587.42;1.69
707;1916.96;599.384;1.69
708;1944.12;587.42;1.69
709;1951.45;573.748;1.69
710;1951.45;573.748;1.69
711;1931.61;587.42;1.69
712;1904.45;587.42;1.69
713;1914.22;595.477;1.69
714;1966.1;561.785;1.7
715;1990.82;589.618;1.7
716;2000.89;597.43;1.7
717;1990.82;550.066;1.7
718;1958.77;581.561;1.7
719;1926.73;585.467;1.7
720;1936.49;589.618;1.7
721;1958.77;573.748;1.7
722;1963.66;567.888;1.7
723;1958.77;571.795;1.7
724;1934.05;599.384;1.7
725;1892.24;569.842;1.7
726;1879.73;567.888;1.7
727;1916.96;613.3;1.7
728;1941.38;579.608;1.7
729;1953.89;577.654;1.71
730;1951.45;575.701;1.71
731;1929.17;585.467;1.71
732;1904.45;595.477;1.71
733;1916.96;591.571;1.71
734;1968.54;565.935;1.71
735;1988.38;595.477;1.71
736;2000.89;591.571;1.71
737;1990.82;555.925;1.71
738;1958.77;579.608;1.71
739;1926.73;585.467;1.71
740;1941.38;589.618;1.71
741;1961.21;577.654;1.71
742;1968.54;561.785;1.71
743;1968.54;577.654;1.71
744;1938.94;595.477;1.72
745;1897.13;561.785;1.72
746;1882.17;575.701;1.72
747;1921.85;607.196;1.72
748;1941.38;579.608;1.72
749;1956.33;573.748;1.72
750;1951.45;573.748;1.72
751;1931.61;587.42;1.72
752;1904.45;603.29;1.72
753;1921.85;585.467;1.72
754;1971.29;569.842;1.72
755;1995.7;603.29;1.72
756;2005.77;587.42;1.72
757;1995.7;563.738;1.72
758;1961.21;579.608;1.72
759;1931.61;591.571;1.73
760;1944.12;589.618;1.73
761;1968.54;575.701;1.73
762;1971.29;557.878;1.73
763;1971.29;585.467;1.73
764;1941.38;591.571;1.73
765;1899.57;557.878;1.73
766;1884.61;583.514;1.73
767;1926.73;599.384;1.73
768;1949.01;583.514;1.73
769;1961.21;571.795;1.73
770;1958.77;581.561;1.73
771;1936.49;583.514;1.73
772;1909.33;607.196;1.73
773;1926.73;589.618;1.74
774;1973.73;565.935;1.74
775;1998.45;597.43;1.74
776;2008.21;587.42;1.74
777;1998.45;557.878;1.74
778;1966.1;581.561;1.74
779;1931.61;587.42;1.74
780;1946.57;591.571;1.74
781;1968.54;577.654;1.74
782;1976.17;561.785;1.74
783;1971.29;579.608;1.74
784;1944.12;591.571;1.74
785;1902.01;559.832;1.74
786;1889.8;577.654;1.74
787;1931.61;605.243;1.74
788;1953.89;583.514;1.75
789;1963.66;573.748;1.75
790;1963.66;579.608;1.75
791;1938.94;581.561;1.75
792;1914.22;605.243;1.75
793;1931.61;579.608;1.75
794;1981.05;571.795;1.75
795;2003.33;607.196;1.75
796;2013.1;577.654;1.75
797;2003.33;561.785;1.75
798;1968.54;579.608;1.75
799;1936.49;589.618;1.75
800;1953.89;585.467;1.75
801;1973.73;579.608;1.75
802;1978.61;557.878;1.75
803;1976.17;585.467;1.75
804;1944.12;605.243;1.76
805;1904.45;579.608;1.76
806;1892.24;559.832;1.76
807;1936.49;619.16;1.76
808;1956.33;581.561;1.76
809;1971.29;577.654;1.76
810;1966.1;573.748;1.76
811;1944.12;587.42;1.76
812;1914.22;591.571;1.76
813;1936.49;593.524;1.76
814;1983.49;559.832;1.76
815;2005.77;589.618;1.76
816;2015.54;597.43;1.76
817;2003.33;550.066;1.76
818;1971.29;579.608;1.76
819;1938.94;583.514;1.77
820;1956.33;589.618;1.77
821;1976.17;573.748;1.77
822;1981.05;567.888;1.77
823;1978.61;571.795;1.77
824;1949.01;597.43;1.77
825;1906.89;567.888;1.77
826;1894.68;567.888;1.77
827;1934.05;611.347;1.77
828;1956.33;581.561;1.77
829;1966.1;573.748;1.77
830;1963.66;573.748;1.77
831;1941.38;585.467;1.77
832;1911.77;595.477;1.77
833;1931.61;589.618;1.77
834;1981.05;563.738;1.78
835;2005.77;597.43;1.78
836;2013.1;589.618;1.78
837;2000.89;555.925;1.78
838;1963.66;581.561;1.78
839;1936.49;585.467;1.78
840;1951.45;589.618;1.78
841;1973.73;575.701;1.78
842;1978.61;559.832;1.78
843;1973.73;577.654;1.78
844;1944.12;593.524;1.78
845;1904.45;561.785;1.78
846;1894.68;573.748;1.78
847;1934.05;605.243;1.78
848;1956.33;581.561;1.78
849;1968.54;571.795;1.79
850;1966.1;571.795;1.79
851;1941.38;581.561;1.79
852;1914.22;601.337;1.79
853;1936.49;581.561;1.79
854;1985.93;567.888;1.79
855;2005.77;603.29;1.79
856;2015.54;579.608;1.79
857;2000.89;561.785;1.79
858;1968.54;577.654;1.79
859;1938.94;589.618;1.79
860;1956.33;585.467;1.79
861;1976.17;575.701;1.79
862;1981.05;555.925;1.79
863;1978.61;585.467;1.79
864;1946.57;589.618;1.8
865;1906.89;553.972;1.8
866;1894.68;559.832;1.8
867;1936.49;619.16;1.8
868;1958.77;579.608;1.8
869;1968.54;577.654;1.8
870;1966.1;571.795;1.8
871;1944.12;585.467;1.8
872;1911.77;587.42;1.8
873;1938.94;595.477;1.8
874;1985.93;559.832;1.8
875;2005.77;589.618;1.8
876;2015.54;595.477;1.8
877;2003.33;548.112;1.8
878;1966.1;579.608;1.8
879;1938.94;583.514;1.81
880;1956.33;587.42;1.81
881;1978.61;571.795;1.81
882;1981.05;565.935;1.81
883;1976.17;569.842;1.81
884;1946.57;599.384;1.81
885;1904.45;569.842;1.81
886;1894.68;563.738;1.81
887;1936.49;613.3;1.81
888;1961.21;579.608;1.81
889;1971.29;573.748;1.81
890;1968.54;571.795;1.81
891;1946.57;585.467;1.81
892;1916.96;591.571;1.81
893;1941.38;591.571;1.81
894;1983.49;563.738;1.82
895;2005.77;593.524;1.82
896;2013.1;589.618;1.82
897;2000.89;553.972;1.82
898;1968.54;577.654;1.82
899;1936.49;585.467;1.82
900;1958.77;589.618;1.82
901;1978.61;573.748;1.82
902;1983.49;559.832;1.82
903;1978.61;575.701;1.82
904;1946.57;595.477;1.82
905;1906.89;561.785;1.82
906;1899.57;571.795;1.82
907;1944.12;605.243;1.82
908;1966.1;581.561;1.82
909;1973.73;571.795;1.82
910;1971.29;573.748;1.83
911;1946.57;581.561;1.83
912;1921.85;599.384;1.83
913;1944.12;583.514;1.83
914;1993.26;567.888;1.83
915;2010.65;601.337;1.83
916;2020.42;581.561;1.83
917;2008.21;559.832;1.83
918;1971.29;579.608;1.83
919;1944.12;587.42;1.83
920;1963.66;587.42;1.83
921;1983.49;573.748;1.83
922;1985.93;553.972;1.83
923;1981.05;583.514;1.83
924;1949.01;587.42;1.83
925;1909.33;553.972;1.84
926;1904.45;581.561;1.84
927;1941.38;599.384;1.84
928;1966.1;581.561;1.84
929;1976.17;573.748;1.84
930;1971.29;573.748;1.84
931;1946.57;583.514;1.84
932;1921.85;595.477;1.84
933;1944.12;587.42;1.84
934;1990.82;563.738;1.84
935;2013.1;597.43;1.84
936;2020.42;587.42;1.84
937;2008.21;555.925;1.84
938;1971.29;577.654;1.84
939;1946.57;585.467;1.84
940;1966.1;587.42;1.84
941;1983.49;575.701;1.85
942;1988.38;559.832;1.85
943;1983.49;577.654;1.85
944;1951.45;591.571;1.85
945;1911.77;555.925;1.85
946;1904.45;575.701;1.85
947;1949.01;605.243;1.85
948;1971.29;579.608;1.85
949;1978.61;569.842;1.85
950;1976.17;569.842;1.85
951;1951.45;583.514;1.85
952;1921.85;599.384;1.85
953;1949.01;581.561;1.85
954;1993.26;567.888;1.85
955;2015.54;601.337;1.85
956;2022.86;579.608;1.86
957;2010.65;561.785;1.86
958;1971.29;573.748;1.86
959;1949.01;589.618;1.86
960;1966.1;589.618;1.86
961;1985.93;571.795;1.86
962;1990.82;571.795;1.86
963;1983.49;563.738;1.86
964;1951.45;603.29;1.86
965;1909.33;577.654;1.86
966;1906.89;557.878;1.86
967;1949.01;619.16;1.86
968;1966.1;577.654;1.86
969;1976.17;577.654;1.86
970;1973.73;569.842;1.86
971;1946.57;583.514;1.86
972;1921.85;585.467;1.87
973;1949.01;591.571;1.87
974;1995.7;555.925;1.87
975;2013.1;585.467;1.87
976;2025.61;593.524;1.87
977;2013.1;546.159;1.87
978;1976.17;577.654;1.87
979;1951.45;579.608;1.87
980;1971.29;587.42;1.87
981;1988.38;571.795;1.87
982;1990.82;563.738;1.87
983;1983.49;569.842;1.87
984;1951.45;595.477;1.87
985;1909.33;567.888;1.87
986;1909.33;563.738;1.87
987;1949.01;611.347;1.87
988;1971.29;577.654;1.88
989;1978.61;571.795;1.88
990;1973.73;571.795;1.88
991;1946.57;583.514;1.88
992;1924.29;593.524;1.88
993;1951.45;589.618;1.88
994;1998.45;563.738;1.88
995;2020.42;595.477;1.88
996;2028.05;587.42;1.88
997;2010.65;552.019;1.88
998;1976.17;577.654;1.88
999;1951.45;583.514;1.88
1000;1971.29;589.618;1.88
1001;1990.82;575.701;1.88
1002;1993.26;559.832;1.88
1003;1988.38;577.654;1.89
1004;1953.89;593.524;1.89
1005;1909.33;559.832;1.89
1006;1911.77;575.701;1.89
1007;1953.89;605.243;1.89
1008;1973.73;579.608;1.89
1009;1983.49;571.795;1.89
1010;1976.17;573.748;1.89
1011;1949.01;581.561;1.89
1012;1924.29;599.384;1.89
1013;1956.33;581.561;1.89
1014;2000.89;567.888;1.89
1015;2020.42;601.337;1.89
1016;2028.05;581.561;1.89
1017;2010.65;559.832;1.89
1018;1976.17;575.701;1.89
1019;1951.45;587.42;1.9
1020;1971.29;587.42;1.9
1021;1988.38;575.701;1.9
1022;1993.26;571.795;1.9
1023;1988.38;561.785;1.9
1024;1951.45;605.243;1.9
1025;1911.77;577.654;1.9
1026;1911.77;555.925;1.9
1027;1951.45;617.206;1.9
1028;1971.29;579.608;1.9
1029;1978.61;573.748;1.9
1030;1971.29;567.888;1.9
1031;1946.57;585.467;1.9
1032;1921.85;585.467;1.9
1033;1953.89;593.524;1.9
1034;2000.89;555.925;1.9
1035;2017.98;583.514;1.9
1036;2030.49;597.43;1.91
1037;2010.65;544.206;1.91
1038;1973.73;579.608;1.91
1039;1951.45;579.608;1.91
1040;1973.73;589.618;1.91
1041;1990.82;571.795;1.91
1042;1995.7;565.935;1.91
1043;1990.82;567.888;1.91
1044;1956.33;599.384;1.91
1045;1914.22;567.888;1.91
1046;1916.96;563.738;1.91
1047;1956.33;613.3;1.91
1048;1978.61;577.654;1.91
1049;1985.93;573.748;1.91
1050;1981.05;573.748;1.91
1051;1953.89;585.467;1.91
1052;1929.17;591.571;1.91
1053;1941.38;589.618;1.92
1054;1990.82;561.785;1.92
1055;2015.54;591.571;1.92
1056;2030.49;591.571;1.92
1057;2025.61;552.019;1.92
1058;1993.26;577.654;1.92
1059;1958.77;583.514;1.92
1060;1963.66;585.467;1.92
1061;1990.82;575.701;1.92
1062;2000.89;561.785;1.92
1063;1998.45;575.701;1.92
1064;1976.17;593.524;1.92
1065;1931.61;561.785;1.92
1066;1911.77;569.842;1.92
1067;1946.57;607.196;1.92
1068;1976.17;579.608;1.92
1069;1988.38;569.842;1.92
1070;1990.82;569.842;1.93
1071;1971.29;581.561;1.93
1072;1941.38;595.477;1.93
1073;1951.45;583.514;1.93
1074;1995.7;567.888;1.93
1075;2022.86;599.384;1.93
1076;2032.93;583.514;1.93
1077;2028.05;555.925;1.93
1078;1995.7;577.654;1.93
1079;1961.21;587.42;1.93
1080;1968.54;587.42;1.93
1081;1995.7;573.748;1.93
1082;2000.89;557.878;1.93
1083;2000.89;581.561;1.93
1084;1976.17;587.42;1.93
1085;1931.61;567.888;1.93
1086;1911.77;565.935;1.93
1087;1949.01;611.347;1.94
1088;1978.61;577.654;1.94
1089;1988.38;571.795;1.94
1090;1988.38;571.795;1.94
1091;1968.54;583.514;1.94
1092;1936.49;595.477;1.94
1093;1946.57;585.467;1.94
1094;1995.7;563.738;1.94
1095;2022.86;595.477;1.94
1096;2032.93;587.42;1.94
1097;2025.61;552.019;1.94
1098;1993.26;577.654;1.94
1099;1958.77;587.42;1.94
1100;1966.1;585.467;1.94
1101;1995.7;573.748;1.94
1102;2000.89;557.878;1.94
1103;2000.89;577.654;1.95
1104;1976.17;591.571;1.95
1105;1934.05;557.878;1.95
1106;1911.77;573.748;1.95
1107;1949.01;603.29;1.95
1108;1978.61;579.608;1.95
1109;1988.38;569.842;1.95
1110;1988.38;571.795;1.95
1111;1971.29;581.561;1.95
1112;1938.94;601.337;1.95
1113;1946.57;581.561;1.95
1114;2000.89;567.888;1.95
1115;2022.86;601.337;1.95
1116;2032.93;603.29;1.95
1117;2025.61;542.009;1.95
1118;1995.7;575.701;1.95
1119;1958.77;577.654;1.96
1120;1971.29;587.42;1.96
1121;1998.45;569.842;1.96
1122;2003.33;571.795;1.96
1123;2000.89;563.738;1.96
1124;1976.17;605.243;1.96
1125;1931.61;575.701;1.96
1126;1911.77;553.972;1.96
1127;1953.89;617.206;1.96
1128;1981.05;579.608;1.96
1129;1990.82;575.701;1.96
1130;1993.26;569.842;1.96
1131;1971.29;585.467;1.96
1132;1938.94;585.467;1.96
1133;1951.45;593.524;1.96
1134;2000.89;557.878;1.96
1135;2025.61;585.467;1.97
1136;2040.26;597.43;1.97
1137;2030.49;544.206;1.97
1138;1998.45;577.654;1.97
1139;1963.66;579.608;1.97
1140;1973.73;585.467;1.97
1141;1998.45;573.748;1.97
1142;2005.77;565.935;1.97
1143;2003.33;567.888;1.97
1144;1976.17;597.43;1.97
1145;1934.05;567.888;1.97
1146;1916.96;563.738;1.97
1147;1953.89;611.347;1.97
1148;1981.05;579.608;1.97
1149;1993.26;571.795;1.97
1150;1990.82;569.842;1.97
1151;1973.73;585.467;1.98
1152;1938.94;593.524;1.98
1153;1951.45;585.467;1.98
1154;2000.89;563.738;1.98
1155;2025.61;589.618;1.98
1156;2037.82;589.618;1.98
1157;2032.93;550.066;1.98
1158;1998.45;577.654;1.98
1159;1963.66;585.467;1.98
1160;1976.17;587.42;1.98
1161;1998.45;573.748;1.98
1162;2005.77;557.878;1.98
1163;2000.89;575.701;1.98
1164;1976.17;593.524;1.98
1165;1926.73;559.832;1.98
1166;1911.77;571.795;1.99
1167;1956.33;605.243;1.99
1168;1981.05;579.608;1.99
1169;1993.26;567.888;1.99
1170;1993.26;571.795;1.99
1171;1973.73;581.561;1.99
1172;1944.12;597.43;1.99
1173;1953.89;581.561;1.99
1174;2008.21;565.935;1.99
1175;2028.05;597.43;1.99
1176;2040.26;579.608;1.99
1177;2032.93;557.878;1.99
1178;1995.7;573.748;1.99
1179;1966.1;573.748;1.99
1180;1976.17;587.42;1.99
1181;2000.89;567.888;1.99
1182;2008.21;571.795;2
1183;2005.77;561.785;2
1184;1978.61;605.243;2
1185;1936.49;573.748;2
1186;1919.4;555.925;2
1187;1956.33;619.16;2
1188;1985.93;579.608;2
1189;1995.7;573.748;2
1190;1998.45;567.888;2
1191;1978.61;583.514;2
1192;1946.57;583.514;2
1193;1958.77;593.524;2
1194;2010.65;553.972;2
1195;2035.37;581.561;2
1196;2045.14;597.43;2
1197;2035.37;542.009;2.01
1198;2000.89;575.701;2.01
1199;1968.54;579.608;2.01
1200;1981.05;587.42;2.01
1201;2008.21;571.795;2.01
1202;2013.1;565.935;2.01
1203;2010.65;567.888;2.01
1204;1981.05;599.384;2.01
1205;1938.94;569.842;2.01
1206;1921.85;559.832;2.01
1207;1963.66;615.253;2.01
1208;1990.82;579.608;2.01
1209;2003.33;571.795;2.01
1210;2003.33;571.795;2.01
1211;1981.05;583.514;2.01
1212;1949.01;591.571;2.02
1213;1966.1;589.618;2.02
1214;2015.54;557.878;2.02
1215;2040.26;589.618;2.02
1216;2052.77;589.618;2.02
1217;2042.7;550.066;2.02
1218;2005.77;577.654;2.02
1219;1976.17;581.561;2.02
1220;1988.38;583.514;2.02
1221;2010.65;571.795;2.02
1222;2015.54;561.785;2.02
1223;2010.65;573.748;2.02
1224;1985.93;593.524;2.02
1225;1938.94;561.785;2.02
1226;1924.29;569.842;2.03
1227;1968.54;609.149;2.03
1228;1993.26;577.654;2.03
1229;2005.77;567.888;2.03
1230;2003.33;571.795;2.03
1231;1983.49;581.561;2.03
1232;1953.89;595.477;2.03
1233;1968.54;583.514;2.03
1234;2020.42;563.738;2.03
1235;2040.26;597.43;2.03
1236;2052.77;583.514;2.03
1237;2042.7;557.878;2.03
1238;2008.21;575.701;2.03
1239;1976.17;587.42;2.03
1240;1990.82;585.467;2.03
1241;2015.54;571.795;2.04
1242;2022.86;563.738;2.04
1243;2017.98;569.842;2.04
1244;1988.38;595.477;2.04
1245;1949.01;563.738;2.04
1246;1931.61;563.738;2.04
1247;1973.73;609.149;2.04
1248;2000.89;575.701;2.04
1249;2010.65;571.795;2.04
1250;2010.65;571.795;2.04
1251;1985.93;583.514;2.04
1252;1956.33;593.524;2.04
1253;1973.73;585.467;2.04
1254;2017.98;559.832;2.04
1255;2045.14;593.524;2.04
1256;2052.77;587.42;2.05
1257;2040.26;550.066;2.05
1258;2010.65;575.701;2.05
1259;1976.17;587.42;2.05
1260;1993.26;585.467;2.05
1261;2015.54;571.795;2.05
1262;2022.86;557.878;2.05
1263;2020.42;577.654;2.05
1264;1990.82;589.618;2.05
1265;1949.01;555.925;2.05
1266;1931.61;571.795;2.05
1267;1973.73;605.243;2.05
1268;1998.45;575.701;2.05
1269;2008.21;567.888;2.05
1270;2008.21;571.795;2.06
1271;1983.49;581.561;2.06
1272;1956.33;581.561;2.06
1273;1976.17;595.477;2.06
1274;2025.61;550.066;2.06
1275;2047.58;577.654;2.06
1276;2060.09;601.337;2.06
1277;2045.14;540.056;2.06
1278;2010.65;573.748;2.06
1279;1981.05;573.748;2.06
1280;1995.7;587.42;2.06
1281;2020.42;567.888;2.06
1282;2025.61;569.842;2.06
1283;2022.86;561.785;2.06
1284;1995.7;601.337;2.06
1285;1951.45;577.654;2.07
1286;1941.38;555.925;2.07
1287;1981.05;619.16;2.07
1288;2005.77;579.608;2.07
1289;2015.54;577.654;2.07
1290;2013.1;569.842;2.07
1291;1988.38;583.514;2.07
1292;1961.21;583.514;2.07
1293;1978.61;591.571;2.07
1294;2030.49;553.972;2.07
1295;2052.77;583.514;2.07
1296;2060.09;595.477;2.07
1297;2050.02;540.056;2.07
1298;2013.1;577.654;2.07
1299;1981.05;579.608;2.07
1300;1998.45;585.467;2.08
1301;2022.86;571.795;2.08
1302;2030.49;563.738;2.08
1303;2025.61;567.888;2.08
1304;1995.7;599.384;2.08
1305;1951.45;567.888;2.08
1306;1938.94;561.785;2.08
1307;1985.93;611.347;2.08
1308;2005.77;577.654;2.08
1309;2017.98;571.795;2.08
1310;2013.1;569.842;2.08
1311;1990.82;581.561;2.08
1312;1958.77;593.524;2.08
1313;1981.05;587.42;2.08
1314;2032.93;559.832;2.09
1315;2057.65;589.618;2.09
1316;2067.42;587.42;2.09
1317;2052.77;550.066;2.09
1318;2017.98;575.701;2.09
1319;1988.38;583.514;2.09
1320;2008.21;585.467;2.09
1321;2032.93;571.795;2.09
1322;2035.37;557.878;2.09
1323;2030.49;573.748;2.09
1324;2000.89;591.571;2.09
1325;1956.33;557.878;2.09
1326;1949.01;567.888;2.09
1327;1990.82;605.243;2.09
1328;2017.98;577.654;2.09
1329;2025.61;571.795;2.1
1330;2022.86;571.795;2.1
1331;2000.89;579.608;2.1
1332;1968.54;597.43;2.1
1333;1993.26;581.561;2.1
1334;2040.26;548.112;2.1
1335;2062.54;577.654;2.1
1336;2072.3;601.337;2.1
1337;2060.09;542.009;2.1
1338;2022.86;573.748;2.1
1339;1993.26;571.795;2.1
1340;2013.1;585.467;2.1
1341;2032.93;567.888;2.1
1342;2040.26;571.795;2.1
1343;2035.37;561.785;2.1
1344;2003.33;603.29;2.11
1345;1958.77;575.701;2.11
1346;1949.01;553.972;2.11
1347;1993.26;617.206;2.11
1348;2015.54;577.654;2.11
1349;2028.05;577.654;2.11
1350;2025.61;567.888;2.11
1351;2000.89;583.514;2.11
1352;1973.73;583.514;2.11
1353;1995.7;593.524;2.11
1354;2042.7;552.019;2.11
1355;2064.98;579.608;2.11
1356;2074.74;595.477;2.11
1357;2060.09;542.009;2.11
1358;2025.61;575.701;2.11
1359;1993.26;579.608;2.12
1360;2013.1;585.467;2.12
1361;2035.37;567.888;2.12
1362;2040.26;563.738;2.12
1363;2035.37;563.738;2.12
1364;2005.77;599.384;2.12
1365;1961.21;569.842;2.12
1366;1951.45;559.832;2.12
1367;1998.45;613.3;2.12
1368;2017.98;577.654;2.12
1369;2030.49;573.748;2.12
1370;2030.49;567.888;2.12
1371;2003.33;583.514;2.12
1372;1976.17;587.42;2.12
1373;1998.45;589.618;2.13
1374;2045.14;555.925;2.13
1375;2069.86;587.42;2.13
1376;2079.93;589.618;2.13
1377;2064.98;546.159;2.13
1378;2030.49;575.701;2.13
1379;2000.89;581.561;2.13
1380;2020.42;587.42;2.13
1381;2040.26;571.795;2.13
1382;2047.58;557.878;2.13
1383;2042.7;571.795;2.13
1384;2010.65;593.524;2.13
1385;1966.1;559.832;2.13
1386;1958.77;567.888;2.13
1387;2000.89;607.196;2.13
1388;2025.61;575.701;2.14
1389;2035.37;567.888;2.14
1390;2030.49;569.842;2.14
1391;2003.33;581.561;2.14
1392;1976.17;597.43;2.14
1393;2003.33;583.514;2.14
1394;2052.77;563.738;2.14
1395;2077.19;599.384;2.14
1396;2089.7;579.608;2.14
1397;2069.86;542.009;2.14
1398;2032.93;575.701;2.14
1399;2008.21;579.608;2.14
1400;2022.86;583.514;2.14
1401;2047.58;571.795;2.14
1402;2052.77;561.785;2.14
1403;2047.58;569.842;2.15
1404;2013.1;595.477;2.15
1405;1971.29;563.738;2.15
1406;1963.66;563.738;2.15
1407;2010.65;609.149;2.15
1408;2032.93;575.701;2.15
1409;2042.7;569.842;2.15
1410;2040.26;567.888;2.15
1411;2013.1;581.561;2.15
1412;1983.49;593.524;2.15
1413;2010.65;585.467;2.15
1414;2060.09;559.832;2.15
1415;2079.93;589.618;2.15
1416;2089.7;587.42;2.15
1417;2072.3;550.066;2.15
1418;2040.26;575.701;2.16
1419;2010.65;583.514;2.16
1420;2030.49;583.514;2.16
1421;2052.77;571.795;2.16
1422;2057.65;555.925;2.16
1423;2050.02;573.748;2.16
1424;2017.98;589.618;2.16
1425;1971.29;555.925;2.16
1426;1968.54;571.795;2.16
1427;2015.54;603.29;2.16
1428;2040.26;579.608;2.16
1429;2050.02;579.608;2.16
1430;2045.14;565.935;2.16
1431;2017.98;585.467;2.16
1432;1988.38;579.608;2.17
1433;2013.1;599.384;2.17
1434;2062.54;550.066;2.17
1435;2084.81;575.701;2.17
1436;2092.14;603.29;2.17
1437;2079.93;540.056;2.17
1438;2047.58;573.748;2.17
1439;2015.54;573.748;2.17
1440;2025.61;587.42;2.17
1441;2052.77;567.888;2.17
1442;2057.65;569.842;2.17
1443;2057.65;559.832;2.17
1444;2022.86;603.29;2.17
1445;1983.49;573.748;2.17
1446;1963.66;552.019;2.17
1447;2008.21;617.206;2.17
1448;2037.82;577.654;2.18
1449;2047.58;573.748;2.18
1450;2047.58;567.888;2.18
1451;2022.86;583.514;2.18
1452;1993.26;581.561;2.18
1453;2008.21;593.524;2.18
1454;2060.09;552.019;2.18
1455;2082.37;583.514;2.18
1456;2094.58;595.477;2.18
1457;2082.37;544.206;2.18
1458;2047.58;573.748;2.18
1459;2015.54;575.701;2.18
1460;2030.49;585.467;2.18
1461;2055.21;569.842;2.18
1462;2062.54;561.785;2.19
1463;2060.09;565.935;2.19
1464;2030.49;597.43;2.19
1465;1988.38;565.935;2.19
1466;1971.29;561.785;2.19
1467;2013.1;611.347;2.19
1468;2042.7;575.701;2.19
1469;2052.77;569.842;2.19
1470;2050.02;567.888;2.19
1471;2030.49;581.561;2.19
1472;2000.89;591.571;2.19
1473;2015.54;585.467;2.19
1474;2067.42;557.878;2.19
1475;2089.7;587.42;2.19
1476;2104.35;585.467;2.2
1477;2087.26;546.159;2.2
1478;2052.77;573.748;2.2
1479;2020.42;581.561;2.2
1480;2037.82;585.467;2.2
1481;2060.09;569.842;2.2
1482;2064.98;555.925;2.2
1483;2062.54;571.795;2.2
1484;2035.37;591.571;2.2
1485;1990.82;557.878;2.2
1486;1978.61;569.842;2.2
1487;2020.42;605.243;2.2
1488;2045.14;575.701;2.2
1489;2060.09;565.935;2.21
1490;2055.21;567.888;2.21
1491;2032.93;587.42;2.21
1492;1998.45;575.701;2.21
1493;2017.98;599.384;2.21
1494;2069.86;548.112;2.21
1495;2092.14;573.748;2.21
1496;2107.09;601.337;2.21
1497;2092.14;540.056;2.21
1498;2057.65;573.748;2.21
1499;2022.86;571.795;2.21
1500;2040.26;585.467;2.21
1501;2067.42;567.888;2.21
1502;2072.3;569.842;2.21
1503;2069.86;555.925;2.22
1504;2037.82;603.29;2.22
1505;1993.26;573.748;2.22
1506;1978.61;550.066;2.22
1507;2022.86;615.253;2.22
1508;2047.58;575.701;2.22
1509;2060.09;575.701;2.22
1510;2057.65;565.935;2.22
1511;2035.37;583.514;2.22
1512;2005.77;581.561;2.22
1513;2022.86;591.571;2.22
1514;2074.74;550.066;2.22
1515;2097.02;579.608;2.22
1516;2109.53;595.477;2.23
1517;2097.02;540.056;2.23
1518;2062.54;573.748;2.23
1519;2028.05;575.701;2.23
1520;2045.14;583.514;2.23
1521;2067.42;567.888;2.23
1522;2074.74;565.935;2.23
1523;2069.86;561.785;2.23
1524;2040.26;595.477;2.23
1525;1995.7;563.738;2.23
1526;1983.49;557.878;2.23
1527;2028.05;613.3;2.23
1528;2055.21;573.748;2.23
1529;2064.98;569.842;2.24
1530;2062.54;567.888;2.24
1531;2040.26;579.608;2.24
1532;2010.65;587.42;2.24
1533;2030.49;585.467;2.24
1534;2077.19;555.925;2.24
1535;2099.46;587.42;2.24
1536;2111.98;589.618;2.24
1537;2099.46;546.159;2.24
1538;2062.54;571.795;2.24
1539;2030.49;579.608;2.24
1540;2047.58;581.561;2.24
1541;2069.86;569.842;2.24
1542;2077.19;557.878;2.24
1543;2074.74;569.842;2.25
1544;2042.7;591.571;2.25
1545;1998.45;557.878;2.25
1546;1983.49;565.935;2.25
1547;2032.93;607.196;2.25
1548;2057.65;575.701;2.25
1549;2067.42;567.888;2.25
1550;2064.98;567.888;2.25
1551;2040.26;579.608;2.25
1552;2010.65;595.477;2.25
1553;2030.49;589.618;2.25
1554;2082.37;552.019;2.25
1555;2107.09;583.514;2.26
1556;2114.42;593.524;2.26
1557;2101.91;540.056;2.26
1558;2067.42;575.701;2.26
1559;2037.82;577.654;2.26
1560;2055.21;583.514;2.26
1561;2077.19;569.842;2.26
1562;2084.81;559.832;2.26
1563;2079.93;565.935;2.26
1564;2050.02;595.477;2.26
1565;2005.77;561.785;2.26
1566;1993.26;559.832;2.26
1567;2040.26;611.347;2.26
1568;2064.98;573.748;2.27
1569;2074.74;567.888;2.27
1570;2074.74;567.888;2.27
1571;2050.02;581.561;2.27
1572;2017.98;589.618;2.27
1573;2040.26;583.514;2.27
1574;2089.7;557.878;2.27
1575;2114.42;589.618;2.27
1576;2126.63;585.467;2.27
1577;2111.98;546.159;2.27
1578;2072.3;571.795;2.27
1579;2042.7;579.608;2.27
1580;2060.09;581.561;2.28
1581;2084.81;569.842;2.28
1582;2089.7;555.925;2.28
1583;2084.81;571.795;2.28
1584;2055.21;603.29;2.28
1585;2010.65;575.701;2.28
1586;2000.89;548.112;2.28
1587;2045.14;607.196;2.28
1588;2069.86;577.654;2.28
1589;2079.93;577.654;2.28
1590;2077.19;563.738;2.28
1591;2050.02;585.467;2.28
1592;2020.42;575.701;2.29
1593;2045.14;593.524;2.29
1594;2094.58;548.112;2.29
1595;2116.86;573.748;2.29
1596;2129.07;599.384;2.29
1597;2114.42;538.102;2.29
1598;2077.19;571.795;2.29
1599;2047.58;571.795;2.29
1600;2067.42;583.514;2.29
1601;2089.7;567.888;2.29
1602;2094.58;567.888;2.29
1603;2089.7;553.972;2.29
1604;2057.65;601.337;2.3
1605;2013.1;571.795;2.3
1606;2003.33;550.066;2.3
1607;2050.02;613.3;2.3
1608;2074.74;573.748;2.3
1609;2084.81;571.795;2.3
1610;2079.93;563.738;2.3
1611;2057.65;581.561;2.3
1612;2022.86;579.608;2.3
1613;2050.02;589.618;2.3
1614;2099.46;550.066;2.3
1615;2124.18;579.608;2.3
1616;2134.25;589.618;2.31
1617;2119.3;540.056;2.31
1618;2077.19;573.748;2.31
1619;2052.77;575.701;2.31
1620;2069.86;585.467;2.31
1621;2094.58;565.935;2.31
1622;2099.46;561.785;2.31
1623;2097.02;561.785;2.31
1624;2062.54;595.477;2.31
1625;2017.98;563.738;2.31
1626;2010.65;557.878;2.31
1627;2055.21;609.149;2.31
1628;2082.37;573.748;2.32
1629;2092.14;569.842;2.32
1630;2094.58;565.935;2.32
1631;2074.74;577.654;2.32
1632;2040.26;583.514;2.32
1633;2042.7;585.467;2.32
1634;2094.58;555.925;2.32
1635;2124.18;587.42;2.32
1636;2139.14;583.514;2.32
1637;2134.25;544.206;2.32
1638;2104.35;573.748;2.32
1639;2067.42;577.654;2.33
1640;2062.54;583.514;2.33
1641;2097.02;567.888;2.33
1642;2104.35;553.972;2.33
1643;2107.09;569.842;2.33
1644;2084.81;589.618;2.33
1645;2040.26;555.925;2.33
1646;2008.21;563.738;2.33
1647;2045.14;605.243;2.33
1648;2079.93;575.701;2.33
1649;2094.58;577.654;2.33
1650;2097.02;561.785;2.34
1651;2079.93;585.467;2.34
1652;2047.58;573.748;2.34
1653;2050.02;593.524;2.34
1654;2101.91;548.112;2.34
1655;2134.25;569.842;2.34
1656;2146.46;601.337;2.34
1657;2141.58;538.102;2.34
1658;2111.98;569.842;2.34
1659;2069.86;569.842;2.34
1660;2072.3;585.467;2.34
1661;2107.09;561.785;2.34
1662;2116.86;569.842;2.35
1663;2114.42;555.925;2.35
1664;2092.14;601.337;2.35
1665;2050.02;571.795;2.35
1666;2017.98;548.112;2.35
1667;2052.77;611.347;2.35
1668;2087.26;573.748;2.35
1669;2099.46;573.748;2.35
1670;2101.91;563.738;2.35
1671;2084.81;581.561;2.35
1672;2052.77;577.654;2.36
1673;2052.77;593.524;2.36
1674;2109.53;546.159;2.36
1675;2139.14;577.654;2.36
1676;2153.79;591.571;2.36
1677;2151.35;536.149;2.36
1678;2119.3;571.795;2.36
