<WeldAnalyseData xmlns:i="http:www.w3.org/2001/XMLSchema-instance">
<WeldParameter>
<TimeStamp>DT#2024-01-25-15:29:26</TimeStamp>
<Generator>SG-22-10000</Generator>
<GenFreq>20</GenFreq>
<MaxForce>8000</MaxForce>
<MaxPower>10000</MaxPower>
<RunupPressure>1.5</RunupPressure>
<RunupDist>10</RunupDist>
<RunPress>0.8</RunPress>
<ShakeDelay>0.03</ShakeDelay>
<ShakeTime>0.3</ShakeTime>
<RunBackPress1>6</RunBackPress1>
<RunBackPress2>2</RunBackPress2>
<RunBackDist>1</RunBackDist>
<TrigValue>500</TrigValue>
<TrigModeUnit>W</TrigModeUnit>
<WeldModeUnit>Ws</WeldModeUnit>
<PressNr>0</PressNr>
<MaxLoss>1500</MaxLoss>
</WeldParameter>
<WeldSets>
<WeldSet>
<PressRiseTime>0</PressRiseTime>
<RunPressure>1</RunPressure>
<Amplitude>86</Amplitude>
<WeldMode>3270</WeldMode>
</WeldSet>
</WeldSets>
<WeldValue>
<WeldNr>3048</WeldNr>
<RecipeName>RickStyle</RecipeName>
<WeldTime>1673</WeldTime>
<DistDiff>2.35</DistDiff>
<DistAbs>78.03</DistAbs>
<Energy>3271.58</Energy>
<MaxPower>2139.71</MaxPower>
<CycleTime>6010</CycleTime>
<TrigForce>500.748</TrigForce>
<TrigDist>75.68</TrigDist>
<RunSpeed>68.2417</RunSpeed>
<MaxForce>617.206</MaxForce>
<LossPower>324.355</LossPower>
</WeldValue>
</WeldAnalyseData>
#CSV-START#
ms;Power[W];Force[N];Distance[mm]
1;0;0;0
2;0;502.701;0
3;0;500.748;0
4;0;504.654;0
5;0;504.654;0
6;0;502.701;0
7;0;502.701;0
8;0;475.112;0
9;0;423.597;0.0199966
10;0;396.008;0.0400009
11;0;374.279;0.0699997
12;36.0691;348.643;0.110001
13;102.599;330.821;0.150002
14;188.967;309.091;0.190002
15;258.244;305.185;0.239998
16;317.45;287.362;0.279999
17;362.007;291.269;0.330002
18;430.979;257.82;0.389999
19;500.256;271.737;0.440002
20;566.786;297.372;0.489998
21;628.433;261.727;0.529999
22;690.386;283.456;0.57
23;752.033;295.419;0.599998
24;816.122;314.951;0.629997
25;895.165;311.045;0.659996
26;959.559;328.867;0.68
27;1021.21;324.961;0.690002
28;1070.65;372.326;0.709999
29;1100.25;380.139;0.709999
30;1122.53;364.513;0.720001
31;1169.22;413.831;0.720001
32;1221.1;411.878;0.730003
33;1255.59;419.691;0.730003
34;1282.75;407.971;0.730003
35;1307.47;427.503;0.730003
36;1312.66;421.644;0.739998
37;1327.31;445.326;0.739998
38;1381.63;409.925;0.75
39;1428.63;423.597;0.75
40;1468;457.289;0.760002
41;1497.6;407.971;0.760002
42;1505.23;429.456;0.769997
43;1502.79;427.503;0.769997
44;1517.44;443.373;0.769997
45;1561.99;421.644;0.779999
46;1591.6;435.56;0.779999
47;1618.76;415.784;0.790001
48;1633.41;467.055;0.790001
49;1621.2;447.279;0.800003
50;1611.43;415.784;0.800003
51;1645.92;472.915;0.809998
52;1697.8;449.232;0.82
53;1729.85;449.232;0.82
54;1749.68;435.56;0.830002
55;1761.89;447.279;0.830002
56;1757.01;451.186;0.839996
57;1761.89;475.112;0.849998
58;1818.66;451.186;0.849998
59;1865.65;447.279;0.860001
60;1897.7;488.784;0.860001
61;1915.09;457.289;0.870003
62;1905.02;453.383;0.870003
63;1880.3;465.102;0.879997
64;1882.74;479.019;0.879997
65;1915.09;469.008;0.889999
66;1942.26;467.055;0.889999
67;1956.9;449.232;0.900002
68;1952.02;486.831;0.900002
69;1922.42;484.878;0.909996
70;1892.82;447.279;0.909996
71;1922.42;494.644;0.909996
72;1966.98;492.691;0.919998
73;1991.39;490.738;0.919998
74;2003.9;472.915;0.93
75;1994.14;494.644;0.93
76;1974.3;490.738;0.93
77;1964.23;516.373;0.940002
78;2018.55;479.019;0.940002
79;2055.78;484.878;0.949997
80;2078.06;522.477;0.949997
81;2082.95;475.112;0.949997
82;2060.67;484.878;0.959999
83;2026.18;486.831;0.959999
84;2021.3;506.607;0.959999
85;2048.46;484.878;0.970001
86;2067.99;496.597;0.970001
87;2078.06;475.112;0.980003
88;2063.11;516.373;0.980003
89;2028.62;506.607;0.980003
90;1994.14;469.008;0.989998
91;2016.11;524.43;0.989998
92;2058.23;512.467;0.989998
93;2080.5;514.42;0.989998
94;2087.83;494.644;1
95;2075.62;520.524;1
96;2043.27;508.56;1
97;2033.51;536.149;1.01
98;2082.95;492.691;1.01
99;2119.87;506.607;1.01
100;2139.71;544.206;1.02
101;2139.71;486.831;1.02
102;2110.11;508.56;1.02
103;2072.87;506.607;1.02
104;2065.55;524.43;1.03
105;2095.15;498.795;1.03
106;2110.11;512.467;1.03
107;2110.11;492.691;1.04
108;2095.15;540.056;1.04
109;2050.9;520.524;1.04
110;2011.23;484.878;1.04
111;2035.95;546.159;1.05
112;2072.87;520.524;1.05
113;2087.83;520.524;1.05
114;2090.27;506.607;1.06
115;2075.62;514.42;1.06
116;2043.27;518.326;1.06
117;2028.62;544.206;1.06
118;2080.5;516.373;1.07
119;2110.11;510.514;1.07
120;2124.76;548.112;1.07
121;2124.76;512.467;1.07
122;2095.15;508.56;1.08
123;2055.78;518.326;1.08
124;2048.46;532.243;1.08
125;2078.06;520.524;1.08
126;2092.71;520.524;1.09
127;2095.15;498.795;1.09
128;2080.5;536.149;1.09
129;2043.27;530.29;1.09
130;2013.67;494.644;1.1
131;2045.71;538.102;1.1
132;2085.39;538.102;1.1
133;2097.59;534.196;1.1
134;2097.59;514.42;1.1
135;2080.5;536.149;1.11
136;2043.27;526.383;1.11
137;2028.62;555.925;1.11
138;2075.62;518.326;1.11
139;2102.78;522.477;1.12
140;2114.99;561.785;1.12
141;2112.55;512.467;1.12
142;2080.5;520.524;1.12
143;2040.83;520.524;1.13
144;2031.06;540.056;1.13
145;2058.23;518.326;1.13
146;2065.55;528.336;1.13
147;2067.99;504.654;1.13
148;2048.46;546.159;1.14
149;2003.9;536.149;1.14
150;1969.42;498.795;1.14
151;1994.14;552.019;1.14
152;2031.06;540.056;1.15
153;2043.27;540.056;1.15
154;2045.71;520.524;1.15
155;2031.06;544.206;1.15
156;1996.58;532.243;1.15
157;1988.95;561.785;1.16
158;2038.39;516.373;1.16
159;2067.99;528.336;1.16
160;2080.5;569.842;1.16
161;2078.06;510.514;1.16
162;2048.46;532.243;1.16
163;2008.79;526.383;1.17
164;2003.9;550.066;1.17
165;2031.06;526.383;1.17
166;2043.27;536.149;1.17
167;2043.27;516.373;1.17
168;2023.74;561.785;1.18
169;1984.07;540.056;1.18
170;1949.58;510.514;1.18
171;1979.18;567.888;1.18
172;2011.23;544.206;1.18
173;2026.18;542.009;1.18
174;2028.62;528.336;1.19
175;2013.67;553.972;1.19
176;1981.62;542.009;1.19
177;1979.18;569.842;1.19
178;2023.74;532.243;1.19
179;2055.78;538.102;1.19
180;2070.43;577.654;1.2
181;2065.55;522.477;1.2
182;2038.39;536.149;1.2
183;1999.02;530.29;1.2
184;1999.02;552.019;1.2
185;2013.67;532.243;1.2
186;2035.95;542.009;1.21
187;2038.39;518.326;1.21
188;2028.62;567.888;1.21
189;1994.14;548.112;1.21
190;1952.02;512.467;1.21
191;1956.9;569.842;1.21
192;1996.58;550.066;1.21
193;2011.23;548.112;1.22
194;2021.3;532.243;1.22
195;2013.67;553.972;1.22
196;1984.07;544.206;1.22
197;1959.35;571.795;1.22
198;1994.14;524.43;1.22
199;2031.06;542.009;1.23
200;2050.9;579.608;1.23
201;2055.78;520.524;1.23
202;2033.51;544.206;1.23
203;1999.02;542.009;1.23
204;1976.74;557.878;1.23
205;2001.46;534.196;1.23
206;2016.11;544.206;1.24
207;2021.3;522.477;1.24
208;2011.23;555.925;1.24
209;1974.3;557.878;1.24
210;1932.18;520.524;1.24
211;1939.81;557.878;1.24
212;1981.62;561.785;1.24
213;1999.02;552.019;1.25
214;2006.34;538.102;1.25
215;1996.58;553.972;1.25
216;1969.42;552.019;1.25
217;1947.14;575.701;1.25
218;1984.07;544.206;1.25
219;2021.3;544.206;1.25
220;2038.39;581.561;1.26
221;2045.71;540.056;1.26
222;2023.74;540.056;1.26
223;1986.51;544.206;1.26
224;1966.98;561.785;1.26
225;1988.95;542.009;1.26
226;2008.79;548.112;1.26
227;2011.23;524.43;1.27
228;2001.46;567.888;1.27
229;1966.98;555.925;1.27
230;1924.86;520.524;1.27
231;1934.63;569.842;1.27
232;1974.3;559.832;1.27
233;1991.39;559.832;1.27
234;2001.46;540.056;1.28
235;1991.39;563.738;1.28
236;1966.98;552.019;1.28
237;1942.26;581.561;1.28
238;1981.62;540.056;1.28
239;2018.55;548.112;1.28
240;2035.95;585.467;1.28
241;2043.27;534.196;1.28
242;2018.55;550.066;1.29
243;1984.07;548.112;1.29
244;1964.23;563.738;1.29
245;1988.95;542.009;1.29
246;2003.9;552.019;1.29
247;2006.34;530.29;1.29
248;1994.14;575.701;1.29
249;1961.79;557.878;1.3
250;1919.98;524.43;1.3
251;1929.74;583.514;1.3
252;1969.42;561.785;1.3
253;1986.51;565.935;1.3
254;1994.14;546.159;1.3
255;1984.07;569.842;1.3
256;1956.9;555.925;1.3
257;1937.07;583.514;1.31
258;1976.74;536.149;1.31
259;2011.23;553.972;1.31
260;2026.18;589.618;1.31
261;2031.06;528.336;1.31
262;2008.79;553.972;1.31
263;1974.3;553.972;1.31
264;1954.46;569.842;1.31
265;1979.18;548.112;1.32
266;1991.39;557.878;1.32
267;2001.46;534.196;1.32
268;1986.51;565.935;1.32
269;1949.58;565.935;1.32
270;1909.91;532.243;1.32
271;1919.98;567.888;1.32
272;1959.35;575.701;1.32
273;1976.74;565.935;1.33
274;1984.07;552.019;1.33
275;1974.3;567.888;1.33
276;1947.14;561.785;1.33
277;1927.3;585.467;1.33
278;1966.98;555.925;1.33
279;2001.46;555.925;1.33
280;2018.55;591.571;1.33
281;2018.55;548.112;1.33
282;1999.02;552.019;1.34
283;1961.79;555.925;1.34
284;1947.14;575.701;1.34
285;1974.3;553.972;1.34
286;1986.51;561.785;1.34
287;1991.39;540.056;1.34
288;1979.18;577.654;1.34
289;1942.26;569.842;1.34
290;1902.58;532.243;1.35
291;1917.54;583.514;1.35
292;1956.9;575.701;1.35
293;1971.86;573.748;1.35
294;1979.18;553.972;1.35
295;1969.42;577.654;1.35
296;1939.81;567.888;1.35
297;1924.86;595.477;1.35
298;1964.23;555.925;1.35
299;1999.02;563.738;1.36
300;2016.11;599.384;1.36
301;2018.55;546.159;1.36
302;1996.58;561.785;1.36
303;1959.35;561.785;1.36
304;1947.14;579.608;1.36
305;1974.3;557.878;1.36
306;1986.51;569.842;1.36
307;1986.51;546.159;1.37
308;1976.74;597.43;1.37
309;1937.07;575.701;1.37
310;1905.02;540.056;1.37
311;1917.54;595.477;1.37
312;1956.9;575.701;1.37
313;1969.42;577.654;1.37
314;1979.18;561.785;1.37
315;1969.42;585.467;1.37
316;1939.81;575.701;1.38
317;1922.42;597.43;1.38
318;1961.79;552.019;1.38
319;1999.02;571.795;1.38
320;2013.67;603.29;1.38
321;2016.11;548.112;1.38
322;1994.14;569.842;1.38
323;1956.9;565.935;1.38
324;1944.7;585.467;1.38
325;1971.86;563.738;1.38
326;1984.07;571.795;1.39
327;1988.95;553.972;1.39
328;1976.74;605.243;1.39
329;1939.81;581.561;1.39
330;1900.14;542.009;1.39
331;1919.98;595.477;1.39
332;1954.46;581.561;1.39
333;1969.42;585.467;1.39
334;1979.18;565.935;1.39
335;1966.98;589.618;1.4
336;1937.07;579.608;1.4
337;1922.42;603.29;1.4
338;1964.23;557.878;1.4
339;1999.02;575.701;1.4
340;2013.67;609.149;1.4
341;2016.11;552.019;1.4
342;1994.14;571.795;1.4
343;1956.9;569.842;1.4
344;1942.26;585.467;1.41
345;1969.42;567.888;1.41
346;1979.18;577.654;1.41
347;1986.51;555.925;1.41
348;1969.42;605.243;1.41
349;1932.18;581.561;1.41
350;1895.26;548.112;1.41
351;1915.09;607.196;1.41
352;1949.58;581.561;1.41
353;1966.98;583.514;1.41
354;1974.3;567.888;1.42
355;1964.23;589.618;1.42
356;1932.18;579.608;1.42
357;1919.98;603.29;1.42
358;1961.79;553.972;1.42
359;1994.14;577.654;1.42
360;2008.79;607.196;1.42
361;2013.67;571.795;1.42
362;1988.95;567.888;1.42
363;1952.02;575.701;1.42
364;1942.26;591.571;1.43
365;1969.42;579.608;1.43
366;1981.62;575.701;1.43
367;1981.62;555.925;1.43
368;1966.98;591.571;1.43
369;1929.74;585.467;1.43
370;1897.7;550.066;1.43
371;1917.54;593.524;1.43
372;1949.58;591.571;1.43
373;1966.98;585.467;1.43
374;1974.3;567.888;1.44
375;1959.35;591.571;1.44
376;1932.18;581.561;1.44
377;1919.98;607.196;1.44
378;1961.79;571.795;1.44
379;1994.14;573.748;1.44
380;2011.23;613.3;1.44
381;2011.23;567.888;1.44
382;1986.51;573.748;1.44
383;1949.58;573.748;1.44
384;1942.26;591.571;1.45
385;1969.42;571.795;1.45
386;1979.18;577.654;1.45
387;1984.07;553.972;1.45
388;1969.42;595.477;1.45
389;1927.3;583.514;1.45
390;1895.26;548.112;1.45
391;1917.54;601.337;1.45
392;1952.02;587.42;1.45
393;1966.98;587.42;1.45
394;1969.42;571.795;1.45
395;1959.35;593.524;1.46
396;1929.74;579.608;1.46
397;1917.54;607.196;1.46
398;1961.79;563.738;1.46
399;1991.39;577.654;1.46
400;2003.9;613.3;1.46
401;2006.34;555.925;1.46
402;1979.18;575.701;1.46
403;1942.26;573.748;1.46
404;1937.07;593.524;1.46
405;1964.23;569.842;1.46
406;1971.86;577.654;1.47
407;1976.74;555.925;1.47
408;1961.79;605.243;1.47
409;1924.86;585.467;1.47
410;1890.37;550.066;1.47
411;1915.09;611.347;1.47
412;1947.14;585.467;1.47
413;1961.79;585.467;1.47
414;1966.98;571.795;1.47
415;1952.02;593.524;1.47
416;1924.86;581.561;1.47
417;1915.09;605.243;1.47
418;1959.35;555.925;1.48
419;1991.39;579.608;1.48
420;2006.34;609.149;1.48
421;2006.34;571.795;1.48
422;1979.18;567.888;1.48
423;1947.14;575.701;1.48
424;1939.81;591.571;1.48
425;1966.98;577.654;1.48
426;1974.3;575.701;1.48
427;1979.18;557.878;1.48
428;1964.23;591.571;1.48
429;1924.86;587.42;1.48
430;1892.82;550.066;1.49
431;1917.54;593.524;1.49
432;1949.58;593.524;1.49
433;1964.23;583.514;1.49
434;1969.42;569.842;1.49
435;1954.46;593.524;1.49
436;1924.86;585.467;1.49
437;1919.98;607.196;1.49
438;1961.79;571.795;1.49
439;1994.14;575.701;1.49
440;2008.79;615.253;1.49
441;2006.34;563.738;1.5
442;1979.18;573.748;1.5
443;1944.7;573.748;1.5
444;1942.26;591.571;1.5
445;1966.98;569.842;1.5
446;1976.74;577.654;1.5
447;1979.18;553.972;1.5
448;1959.35;597.43;1.5
449;1924.86;585.467;1.5
450;1892.82;548.112;1.5
451;1917.54;605.243;1.5
452;1949.58;589.618;1.5
453;1961.79;589.618;1.5
454;1966.98;569.842;1.51
455;1952.02;591.571;1.51
456;1924.86;583.514;1.51
457;1915.09;605.243;1.51
458;1964.23;561.785;1.51
459;1991.39;577.654;1.51
460;2006.34;615.253;1.51
461;2003.9;555.925;1.51
462;1976.74;577.654;1.51
463;1942.26;575.701;1.51
464;1937.07;593.524;1.51
465;1966.98;569.842;1.51
466;1976.74;579.608;1.52
467;1976.74;557.878;1.52
468;1959.35;607.196;1.52
469;1919.98;585.467;1.52
470;1887.93;550.066;1.52
471;1919.98;611.347;1.52
472;1947.14;583.514;1.52
473;1959.35;585.467;1.52
474;1961.79;569.842;1.52
475;1947.14;593.524;1.52
476;1919.98;581.561;1.52
477;1915.09;605.243;1.52
478;1961.79;555.925;1.52
479;1991.39;579.608;1.53
480;2006.34;611.347;1.53
481;2003.9;548.112;1.53
482;1976.74;579.608;1.53
483;1937.07;573.748;1.53
484;1937.07;591.571;1.53
485;1964.23;571.795;1.53
486;1971.86;579.608;1.53
487;1974.3;557.878;1.53
488;1956.9;605.243;1.53
489;1917.54;587.42;1.53
490;1890.37;550.066;1.53
491;1917.54;605.243;1.53
492;1947.14;587.42;1.54
493;1959.35;587.42;1.54
494;1964.23;571.795;1.54
495;1947.14;595.477;1.54
496;1917.54;581.561;1.54
497;1917.54;605.243;1.54
498;1961.79;559.832;1.54
499;1991.39;579.608;1.54
500;2003.9;613.3;1.54
501;2001.46;553.972;1.54
502;1974.3;579.608;1.54
503;1937.07;577.654;1.54
504;1939.81;595.477;1.54
505;1964.23;569.842;1.55
506;1971.86;579.608;1.55
507;1976.74;559.832;1.55
508;1954.46;609.149;1.55
509;1912.65;585.467;1.55
510;1887.93;552.019;1.55
511;1917.54;615.253;1.55
512;1947.14;585.467;1.55
513;1959.35;585.467;1.55
514;1964.23;573.748;1.55
515;1947.14;591.571;1.55
516;1932.18;583.514;1.55
517;1909.91;607.196;1.55
518;1944.7;579.608;1.56
519;1981.62;573.748;1.56
520;1996.58;613.3;1.56
521;2006.34;569.842;1.56
522;1984.07;571.795;1.56
523;1949.58;575.701;1.56
524;1929.74;595.477;1.56
525;1956.9;575.701;1.56
526;1966.98;579.608;1.56
527;1974.3;557.878;1.56
528;1966.98;595.477;1.56
529;1929.74;585.467;1.56
530;1892.82;553.972;1.56
531;1902.58;599.384;1.56
532;1937.07;593.524;1.57
533;1954.46;589.618;1.57
534;1959.35;573.748;1.57
535;1954.46;595.477;1.57
536;1927.3;585.467;1.57
537;1907.46;613.3;1.57
538;1942.26;571.795;1.57
539;1979.18;577.654;1.57
540;1996.58;615.253;1.57
541;2001.46;561.785;1.57
542;1981.62;577.654;1.57
543;1947.14;575.701;1.57
544;1929.74;593.524;1.57
545;1952.02;569.842;1.58
546;1969.42;581.561;1.58
547;1971.86;557.878;1.58
548;1961.79;607.196;1.58
549;1924.86;585.467;1.58
550;1887.93;552.019;1.58
551;1905.02;609.149;1.58
552;1937.07;587.42;1.58
553;1954.46;589.618;1.58
554;1961.79;571.795;1.58
555;1952.02;595.477;1.58
556;1927.3;583.514;1.58
557;1907.46;609.149;1.58
558;1944.7;561.785;1.59
559;1981.62;579.608;1.59
560;1996.58;617.206;1.59
561;2001.46;555.925;1.59
562;1981.62;579.608;1.59
563;1944.7;577.654;1.59
564;1929.74;597.43;1.59
565;1954.46;571.795;1.59
566;1966.98;583.514;1.59
567;1969.42;561.785;1.59
568;1959.35;609.149;1.59
569;1927.3;583.514;1.59
570;1887.93;555.925;1.59
571;1902.58;617.206;1.59
572;1937.07;583.514;1.6
573;1952.02;587.42;1.6
574;1959.35;573.748;1.6
575;1949.58;589.618;1.6
576;1922.42;585.467;1.6
577;1905.02;609.149;1.6
578;1947.14;577.654;1.6
579;1979.18;577.654;1.6
580;1996.58;613.3;1.6
581;1999.02;573.748;1.6
582;1979.18;571.795;1.6
583;1942.26;577.654;1.6
584;1924.86;591.571;1.6
585;1954.46;571.795;1.6
586;1964.23;577.654;1.61
587;1971.86;555.925;1.61
588;1959.35;593.524;1.61
589;1924.86;587.42;1.61
590;1890.37;552.019;1.61
591;1902.58;597.43;1.61
592;1939.81;593.524;1.61
593;1954.46;587.42;1.61
594;1961.79;571.795;1.61
595;1954.46;593.524;1.61
596;1924.86;585.467;1.61
597;1909.91;607.196;1.61
598;1947.14;571.795;1.61
599;1979.18;577.654;1.62
600;1996.58;613.3;1.62
601;1999.02;563.738;1.62
602;1976.74;575.701;1.62
603;1942.26;573.748;1.62
604;1927.3;591.571;1.62
605;1954.46;567.888;1.62
606;1964.23;579.608;1.62
607;1969.42;555.925;1.62
608;1956.9;603.29;1.62
609;1922.42;585.467;1.62
610;1887.93;550.066;1.62
611;1905.02;605.243;1.62
612;1939.81;585.467;1.62
613;1956.9;587.42;1.63
614;1959.35;569.842;1.63
615;1952.02;593.524;1.63
616;1922.42;583.514;1.63
617;1907.46;607.196;1.63
618;1947.14;557.878;1.63
619;1981.62;577.654;1.63
620;1994.14;611.347;1.63
621;1999.02;555.925;1.63
622;1974.3;577.654;1.63
623;1939.81;573.748;1.63
624;1929.74;593.524;1.63
625;1954.46;569.842;1.63
626;1969.42;581.561;1.64
627;1971.86;557.878;1.64
628;1959.35;609.149;1.64
629;1924.86;585.467;1.64
630;1887.93;552.019;1.64
631;1907.46;613.3;1.64
632;1944.7;583.514;1.64
633;1956.9;585.467;1.64
634;1964.23;571.795;1.64
635;1952.02;593.524;1.64
636;1924.86;585.467;1.64
637;1907.46;609.149;1.64
638;1952.02;563.738;1.64
639;1984.07;577.654;1.64
640;1999.02;615.253;1.65
641;1999.02;557.878;1.65
642;1974.3;575.701;1.65
643;1942.26;573.748;1.65
644;1927.3;593.524;1.65
645;1954.46;569.842;1.65
646;1964.23;577.654;1.65
647;1969.42;555.925;1.65
648;1956.9;605.243;1.65
649;1919.98;583.514;1.65
650;1885.49;548.112;1.65
651;1907.46;609.149;1.65
652;1939.81;585.467;1.65
653;1952.02;585.467;1.65
654;1961.79;569.842;1.66
655;1949.58;591.571;1.66
656;1919.98;579.608;1.66
657;1907.46;605.243;1.66
658;1949.58;553.972;1.66
659;1984.07;579.608;1.66
660;1996.58;609.149;1.66
661;1999.02;548.112;1.66
662;1974.3;579.608;1.66
663;1937.07;575.701;1.66
664;1929.74;589.618;1.66
665;1956.9;569.842;1.66
666;1966.98;575.701;1.66
667;1969.42;561.785;1.66
668;1954.46;589.618;1.66
669;1917.54;585.467;1.67
670;1885.49;550.066;1.67
671;1907.46;591.571;1.67
672;1942.26;593.524;1.67
673;1952.02;585.467;1.67
674;1959.35;569.842;1.67
675;1949.58;589.618;1.67
676;1919.98;581.561;1.67
677;1907.46;609.149;1.67
678;1954.46;571.795;1.67
679;1984.07;575.701;1.67
680;1999.02;613.3;1.67
681;1999.02;565.935;1.67
682;1976.74;571.795;1.67
683;1939.81;569.842;1.68
684;1932.18;589.618;1.68
685;1956.9;567.888;1.68
686;1966.98;575.701;1.68
687;1969.42;552.019;1.68
688;1956.9;593.524;1.68
689;1919.98;587.42;1.68
690;1885.49;548.112;1.68
691;1907.46;601.337;1.68
692;1939.81;587.42;1.68
693;1954.46;585.467;1.68
694;1959.35;567.888;1.68
695;1949.58;591.571;1.68
696;1917.54;577.654;1.68
697;1909.91;607.196;1.68
698;1954.46;561.785;1.69
699;1984.07;575.701;1.69
700;1999.02;611.347;1.69
701;1999.02;555.925;1.69
702;1974.3;573.748;1.69
703;1937.07;573.748;1.69
704;1929.74;589.618;1.69
705;1956.9;567.888;1.69
706;1964.23;575.701;1.69
707;1969.42;553.972;1.69
708;1956.9;605.243;1.69
709;1915.09;581.561;1.69
710;1882.74;548.112;1.69
711;1907.46;607.196;1.69
712;1939.81;583.514;1.7
713;1952.02;585.467;1.7
714;1959.35;569.842;1.7
715;1944.7;593.524;1.7
716;1917.54;579.608;1.7
717;1907.46;603.29;1.7
718;1952.02;553.972;1.7
719;1981.62;577.654;1.7
720;1994.14;609.149;1.7
721;1996.58;546.159;1.7
722;1971.86;577.654;1.7
723;1937.07;571.795;1.7
724;1932.18;589.618;1.7
725;1961.79;567.888;1.7
726;1969.42;577.654;1.7
727;1971.86;559.832;1.71
728;1954.46;605.243;1.71
729;1917.54;585.467;1.71
730;1887.93;548.112;1.71
731;1909.91;589.618;1.71
732;1944.7;591.571;1.71
733;1954.46;585.467;1.71
734;1959.35;567.888;1.71
735;1947.14;587.42;1.71
736;1917.54;583.514;1.71
737;1909.91;605.243;1.71
738;1959.35;569.842;1.71
739;1984.07;571.795;1.71
740;2001.46;611.347;1.71
741;2001.46;563.738;1.71
742;1974.3;569.842;1.71
743;1939.81;573.748;1.72
744;1934.63;591.571;1.72
745;1959.35;567.888;1.72
746;1971.86;577.654;1.72
747;1974.3;552.019;1.72
748;1956.9;597.43;1.72
749;1919.98;583.514;1.72
750;1890.37;548.112;1.72
751;1917.54;599.384;1.72
752;1947.14;585.467;1.72
753;1961.79;585.467;1.72
754;1964.23;567.888;1.72
755;1949.58;589.618;1.72
756;1919.98;579.608;1.72
757;1915.09;607.196;1.72
758;1961.79;559.832;1.73
759;1988.95;575.701;1.73
760;2003.9;611.347;1.73
761;2001.46;555.925;1.73
762;1974.3;573.748;1.73
763;1939.81;569.842;1.73
764;1939.81;589.618;1.73
765;1966.98;567.888;1.73
766;1971.86;575.701;1.73
767;1974.3;555.925;1.73
768;1956.9;607.196;1.73
769;1919.98;583.514;1.73
770;1890.37;548.112;1.73
771;1917.54;607.196;1.73
772;1947.14;583.514;1.73
773;1959.35;585.467;1.74
774;1966.98;567.888;1.74
775;1952.02;591.571;1.74
776;1919.98;579.608;1.74
777;1917.54;603.29;1.74
778;1964.23;552.019;1.74
779;1988.95;575.701;1.74
780;2003.9;605.243;1.74
781;2003.9;548.112;1.74
782;1974.3;575.701;1.74
783;1939.81;573.748;1.74
784;1939.81;589.618;1.74
785;1966.98;567.888;1.74
786;1974.3;575.701;1.74
787;1976.74;559.832;1.74
788;1959.35;603.29;1.75
789;1919.98;579.608;1.75
790;1892.82;548.112;1.75
791;1922.42;601.337;1.75
792;1952.02;583.514;1.75
793;1964.23;583.514;1.75
794;1969.42;565.935;1.75
795;1952.02;589.618;1.75
796;1919.98;577.654;1.75
797;1919.98;603.29;1.75
798;1966.98;555.925;1.75
799;1994.14;573.748;1.75
800;2006.34;609.149;1.75
801;2006.34;550.066;1.75
802;1976.74;573.748;1.75
803;1944.7;571.795;1.76
804;1944.7;587.42;1.76
805;1971.86;567.888;1.76
806;1976.74;575.701;1.76
807;1979.18;557.878;1.76
808;1961.79;605.243;1.76
809;1922.42;581.561;1.76
810;1895.26;550.066;1.76
811;1924.86;611.347;1.76
812;1954.46;579.608;1.76
813;1964.23;583.514;1.76
814;1969.42;571.795;1.76
815;1952.02;587.42;1.76
816;1924.86;581.561;1.76
817;1919.98;597.43;1.76
818;1971.86;552.019;1.77
819;1994.14;579.608;1.77
820;2008.79;603.29;1.77
821;2006.34;567.888;1.77
822;1976.74;567.888;1.77
823;1942.26;569.842;1.77
824;1944.7;589.618;1.77
825;1971.86;571.795;1.77
826;1979.18;573.748;1.77
827;1981.62;550.066;1.77
828;1959.35;593.524;1.77
829;1922.42;581.561;1.77
830;1895.26;548.112;1.77
831;1924.86;595.477;1.77
832;1954.46;587.42;1.78
833;1964.23;585.467;1.78
834;1966.98;565.935;1.78
835;1947.14;589.618;1.78
836;1922.42;581.561;1.78
837;1922.42;607.196;1.78
838;1969.42;567.888;1.78
839;1994.14;571.795;1.78
840;2008.79;611.347;1.78
841;2003.9;557.878;1.78
842;1976.74;571.795;1.78
843;1939.81;571.795;1.78
844;1944.7;589.618;1.78
845;1971.86;567.888;1.78
846;1976.74;577.654;1.78
847;1979.18;552.019;1.78
848;1959.35;599.384;1.79
849;1927.3;583.514;1.79
850;1897.7;544.206;1.79
851;1919.98;601.337;1.79
852;1954.46;583.514;1.79
853;1964.23;583.514;1.79
854;1971.86;565.935;1.79
855;1959.35;591.571;1.79
856;1932.18;577.654;1.79
857;1919.98;603.29;1.79
858;1966.98;555.925;1.79
859;1996.58;575.701;1.79
860;2008.79;609.149;1.79
861;2008.79;550.066;1.79
862;1984.07;575.701;1.79
863;1949.58;571.795;1.8
864;1944.7;589.618;1.8
865;1974.3;565.935;1.8
866;1981.62;575.701;1.8
867;1984.07;555.925;1.8
868;1966.98;605.243;1.8
869;1932.18;581.561;1.8
870;1900.14;550.066;1.8
871;1922.42;611.347;1.8
872;1956.9;579.608;1.8
873;1969.42;583.514;1.8
874;1974.3;567.888;1.8
875;1961.79;589.618;1.8
876;1932.18;577.654;1.8
877;1924.86;601.337;1.8
878;1971.86;553.972;1.81
879;1999.02;577.654;1.81
880;2013.67;605.243;1.81
881;2013.67;542.009;1.81
882;1986.51;575.701;1.81
883;1949.58;569.842;1.81
884;1947.14;587.42;1.81
885;1974.3;569.842;1.81
886;1984.07;573.748;1.81
887;1986.51;552.019;1.81
888;1969.42;589.618;1.81
889;1929.74;583.514;1.81
890;1897.7;546.159;1.81
891;1924.86;593.524;1.81
892;1956.9;585.467;1.81
893;1969.42;583.514;1.82
894;1974.3;567.888;1.82
895;1961.79;589.618;1.82
896;1932.18;577.654;1.82
897;1927.3;605.243;1.82
898;1971.86;563.738;1.82
899;2001.46;571.795;1.82
900;2016.11;611.347;1.82
901;2013.67;555.925;1.82
902;1988.95;571.795;1.82
903;1949.58;569.842;1.82
904;1949.58;589.618;1.82
905;1976.74;563.738;1.82
906;1986.51;575.701;1.82
907;1988.95;553.972;1.82
908;1969.42;599.384;1.82
909;1932.18;581.561;1.83
910;1905.02;542.009;1.83
911;1929.74;601.337;1.83
912;1961.79;583.514;1.83
913;1974.3;585.467;1.83
914;1979.18;565.935;1.83
915;1964.23;589.618;1.83
916;1937.07;575.701;1.83
917;1932.18;603.29;1.83
918;1976.74;555.925;1.83
919;2006.34;573.748;1.83
920;2021.3;611.347;1.83
921;2018.55;550.066;1.83
922;1991.39;575.701;1.83
923;1956.9;571.795;1.83
924;1956.9;589.618;1.84
925;1984.07;567.888;1.84
926;1991.39;577.654;1.84
927;1991.39;555.925;1.84
928;1974.3;605.243;1.84
929;1937.07;581.561;1.84
930;1907.46;548.112;1.84
931;1934.63;609.149;1.84
932;1966.98;581.561;1.84
933;1979.18;581.561;1.84
934;1979.18;565.935;1.84
935;1966.98;587.42;1.84
936;1934.63;577.654;1.84
937;1932.18;597.43;1.84
938;1981.62;552.019;1.84
939;2008.79;577.654;1.85
940;2018.55;605.243;1.85
941;2018.55;542.009;1.85
942;1988.95;577.654;1.85
943;1956.9;575.701;1.85
944;1954.46;589.618;1.85
945;1981.62;565.935;1.85
946;1991.39;577.654;1.85
947;1991.39;553.972;1.85
948;1974.3;601.337;1.85
949;1934.63;579.608;1.85
950;1905.02;546.159;1.85
951;1937.07;607.196;1.85
952;1966.98;579.608;1.85
953;1979.18;581.561;1.85
954;1981.62;565.935;1.85
955;1964.23;589.618;1.86
956;1934.63;577.654;1.86
957;1934.63;601.337;1.86
958;1981.62;552.019;1.86
959;2008.79;573.748;1.86
960;2023.74;605.243;1.86
961;2018.55;546.159;1.86
962;1988.95;575.701;1.86
963;1959.35;571.795;1.86
964;1959.35;587.42;1.86
965;1984.07;567.888;1.86
966;1991.39;571.795;1.86
967;1994.14;557.878;1.86
968;1974.3;607.196;1.86
969;1934.63;577.654;1.86
970;1907.46;552.019;1.87
971;1939.81;613.3;1.87
972;1966.98;577.654;1.87
973;1979.18;577.654;1.87
974;1984.07;569.842;1.87
975;1966.98;585.467;1.87
976;1934.63;579.608;1.87
977;1937.07;605.243;1.87
978;1986.51;567.888;1.87
979;2011.23;569.842;1.87
980;2026.18;609.149;1.87
981;2018.55;559.832;1.87
982;1991.39;569.842;1.87
983;1956.9;569.842;1.87
984;1959.35;585.467;1.87
985;1986.51;565.935;1.87
986;1994.14;571.795;1.88
987;1994.14;552.019;1.88
988;1974.3;593.524;1.88
989;1937.07;583.514;1.88
990;1907.46;544.206;1.88
991;1942.26;597.43;1.88
992;1969.42;585.467;1.88
993;1981.62;585.467;1.88
994;1984.07;565.935;1.88
995;1966.98;591.571;1.88
996;1937.07;577.654;1.88
997;1939.81;603.29;1.88
998;1988.95;557.878;1.88
999;2011.23;571.795;1.88
1000;2026.18;611.347;1.88
1001;2018.55;552.019;1.88
1002;1988.95;573.748;1.89
1003;1952.02;569.842;1.89
1004;1959.35;585.467;1.89
1005;1986.51;565.935;1.89
1006;1994.14;573.748;1.89
1007;1999.02;553.972;1.89
1008;1974.3;601.337;1.89
1009;1932.18;579.608;1.89
1010;1909.91;544.206;1.89
1011;1944.7;607.196;1.89
1012;1971.86;581.561;1.89
1013;1976.74;581.561;1.89
1014;1984.07;567.888;1.89
1015;1974.3;589.618;1.89
1016;1947.14;575.701;1.89
1017;1932.18;599.384;1.9
1018;1971.86;552.019;1.9
1019;2006.34;575.701;1.9
1020;2021.3;605.243;1.9
1021;2028.62;546.159;1.9
1022;2003.9;575.701;1.9
1023;1969.42;569.842;1.9
1024;1956.9;587.42;1.9
1025;1981.62;567.888;1.9
1026;1996.58;573.748;1.9
1027;2001.46;557.878;1.9
1028;1986.51;601.337;1.9
1029;1954.46;575.701;1.9
1030;1915.09;550.066;1.9
1031;1932.18;615.253;1.9
1032;1969.42;577.654;1.9
1033;1984.07;575.701;1.91
1034;1991.39;567.888;1.91
1035;1979.18;585.467;1.91
1036;1952.02;577.654;1.91
1037;1937.07;603.29;1.91
1038;1976.74;567.888;1.91
1039;2011.23;571.795;1.91
1040;2026.18;611.347;1.91
1041;2031.06;561.785;1.91
1042;2006.34;569.842;1.91
1043;1971.86;569.842;1.91
1044;1961.79;587.42;1.91
1045;1986.51;563.738;1.91
1046;1996.58;571.795;1.91
1047;2001.46;552.019;1.91
1048;1988.95;593.524;1.91
1049;1954.46;581.561;1.92
1050;1915.09;546.159;1.92
1051;1932.18;599.384;1.92
1052;1969.42;583.514;1.92
1053;1986.51;583.514;1.92
1054;1991.39;563.738;1.92
1055;1981.62;589.618;1.92
1056;1952.02;577.654;1.92
1057;1939.81;601.337;1.92
1058;1981.62;557.878;1.92
1059;2016.11;573.748;1.92
1060;2031.06;611.347;1.92
1061;2033.51;552.019;1.92
1062;2008.79;573.748;1.92
1063;1971.86;571.795;1.92
1064;1959.35;589.618;1.92
1065;1988.95;567.888;1.93
1066;1999.02;575.701;1.93
1067;2003.9;553.972;1.93
1068;1991.39;605.243;1.93
1069;1954.46;581.561;1.93
1070;1915.09;546.159;1.93
1071;1934.63;607.196;1.93
1072;1971.86;581.561;1.93
1073;1984.07;581.561;1.93
1074;1988.95;567.888;1.93
1075;1979.18;587.42;1.93
1076;1952.02;577.654;1.93
1077;1937.07;599.384;1.93
1078;1981.62;552.019;1.93
1079;2016.11;573.748;1.93
1080;2031.06;607.196;1.94
1081;2031.06;546.159;1.94
1082;2008.79;575.701;1.94
1083;1971.86;571.795;1.94
1084;1964.23;585.467;1.94
1085;1991.39;565.935;1.94
1086;2003.9;571.795;1.94
1087;2006.34;561.785;1.94
1088;1991.39;605.243;1.94
1089;1952.02;577.654;1.94
1090;1917.54;550.066;1.94
1091;1937.07;615.253;1.94
1092;1976.74;579.608;1.94
1093;1988.95;577.654;1.94
1094;1996.58;565.935;1.94
1095;1981.62;583.514;1.94
1096;1952.02;581.561;1.94
1097;1942.26;597.43;1.95
1098;1986.51;555.925;1.95
1099;2018.55;573.748;1.95
1100;2033.51;609.149;1.95
1101;2035.95;548.112;1.95
1102;2008.79;571.795;1.95
1103;1976.74;571.795;1.95
1104;1966.98;585.467;1.95
1105;1994.14;565.935;1.95
1106;2006.34;575.701;1.95
1107;2006.34;553.972;1.95
1108;1994.14;605.243;1.95
1109;1954.46;581.561;1.95
1110;1919.98;552.019;1.95
1111;1944.7;611.347;1.95
1112;1981.62;579.608;1.95
1113;1994.14;579.608;1.95
1114;1999.02;565.935;1.95
1115;1986.51;587.42;1.96
1116;1956.9;577.654;1.96
1117;1944.7;599.384;1.96
1118;1991.39;550.066;1.96
1119;2021.3;575.701;1.96
1120;2033.51;603.29;1.96
1121;2035.95;542.009;1.96
1122;2011.23;575.701;1.96
1123;1974.3;575.701;1.96
1124;1969.42;585.467;1.96
1125;1996.58;569.842;1.96
1126;2006.34;573.748;1.96
1127;2008.79;559.832;1.96
1128;1994.14;601.337;1.96
1129;1954.46;581.561;1.96
1130;1922.42;544.206;1.96
1131;1947.14;593.524;1.96
1132;1981.62;585.467;1.97
1133;1996.58;581.561;1.97
1134;2001.46;565.935;1.97
1135;1988.95;587.42;1.97
1136;1959.35;575.701;1.97
1137;1949.58;603.29;1.97
1138;1994.14;563.738;1.97
1139;2023.74;573.748;1.97
1140;2038.39;611.347;1.97
1141;2035.95;557.878;1.97
1142;2011.23;571.795;1.97
1143;1974.3;567.888;1.97
1144;1969.42;587.42;1.97
1145;1996.58;563.738;1.97
1146;2008.79;573.748;1.97
1147;2011.23;552.019;1.97
1148;1994.14;597.43;1.98
1149;1956.9;579.608;1.98
1150;1924.86;546.159;1.98
1151;1952.02;599.384;1.98
1152;1986.51;581.561;1.98
1153;1994.14;581.561;1.98
1154;2003.9;565.935;1.98
1155;1988.95;587.42;1.98
1156;1959.35;577.654;1.98
1157;1949.58;603.29;1.98
1158;1996.58;553.972;1.98
1159;2026.18;575.701;1.98
1160;2040.83;609.149;1.98
1161;2038.39;550.066;1.98
1162;2013.67;573.748;1.98
1163;1974.3;571.795;1.98
1164;1971.86;585.467;1.99
1165;2003.9;563.738;1.99
1166;2013.67;575.701;1.99
1167;2013.67;555.925;1.99
1168;1999.02;603.29;1.99
1169;1961.79;581.561;1.99
1170;1929.74;548.112;1.99
1171;1956.9;611.347;1.99
1172;1988.95;579.608;1.99
1173;2001.46;579.608;1.99
1174;2006.34;567.888;1.99
1175;1991.39;587.42;1.99
1176;1961.79;577.654;1.99
1177;1956.9;595.477;1.99
1178;2001.46;552.019;1.99
1179;2028.62;575.701;1.99
1180;2043.27;603.29;1.99
1181;2040.83;538.102;2
1182;2013.67;575.701;2
1183;1979.18;573.748;2
1184;1976.74;587.42;2
1185;2006.34;567.888;2
1186;2013.67;571.795;2
1187;2016.11;559.832;2
1188;1999.02;603.29;2
1189;1959.35;577.654;2
1190;1927.3;546.159;2
1191;1959.35;593.524;2
1192;1988.95;587.42;2
1193;2001.46;581.561;2
1194;2006.34;563.738;2
1195;1991.39;587.42;2
1196;1959.35;575.701;2
1197;1956.9;605.243;2.01
1198;2003.9;563.738;2.01
1199;2033.51;571.795;2.01
1200;2045.71;609.149;2.01
1201;2045.71;553.972;2.01
1202;2016.11;573.748;2.01
1203;1981.62;567.888;2.01
1204;1976.74;585.467;2.01
1205;2006.34;563.738;2.01
1206;2016.11;573.748;2.01
1207;2018.55;553.972;2.01
1208;2001.46;599.384;2.01
1209;1956.9;579.608;2.01
1210;1927.3;544.206;2.01
1211;1959.35;599.384;2.01
1212;1991.39;579.608;2.01
1213;2003.9;581.561;2.02
1214;2008.79;565.935;2.02
1215;1991.39;589.618;2.02
1216;1964.23;577.654;2.02
1217;1959.35;601.337;2.02
1218;2011.23;553.972;2.02
1219;2033.51;573.748;2.02
1220;2050.9;607.196;2.02
1221;2048.46;548.112;2.02
1222;2018.55;571.795;2.02
1223;1984.07;569.842;2.02
1224;1986.51;587.42;2.02
1225;2013.67;563.738;2.02
1226;2023.74;573.748;2.02
1227;2023.74;555.925;2.02
1228;2006.34;603.29;2.03
1229;1964.23;577.654;2.03
1230;1937.07;548.112;2.03
1231;1966.98;609.149;2.03
1232;1999.02;577.654;2.03
1233;2008.79;579.608;2.03
1234;2013.67;565.935;2.03
1235;1996.58;585.467;2.03
1236;1966.98;575.701;2.03
1237;1966.98;597.43;2.03
1238;2013.67;552.019;2.03
1239;2040.83;575.701;2.03
1240;2055.78;603.29;2.03
1241;2050.9;540.056;2.03
1242;2023.74;573.748;2.03
1243;1984.07;575.701;2.03
1244;1988.95;585.467;2.04
1245;2016.11;567.888;2.04
1246;2023.74;569.842;2.04
1247;2023.74;561.785;2.04
1248;2006.34;601.337;2.04
1249;1964.23;573.748;2.04
1250;1939.81;552.019;2.04
1251;1969.42;615.253;2.04
1252;1999.02;579.608;2.04
1253;2011.23;579.608;2.04
1254;2013.67;565.935;2.04
1255;1996.58;587.42;2.04
1256;1966.98;575.701;2.04
1257;1969.42;599.384;2.04
1258;2016.11;553.972;2.04
1259;2043.27;573.748;2.05
1260;2055.78;605.243;2.05
1261;2053.34;544.206;2.05
1262;2023.74;575.701;2.05
1263;1986.51;569.842;2.05
1264;1991.39;587.42;2.05
1265;2018.55;563.738;2.05
1266;2026.18;571.795;2.05
1267;2026.18;555.925;2.05
1268;2006.34;603.29;2.05
1269;1966.98;577.654;2.05
1270;1939.81;548.112;2.05
1271;1971.86;613.3;2.05
1272;2003.9;575.701;2.05
1273;2013.67;577.654;2.05
1274;2016.11;565.935;2.05
1275;1999.02;585.467;2.06
1276;1966.98;579.608;2.06
1277;1971.86;597.43;2.06
1278;2021.3;552.019;2.06
1279;2048.46;577.654;2.06
1280;2058.23;599.384;2.06
1281;2055.78;540.056;2.06
1282;2023.74;575.701;2.06
1283;1988.95;569.842;2.06
1284;1994.14;587.42;2.06
1285;2021.3;563.738;2.06
1286;2031.06;573.748;2.06
1287;2031.06;548.112;2.06
1288;2011.23;593.524;2.06
1289;1966.98;581.561;2.07
1290;1942.26;544.206;2.07
1291;1979.18;597.43;2.07
1292;2006.34;583.514;2.07
1293;2016.11;581.561;2.07
1294;2018.55;563.738;2.07
1295;1999.02;589.618;2.07
1296;1969.42;577.654;2.07
1297;1974.3;601.337;2.07
1298;2023.74;557.878;2.07
1299;2048.46;571.795;2.07
1300;2060.67;609.149;2.07
1301;2058.23;552.019;2.07
1302;2026.18;569.842;2.07
1303;1988.95;567.888;2.07
1304;1996.58;587.42;2.08
1305;2021.3;563.738;2.08
1306;2028.62;573.748;2.08
1307;2031.06;552.019;2.08
1308;2006.34;603.29;2.08
1309;1966.98;579.608;2.08
1310;1939.81;544.206;2.08
1311;1979.18;605.243;2.08
1312;2008.79;581.561;2.08
1313;2016.11;583.514;2.08
1314;2018.55;563.738;2.08
1315;1999.02;587.42;2.08
1316;1966.98;575.701;2.08
1317;1976.74;599.384;2.08
1318;2026.18;552.019;2.08
1319;2050.9;571.795;2.09
1320;2060.67;603.29;2.09
1321;2055.78;540.056;2.09
1322;2023.74;575.701;2.09
1323;1988.95;573.748;2.09
1324;1996.58;585.467;2.09
1325;2026.18;563.738;2.09
1326;2028.62;571.795;2.09
1327;2031.06;555.925;2.09
1328;2008.79;603.29;2.09
1329;1966.98;575.701;2.09
1330;1944.7;548.112;2.09
1331;1979.18;613.3;2.09
1332;2008.79;575.701;2.09
1333;2018.55;575.701;2.09
1334;2018.55;565.935;2.1
1335;2001.46;585.467;2.1
1336;1971.86;579.608;2.1
1337;1979.18;593.524;2.1
1338;2031.06;550.066;2.1
1339;2053.34;577.654;2.1
1340;2065.55;599.384;2.1
1341;2058.23;538.102;2.1
1342;2028.62;575.701;2.1
1343;1994.14;575.701;2.1
1344;1991.39;585.467;2.1
1345;2023.74;561.785;2.1
1346;2033.51;571.795;2.1
1347;2038.39;548.112;2.1
1348;2023.74;593.524;2.1
1349;1986.51;579.608;2.11
1350;1947.14;544.206;2.11
1351;1969.42;597.43;2.11
1352;2003.9;581.561;2.11
1353;2021.3;581.561;2.11
1354;2028.62;563.738;2.11
1355;2016.11;587.42;2.11
1356;1986.51;573.748;2.11
1357;1971.86;599.384;2.11
1358;2016.11;555.925;2.11
1359;2050.9;569.842;2.11
1360;2065.55;607.196;2.11
1361;2065.55;550.066;2.11
1362;2043.27;573.748;2.11
1363;2006.34;567.888;2.12
1364;1996.58;585.467;2.12
1365;2023.74;563.738;2.12
1366;2035.95;573.748;2.12
1367;2038.39;550.066;2.12
1368;2023.74;601.337;2.12
1369;1986.51;577.654;2.12
1370;1952.02;542.009;2.12
1371;1969.42;603.29;2.12
1372;2008.79;577.654;2.12
1373;2021.3;581.561;2.12
1374;2028.62;563.738;2.12
1375;2016.11;587.42;2.12
1376;1986.51;575.701;2.12
1377;1974.3;599.384;2.13
1378;2018.55;550.066;2.13
1379;2050.9;575.701;2.13
1380;2067.99;605.243;2.13
1381;2070.43;542.009;2.13
1382;2043.27;571.795;2.13
1383;2006.34;567.888;2.13
1384;1996.58;585.467;2.13
1385;2023.74;563.738;2.13
1386;2040.83;571.795;2.13
1387;2043.27;555.925;2.13
1388;2026.18;603.29;2.13
1389;1988.95;575.701;2.13
1390;1954.46;550.066;2.13
1391;1974.3;613.3;2.13
1392;2013.67;577.654;2.14
1393;2028.62;575.701;2.14
1394;2033.51;563.738;2.14
1395;2018.55;581.561;2.14
1396;1991.39;575.701;2.14
1397;1976.74;593.524;2.14
1398;2026.18;550.066;2.14
1399;2055.78;577.654;2.14
1400;2070.43;597.43;2.14
1401;2072.87;536.149;2.14
1402;2045.71;575.701;2.14
1403;2008.79;575.701;2.14
1404;2001.46;581.561;2.14
1405;2031.06;567.888;2.14
1406;2040.83;569.842;2.15
1407;2043.27;553.972;2.15
1408;2028.62;605.243;2.15
1409;1988.95;575.701;2.15
1410;1956.9;548.112;2.15
1411;1984.07;609.149;2.15
1412;2016.11;577.654;2.15
1413;2031.06;579.608;2.15
1414;2035.95;563.738;2.15
1415;2021.3;583.514;2.15
1416;1991.39;575.701;2.15
1417;1979.18;595.477;2.15
1418;2028.62;548.112;2.15
1419;2058.23;573.748;2.15
1420;2070.43;603.29;2.15
1421;2070.43;538.102;2.16
1422;2045.71;571.795;2.16
1423;2011.23;569.842;2.16
1424;2003.9;583.514;2.16
1425;2033.51;565.935;2.16
1426;2045.71;567.888;2.16
1427;2048.46;557.878;2.16
1428;2031.06;599.384;2.16
1429;1988.95;573.748;2.16
1430;1954.46;552.019;2.16
1431;1984.07;615.253;2.16
1432;2018.55;575.701;2.16
1433;2033.51;573.748;2.16
1434;2035.95;567.888;2.16
1435;2021.3;583.514;2.16
1436;1991.39;581.561;2.17
1437;1986.51;601.337;2.17
1438;2033.51;561.785;2.17
1439;2063.11;569.842;2.17
1440;2075.62;609.149;2.17
1441;2078.06;553.972;2.17
1442;2050.9;567.888;2.17
1443;2013.67;567.888;2.17
1444;2008.79;585.467;2.17
1445;2038.39;561.785;2.17
1446;2045.71;569.842;2.17
1447;2048.46;550.066;2.17
1448;2031.06;595.477;2.17
1449;1991.39;577.654;2.17
1450;1959.35;540.056;2.18
1451;1988.95;601.337;2.18
1452;2023.74;579.608;2.18
1453;2035.95;579.608;2.18
1454;2040.83;561.785;2.18
1455;2028.62;585.467;2.18
1456;1996.58;573.748;2.18
1457;1988.95;601.337;2.18
1458;2040.83;552.019;2.18
1459;2070.43;569.842;2.18
1460;2082.95;607.196;2.18
1461;2085.39;546.159;2.18
1462;2055.78;571.795;2.18
1463;2018.55;567.888;2.18
1464;2013.67;587.42;2.18
1465;2045.71;563.738;2.19
1466;2055.78;569.842;2.19
1467;2060.67;553.972;2.19
1468;2040.83;603.29;2.19
1469;1996.58;577.654;2.19
1470;1969.42;544.206;2.19
1471;1999.02;607.196;2.19
1472;2031.06;575.701;2.19
1473;2045.71;577.654;2.19
1474;2048.46;563.738;2.19
1475;2033.51;585.467;2.19
1476;2001.46;575.701;2.19
1477;1996.58;593.524;2.19
1478;2043.27;548.112;2.19
1479;2075.62;571.795;2.2
1480;2090.27;599.384;2.2
1481;2087.83;536.149;2.2
1482;2058.23;571.795;2.2
1483;2021.3;571.795;2.2
1484;2021.3;583.514;2.2
1485;2050.9;567.888;2.2
1486;2060.67;567.888;2.2
1487;2060.67;557.878;2.2
1488;2038.39;599.384;2.2
1489;2001.46;571.795;2.2
1490;1971.86;552.019;2.2
1491;2001.46;615.253;2.2
1492;2033.51;573.748;2.2
1493;2048.46;573.748;2.2
1494;2050.9;565.935;2.21
1495;2035.95;579.608;2.21
1496;2003.9;579.608;2.21
1497;1999.02;589.618;2.21
1498;2048.46;552.019;2.21
1499;2078.06;567.888;2.21
1500;2090.27;607.196;2.21
1501;2087.83;552.019;2.21
1502;2063.11;567.888;2.21
1503;2026.18;565.935;2.21
1504;2023.74;585.467;2.21
1505;2053.34;559.832;2.21
1506;2065.55;571.795;2.21
1507;2065.55;550.066;2.21
1508;2045.71;597.43;2.21
1509;2003.9;577.654;2.22
1510;1974.3;538.102;2.22
1511;2006.34;599.384;2.22
1512;2040.83;577.654;2.22
1513;2055.78;577.654;2.22
1514;2058.23;561.785;2.22
1515;2038.39;585.467;2.22
1516;2011.23;573.748;2.22
1517;2006.34;597.43;2.22
1518;2058.23;552.019;2.22
1519;2087.83;569.842;2.22
1520;2100.04;607.196;2.22
1521;2095.15;546.159;2.22
1522;2067.99;571.795;2.22
1523;2031.06;567.888;2.23
1524;2033.51;585.467;2.23
1525;2060.67;563.738;2.23
1526;2070.43;571.795;2.23
1527;2072.87;552.019;2.23
1528;2050.9;599.384;2.23
1529;2006.34;575.701;2.23
1530;1979.18;542.009;2.23
1531;2016.11;609.149;2.23
1532;2045.71;573.748;2.23
1533;2060.67;577.654;2.23
1534;2060.67;561.785;2.23
1535;2043.27;585.467;2.23
1536;2016.11;573.748;2.23
1537;2011.23;593.524;2.24
1538;2063.11;548.112;2.24
1539;2090.27;573.748;2.24
1540;2102.78;599.384;2.24
1541;2100.04;536.149;2.24
1542;2067.99;571.795;2.24
1543;2033.51;571.795;2.24
1544;2038.39;583.514;2.24
1545;2065.55;563.738;2.24
1546;2075.62;565.935;2.24
1547;2072.87;557.878;2.24
1548;2053.34;599.384;2.24
1549;2013.67;573.748;2.24
1550;1981.62;548.112;2.24
1551;2018.55;613.3;2.25
1552;2050.9;573.748;2.25
1553;2063.11;571.795;2.25
1554;2063.11;563.738;2.25
1555;2048.46;579.608;2.25
1556;2018.55;581.561;2.25
1557;2018.55;587.42;2.25
1558;2065.55;550.066;2.25
1559;2097.59;579.608;2.25
1560;2110.11;591.571;2.25
1561;2102.78;540.056;2.25
1562;2072.87;569.842;2.25
1563;2038.39;569.842;2.25
1564;2040.83;583.514;2.26
1565;2072.87;561.785;2.26
1566;2078.06;571.795;2.26
1567;2078.06;553.972;2.26
1568;2058.23;603.29;2.26
1569;2018.55;573.748;2.26
1570;1988.95;546.159;2.26
1571;2026.18;609.149;2.26
1572;2058.23;575.701;2.26
1573;2070.43;573.748;2.26
1574;2072.87;561.785;2.26
1575;2053.34;581.561;2.26
1576;2021.3;577.654;2.26
1577;2026.18;591.571;2.27
1578;2075.62;548.112;2.27
1579;2102.78;575.701;2.27
1580;2117.43;593.524;2.27
1581;2112.55;536.149;2.27
1582;2082.95;571.795;2.27
1583;2045.71;569.842;2.27
1584;2050.9;581.561;2.27
1585;2080.5;563.738;2.27
1586;2087.83;565.935;2.27
1587;2085.39;559.832;2.27
1588;2065.55;599.384;2.27
1589;2023.74;567.888;2.27
1590;1996.58;553.972;2.28
1591;2038.39;595.477;2.28
1592;2065.55;581.561;2.28
1593;2078.06;579.608;2.28
1594;2078.06;559.832;2.28
1595;2058.23;583.514;2.28
1596;2028.62;571.795;2.28
1597;2031.06;597.43;2.28
1598;2082.95;553.972;2.28
1599;2110.11;567.888;2.28
1600;2122.31;605.243;2.28
1601;2114.99;550.066;2.28
1602;2082.95;565.935;2.28
1603;2048.46;563.738;2.28
1604;2055.78;581.561;2.29
1605;2085.39;559.832;2.29
1606;2092.71;567.888;2.29
1607;2090.27;546.159;2.29
1608;2070.43;601.337;2.29
1609;2026.18;573.748;2.29
1610;1999.02;542.009;2.29
1611;2040.83;599.384;2.29
1612;2067.99;577.654;2.29
1613;2080.5;577.654;2.29
1614;2082.95;563.738;2.29
1615;2063.11;583.514;2.29
1616;2031.06;571.795;2.3
1617;2035.95;597.43;2.3
1618;2087.83;546.159;2.3
1619;2114.99;571.795;2.3
1620;2127.2;603.29;2.3
1621;2122.31;538.102;2.3
1622;2087.83;569.842;2.3
1623;2053.34;565.935;2.3
1624;2063.11;581.561;2.3
1625;2092.71;559.832;2.3
1626;2097.59;567.888;2.3
1627;2097.59;552.019;2.3
1628;2072.87;599.384;2.3
1629;2031.06;575.701;2.31
1630;2008.79;546.159;2.31
1631;2048.46;609.149;2.31
1632;2075.62;571.795;2.31
1633;2085.39;571.795;2.31
1634;2085.39;563.738;2.31
1635;2065.55;579.608;2.31
1636;2035.95;575.701;2.31
1637;2043.27;591.571;2.31
1638;2095.15;548.112;2.31
1639;2122.31;571.795;2.31
1640;2134.83;597.43;2.31
1641;2127.2;534.196;2.32
1642;2090.27;571.795;2.32
1643;2055.78;571.795;2.32
1644;2067.99;579.608;2.32
1645;2095.15;563.738;2.32
1646;2100.04;563.738;2.32
1647;2102.78;559.832;2.32
1648;2075.62;597.43;2.32
1649;2033.51;565.935;2.32
1650;2011.23;552.019;2.32
1651;2053.34;609.149;2.32
1652;2080.5;571.795;2.32
1653;2092.71;577.654;2.33
1654;2090.27;559.832;2.33
1655;2067.99;583.514;2.33
1656;2035.95;571.795;2.33
1657;2048.46;599.384;2.33
1658;2100.04;553.972;2.33
1659;2124.76;569.842;2.33
1660;2137.27;605.243;2.33
1661;2127.2;548.112;2.33
1662;2095.15;567.888;2.33
1663;2060.67;561.785;2.33
1664;2072.87;581.561;2.33
1665;2100.04;561.785;2.33
1666;2107.67;567.888;2.34
1667;2105.22;548.112;2.34
1668;2078.06;599.384;2.34
1669;2035.95;575.701;2.34
1670;2016.11;540.056;2.34
1671;2058.23;601.337;2.34
1672;2085.39;571.795;2.34
1673;2097.59;577.654;2.34
