<WeldAnalyseData xmlns:i="http:www.w3.org/2001/XMLSchema-instance">
<WeldParameter>
<TimeStamp>DT#2023-12-05-13:56:22</TimeStamp>
<Generator>SG-22-10000</Generator>
<GenFreq>20</GenFreq>
<MaxForce>8000</MaxForce>
<MaxPower>10000</MaxPower>
<RunupPressure>1.5</RunupPressure>
<RunupDist>10</RunupDist>
<RunPress>0.8</RunPress>
<ShakeDelay>0.03</ShakeDelay>
<ShakeTime>0.3</ShakeTime>
<RunBackPress1>6</RunBackPress1>
<RunBackPress2>2</RunBackPress2>
<RunBackDist>1</RunBackDist>
<TrigValue>500</TrigValue>
<TrigModeUnit>W</TrigModeUnit>
<WeldModeUnit>Ws</WeldModeUnit>
<PressNr>0</PressNr>
<MaxLoss>1500</MaxLoss>
</WeldParameter>
<WeldSets>
<WeldSet>
<PressRiseTime>0</PressRiseTime>
<RunPressure>1</RunPressure>
<Amplitude>86</Amplitude>
<WeldMode>3270</WeldMode>
</WeldSet>
</WeldSets>
<WeldValue>
<WeldNr>2396</WeldNr>
<RecipeName>RickStyle</RecipeName>
<WeldTime>1810</WeldTime>
<DistDiff>3.62</DistDiff>
<DistAbs>78.32</DistAbs>
<Energy>3271.48</Energy>
<MaxPower>2079.68</MaxPower>
<CycleTime>6150</CycleTime>
<TrigForce>504.654</TrigForce>
<TrigDist>74.7</TrigDist>
<RunSpeed>68.7212</RunSpeed>
<MaxForce>603.29</MaxForce>
<LossPower>246.132</LossPower>
</WeldValue>
</WeldAnalyseData>
#CSV-START#
ms;Power[W];Force[N];Distance[mm]
1;0;0;0
2;0;506.607;0
3;0;504.654;0
4;0;506.607;0
5;0;506.607;0
6;0;506.607;0.0100021
7;0;506.607;0.0100021
8;0;500.748;0.0100021
9;0;480.972;0.0100021
10;3.20445;467.055;0.0200043
11;22.7363;449.232;0.0400009
12;32.8074;443.373;0.0500031
13;49.8978;433.607;0.0699997
14;69.7348;427.503;0.090004
15;99.3377;421.644;0.110001
16;128.941;421.644;0.120003
17;160.985;407.971;0.139999
18;185.705;409.925;0.160004
19;207.984;396.008;0.18
20;225.379;411.878;0.190002
21;247.658;409.925;0.210007
22;259.865;401.868;0.230003
23;279.702;411.878;0.240005
24;306.864;409.925;0.260002
25;321.513;407.971;0.270004
26;341.35;405.774;0.290001
27;356.304;415.784;0.300003
28;368.511;415.784;0.32
29;373.394;429.456;0.330002
30;395.672;411.878;0.340004
31;405.438;417.737;0.350006
32;415.51;431.654;0.370003
33;417.951;417.737;0.380005
34;415.51;423.597;0.389999
35;415.51;423.597;0.400002
36;408.185;425.55;0.410004
37;408.185;417.737;0.43
38;405.438;423.597;0.440002
39;405.438;409.925;0.450005
40;402.997;437.513;0.460007
41;400.555;429.456;0.470001
42;393.231;417.737;0.490005
43;393.231;437.513;0.5
44;398.114;429.456;0.510002
45;398.114;431.654;0.520004
46;400.555;429.456;0.530006
47;398.114;439.467;0.540001
48;398.114;433.607;0.550003
49;398.114;445.326;0.560005
50;408.185;433.607;0.57
51;415.51;431.654;0.580002
52;420.392;443.373;0.590004
53;420.392;433.607;0.600006
54;420.392;431.654;0.610001
55;415.51;433.607;0.620003
56;413.068;439.467;0.630005
57;413.068;433.607;0.639999
58;413.068;439.467;0.660004
59;413.068;427.503;0.670006
60;413.068;445.326;0.68
61;410.627;445.326;0.690002
62;405.438;435.56;0.700005
63;402.997;449.232;0.700005
64;408.185;445.326;0.710007
65;413.068;445.326;0.720001
66;410.627;441.42;0.730003
67;413.068;453.383;0.740005
68;415.51;449.232;0.75
69;420.392;463.149;0.760002
70;430.158;441.42;0.770004
71;445.112;445.326;0.780006
72;452.437;461.196;0.790001
73;454.878;443.373;0.800003
74;457.32;451.186;0.810005
75;457.32;451.186;0.82
76;457.32;457.289;0.830002
77;464.949;445.326;0.840004
78;467.391;449.232;0.850006
79;474.715;449.232;0.860001
80;477.157;445.326;0.870003
81;477.157;463.149;0.880005
82;472.274;451.186;0.889999
83;474.715;453.383;0.900002
84;484.481;457.289;0.910004
85;489.364;455.336;0.920006
86;496.994;457.289;0.93
87;501.877;459.243;0.940002
88;506.76;455.336;0.950005
89;509.201;463.149;0.960007
90;529.038;463.149;0.970001
91;546.434;453.383;0.980003
92;551.317;463.149;0.990005
93;558.641;457.289;1
94;561.083;455.336;1.01
95;556.2;459.243;1.02
96;548.875;461.196;1.03001
97;553.758;457.289;1.04
98;556.2;459.243;1.05
99;558.641;453.383;1.06001
100;558.641;459.243;1.07
101;553.758;465.102;1.08
102;543.687;455.336;1.09
103;548.875;461.196;1.11
104;561.083;461.196;1.12
105;570.849;459.243;1.13
106;576.037;457.289;1.14
107;580.92;467.055;1.15
108;585.803;459.243;1.16
109;588.244;470.962;1.18
110;610.523;459.243;1.19
111;627.918;453.383;1.2
112;640.126;465.102;1.21001
113;647.45;453.383;1.22
114;649.892;457.289;1.24001
115;649.892;457.289;1.25
116;649.892;461.196;1.26
117;659.963;449.232;1.27
118;669.729;453.383;1.29
119;674.612;445.326;1.3
120;682.241;461.196;1.31001
121;679.495;461.196;1.32
122;677.053;449.232;1.34
123;687.124;461.196;1.35001
124;701.773;457.289;1.36
125;714.286;455.336;1.38
126;721.61;449.232;1.39
127;726.493;467.055;1.4
128;731.376;459.243;1.42001
129;733.818;470.962;1.43
130;753.655;453.383;1.44
131;775.933;453.383;1.45
132;783.258;465.102;1.47
133;790.887;447.279;1.48
134;790.887;453.383;1.49001
135;785.699;453.383;1.51
136;783.258;461.196;1.52
137;793.329;443.373;1.53001
138;800.653;453.383;1.54
139;810.419;435.56;1.56001
140;810.419;467.055;1.57
141;810.419;465.102;1.58
142;798.212;447.279;1.59
143;807.977;451.186;1.60001
144;825.373;459.243;1.61
145;837.581;453.383;1.63
146;842.463;451.186;1.64
147;850.093;447.279;1.65
148;847.652;457.289;1.66
149;852.535;465.102;1.67001
150;877.255;463.149;1.68
151;896.786;449.232;1.69
152;904.416;465.102;1.7
153;919.065;457.289;1.71001
154;921.506;451.186;1.72
155;919.065;457.289;1.73
156;914.182;461.196;1.74001
157;921.506;463.149;1.75
158;934.019;455.336;1.76
159;943.785;447.279;1.77
160;948.668;457.289;1.78001
161;946.226;467.055;1.79
162;934.019;449.232;1.8
163;934.019;461.196;1.81001
164;953.856;465.102;1.82
165;966.063;465.102;1.82
166;975.829;457.289;1.83
167;985.9;467.055;1.84
168;985.9;465.102;1.85001
169;983.459;479.019;1.86
170;998.108;465.102;1.87
171;1027.71;459.243;1.88
172;1042.66;477.065;1.89
173;1054.87;463.149;1.89
174;1062.5;467.055;1.9
175;1057.31;469.008;1.91
176;1049.99;475.112;1.92001
177;1062.5;463.149;1.93
178;1079.59;467.055;1.93
179;1086.92;453.383;1.94
180;1094.55;475.112;1.95
181;1089.66;479.019;1.96001
182;1077.15;461.196;1.96001
183;1077.15;480.972;1.97
184;1106.75;477.065;1.98
185;1124.15;477.065;1.98
186;1136.36;467.055;1.99001
187;1148.87;488.784;2
188;1151.31;480.972;2.01
189;1153.75;498.795;2.01
190;1176.03;475.112;2.02
191;1208.08;475.112;2.03001
192;1227.91;492.691;2.03001
193;1242.56;472.915;2.04
194;1247.44;479.019;2.05
195;1237.68;480.972;2.05
196;1227.91;490.738;2.06001
197;1242.56;472.915;2.07
198;1257.52;480.972;2.07
199;1267.28;465.102;2.08
200;1274.61;498.795;2.09
201;1267.28;492.691;2.09
202;1249.89;472.915;2.10001
203;1252.33;498.795;2.11
204;1282.24;494.644;2.11
205;1296.88;490.738;2.12
206;1309.4;480.972;2.13
207;1321.6;498.795;2.13
208;1324.05;496.597;2.14
209;1316.72;514.42;2.14
210;1339;494.644;2.15
211;1368.6;490.738;2.15
212;1388.13;512.467;2.16
213;1405.53;490.738;2.16
214;1407.97;494.644;2.17001
215;1395.76;498.795;2.18
216;1383.25;510.514;2.18
217;1398.21;492.691;2.19
218;1415.3;500.748;2.19
219;1422.93;480.972;2.19
220;1427.81;510.514;2.2
221;1420.48;512.467;2.2
222;1395.76;490.738;2.21001
223;1393.32;516.373;2.21001
224;1422.93;510.514;2.22
225;1440.02;512.467;2.22
226;1447.65;494.644;2.23
227;1459.85;522.477;2.23
228;1452.53;514.42;2.23
229;1445.2;534.196;2.24001
230;1467.18;502.701;2.24001
231;1501.97;508.56;2.25
232;1521.5;528.336;2.25
233;1534.01;502.701;2.25
234;1536.45;512.467;2.26
235;1516.62;512.467;2.26
236;1506.85;520.524;2.26
237;1521.5;520.524;2.27
238;1534.01;508.56;2.27
239;1541.34;502.701;2.28001
240;1543.78;512.467;2.28001
241;1529.13;530.29;2.28001
242;1504.41;508.56;2.29
243;1499.53;520.524;2.29
244;1531.57;526.383;2.29
245;1543.78;518.326;2.3
246;1553.85;512.467;2.3
247;1561.17;516.373;2.31001
248;1553.85;524.43;2.31001
249;1543.78;538.102;2.31001
250;1563.62;526.383;2.32
251;1600.54;512.467;2.32
252;1617.94;538.102;2.32
253;1630.15;522.477;2.33
254;1627.7;520.524;2.33
255;1610.61;524.43;2.33
256;1588.34;534.196;2.34
257;1605.43;530.29;2.34
258;1617.94;522.477;2.34
259;1622.82;506.607;2.35001
260;1622.82;524.43;2.35001
261;1605.43;538.102;2.35001
262;1578.26;510.514;2.36
263;1573.38;530.29;2.36
264;1605.43;532.243;2.36
265;1620.38;528.336;2.37
266;1627.7;516.373;2.37
267;1635.33;530.29;2.37
268;1622.82;530.29;2.38
269;1613.06;552.019;2.38
270;1637.78;526.383;2.38
271;1669.82;522.477;2.39
272;1686.91;546.159;2.39
273;1701.86;522.477;2.39
274;1694.54;526.383;2.39
275;1672.26;528.336;2.4
276;1654.87;542.009;2.4
277;1669.82;524.43;2.4
278;1679.59;528.336;2.41
279;1689.66;506.607;2.41
280;1686.91;540.056;2.41
281;1667.38;536.149;2.42001
282;1635.33;516.373;2.42001
283;1632.59;544.206;2.42001
284;1662.5;536.149;2.42001
285;1677.14;536.149;2.43
286;1684.47;520.524;2.43
287;1686.91;546.159;2.43
288;1679.59;536.149;2.44
289;1662.5;559.832;2.44
290;1686.91;530.29;2.44
291;1719.26;528.336;2.44
292;1736.35;553.972;2.45
293;1748.86;528.336;2.45
294;1741.23;532.243;2.45
295;1719.26;532.243;2.46001
296;1699.42;548.112;2.46001
297;1714.07;522.477;2.46001
298;1726.58;530.29;2.46001
299;1731.47;524.43;2.47
300;1729.03;530.29;2.47
301;1709.19;553.972;2.47
302;1674.7;530.29;2.47
303;1669.82;538.102;2.48
304;1704.31;550.066;2.48
305;1719.26;536.149;2.48
306;1729.03;524.43;2.48
307;1729.03;534.196;2.49001
308;1716.82;544.206;2.49001
309;1699.42;552.019;2.49001
310;1726.58;546.159;2.49001
311;1763.51;528.336;2.5
312;1778.47;552.019;2.5
313;1790.67;536.149;2.5
314;1783.35;532.243;2.5
315;1758.63;540.056;2.51
316;1736.35;552.019;2.51
317;1753.75;546.159;2.51
318;1768.4;534.196;2.51
319;1776.02;522.477;2.52
320;1771.14;542.009;2.52
321;1748.86;553.972;2.52
322;1711.63;528.336;2.52
323;1709.19;546.159;2.52
324;1743.98;550.066;2.53001
325;1758.63;542.009;2.53001
326;1765.95;530.29;2.53001
327;1763.51;542.009;2.53001
328;1753.75;548.112;2.53001
329;1736.35;565.935;2.54
330;1765.95;544.206;2.54
331;1803.19;536.149;2.54
332;1820.28;561.785;2.54
333;1830.35;540.056;2.55
334;1825.16;540.056;2.55
335;1800.74;542.009;2.55
336;1778.47;557.878;2.55
337;1793.11;546.159;2.55
338;1805.63;540.056;2.56001
339;1810.51;520.524;2.56001
340;1808.07;552.019;2.56001
341;1780.91;552.019;2.56001
342;1748.86;526.383;2.56001
343;1746.42;553.972;2.57
344;1778.47;553.972;2.57
345;1795.56;550.066;2.57
346;1805.63;534.196;2.57
347;1805.63;555.925;2.57
348;1790.67;550.066;2.57
349;1773.58;575.701;2.58
350;1800.74;546.159;2.58
351;1835.23;540.056;2.58
352;1852.32;565.935;2.58
353;1864.83;542.009;2.58
354;1855.07;548.112;2.59
355;1827.91;546.159;2.59
356;1808.07;561.785;2.59
357;1822.72;538.102;2.59
358;1835.23;548.112;2.59
359;1842.55;524.43;2.59
360;1837.67;552.019;2.60001
361;1810.51;561.785;2.60001
362;1776.02;532.243;2.60001
363;1776.02;553.972;2.60001
364;1810.51;557.878;2.60001
365;1822.72;552.019;2.61
366;1832.79;540.056;2.61
367;1830.35;553.972;2.61
368;1815.39;553.972;2.61
369;1795.56;577.654;2.61
370;1825.16;552.019;2.61
371;1862.39;544.206;2.62
372;1882.23;571.795;2.62
373;1891.99;546.159;2.62
374;1879.48;550.066;2.62
375;1852.32;553.972;2.62
376;1832.79;565.935;2.62
377;1849.88;548.112;2.63
378;1862.39;552.019;2.63
379;1869.72;528.336;2.63
380;1862.39;563.738;2.63
381;1835.23;561.785;2.63
382;1800.74;536.149;2.63
383;1800.74;563.738;2.64
384;1832.79;559.832;2.64
385;1845;557.878;2.64
386;1857.51;542.009;2.64
387;1855.07;567.888;2.64
388;1837.67;557.878;2.64
389;1820.28;585.467;2.65
390;1849.88;550.066;2.65
391;1889.55;538.102;2.65
392;1906.64;561.785;2.65
393;1914.27;557.878;2.65
394;1904.2;544.206;2.65
395;1874.6;557.878;2.66
396;1857.51;567.888;2.66
397;1869.72;565.935;2.66
398;1884.67;552.019;2.66
399;1889.55;542.009;2.66
400;1884.67;552.019;2.66
401;1855.07;573.748;2.66
402;1817.83;548.112;2.67001
403;1820.28;559.832;2.67001
404;1849.88;569.842;2.67001
405;1867.27;557.878;2.67001
406;1877.04;548.112;2.67001
407;1872.16;555.925;2.67001
408;1852.32;565.935;2.67001
409;1837.67;577.654;2.68
410;1862.39;565.935;2.68
411;1901.76;544.206;2.68
412;1919.16;573.748;2.68
413;1928.92;559.832;2.68
414;1916.71;552.019;2.68
415;1889.55;561.785;2.69
416;1869.72;573.748;2.69
417;1889.55;567.888;2.69
418;1901.76;555.925;2.69
419;1906.64;540.056;2.69
420;1901.76;561.785;2.69
421;1869.72;575.701;2.69
422;1835.23;548.112;2.69
423;1840.11;565.935;2.7
424;1869.72;571.795;2.7
425;1887.11;561.785;2.7
426;1894.44;548.112;2.7
427;1891.99;561.785;2.7
428;1869.72;565.935;2.7
429;1855.07;583.514;2.7
430;1882.23;563.738;2.71001
431;1914.27;553.972;2.71001
432;1936.55;579.608;2.71001
433;1943.88;559.832;2.71001
434;1926.48;557.878;2.71001
435;1899.32;563.738;2.71001
436;1882.23;575.701;2.71001
437;1896.88;565.935;2.71001
438;1916.71;559.832;2.72
439;1919.16;540.056;2.72
440;1914.27;569.842;2.72
441;1884.67;575.701;2.72
442;1849.88;548.112;2.72
443;1852.32;573.748;2.72
444;1884.67;571.795;2.72
445;1899.32;567.888;2.72
446;1909.39;552.019;2.72
447;1904.2;575.701;2.73
448;1882.23;569.842;2.73
449;1864.83;595.477;2.73
450;1891.99;561.785;2.73
451;1928.92;559.832;2.73
452;1946.32;585.467;2.73
453;1956.08;557.878;2.73
454;1941.43;561.785;2.73
455;1911.83;565.935;2.73
456;1891.99;577.654;2.74001
457;1909.39;573.748;2.74001
458;1924.04;561.785;2.74001
459;1933.81;555.925;2.74001
460;1924.04;559.832;2.74001
461;1896.88;585.467;2.74001
462;1859.95;557.878;2.74001
463;1862.39;565.935;2.74001
464;1896.88;583.514;2.74001
465;1911.83;567.888;2.75
466;1921.6;553.972;2.75
467;1919.16;563.738;2.75
468;1894.44;575.701;2.75
469;1877.04;581.561;2.75
470;1904.2;577.654;2.75
471;1943.88;550.066;2.75
472;1958.53;577.654;2.75
473;1968.6;565.935;2.75
474;1953.64;557.878;2.75
475;1926.48;567.888;2.76
476;1906.64;581.561;2.76
477;1928.92;573.748;2.76
478;1943.88;561.785;2.76
479;1948.76;552.019;2.76
480;1941.43;567.888;2.76
481;1911.83;585.467;2.76
482;1872.16;555.925;2.76
483;1879.48;571.795;2.76
484;1911.83;579.608;2.77
485;1928.92;569.842;2.77
486;1938.99;553.972;2.77
487;1931.36;567.888;2.77
488;1911.83;575.701;2.77
489;1887.11;587.42;2.77
490;1921.6;571.795;2.77
491;1958.53;559.832;2.77
492;1978.36;585.467;2.77
493;1983.25;565.935;2.77
494;1971.04;561.785;2.78001
495;1938.99;567.888;2.78001
496;1919.16;581.561;2.78001
497;1938.99;573.748;2.78001
498;1956.08;563.738;2.78001
499;1963.71;546.159;2.78001
500;1956.08;573.748;2.78001
501;1924.04;583.514;2.78001
502;1887.11;553.972;2.78001
503;1891.99;577.654;2.78001
504;1926.48;577.654;2.79
505;1946.32;573.748;2.79
506;1948.76;555.925;2.79
507;1946.32;575.701;2.79
508;1924.04;571.795;2.79
509;1904.2;595.477;2.79
510;1936.55;569.842;2.79
511;1973.48;561.785;2.79
512;1988.13;589.618;2.79
513;1995.76;563.738;2.79
514;1983.25;569.842;2.8
515;1953.64;569.842;2.8
516;1933.81;585.467;2.8
517;1953.64;575.701;2.8
518;1968.6;565.935;2.8
519;1973.48;550.066;2.8
520;1966.15;569.842;2.8
521;1933.81;585.467;2.8
522;1894.44;555.925;2.8
523;1901.76;575.701;2.8
524;1933.81;579.608;2.8
525;1951.2;571.795;2.81001
526;1958.53;553.972;2.81001
527;1951.2;569.842;2.81001
528;1928.92;575.701;2.81001
529;1909.39;593.524;2.81001
530;1941.43;571.795;2.81001
531;1978.36;559.832;2.81001
532;1995.76;589.618;2.81001
533;2003.08;567.888;2.81001
534;1985.69;565.935;2.81001
535;1953.64;569.842;2.82
536;1933.81;585.467;2.82
537;1956.08;573.748;2.82
538;1971.04;567.888;2.82
539;1975.92;546.159;2.82
540;1971.04;575.701;2.82
541;1938.99;579.608;2.82
542;1901.76;555.925;2.82
543;1904.2;579.608;2.82
544;1943.88;579.608;2.82
545;1956.08;573.748;2.82
546;1966.15;557.878;2.83
547;1958.53;579.608;2.83
548;1936.55;575.701;2.83
549;1916.71;579.608;2.83
550;1948.76;587.42;2.83
551;1983.25;548.112;2.83
552;2000.64;577.654;2.83
553;2005.52;577.654;2.83
554;1988.13;557.878;2.83
555;1960.97;573.748;2.83
556;1938.99;581.561;2.83
557;1958.53;579.608;2.84
558;1973.48;561.785;2.84
559;1978.36;561.785;2.84
560;1971.04;563.738;2.84
561;1938.99;595.477;2.84
562;1901.76;561.785;2.84
563;1909.39;571.795;2.84
564;1943.88;589.618;2.84
565;1958.53;571.795;2.84
566;1968.6;555.925;2.84
567;1963.71;567.888;2.84
568;1936.55;579.608;2.85001
569;1916.71;583.514;2.85001
570;1948.76;581.561;2.85001
571;1983.25;557.878;2.85001
572;1998.2;583.514;2.85001
573;2007.97;571.795;2.85001
574;2005.52;561.785;2.85001
575;1973.48;571.795;2.85001
576;1946.32;587.42;2.85001
577;1953.64;577.654;2.85001
578;1973.48;563.738;2.85001
579;1983.25;555.925;2.86
580;1980.8;571.795;2.86
581;1958.53;591.571;2.86
582;1921.6;561.785;2.86
583;1904.2;573.748;2.86
584;1936.55;587.42;2.86
585;1956.08;571.795;2.86
586;1968.6;557.878;2.86
587;1971.04;571.795;2.86
588;1948.76;577.654;2.86
589;1924.04;591.571;2.86
590;1936.55;575.701;2.87
591;1980.8;561.785;2.87
592;2005.52;589.618;2.87
593;2012.85;571.795;2.87
594;2010.41;565.935;2.87
595;1978.36;573.748;2.87
596;1953.64;589.618;2.87
597;1956.08;575.701;2.87
598;1980.8;567.888;2.87
599;1988.13;552.019;2.87
600;1988.13;577.654;2.87
601;1963.71;585.467;2.87
602;1926.48;555.925;2.88
603;1906.64;579.608;2.88
604;1941.43;579.608;2.88
605;1963.71;573.748;2.88
606;1975.92;557.878;2.88
607;1975.92;575.701;2.88
608;1958.53;575.701;2.88
609;1931.36;599.384;2.88
610;1941.43;571.795;2.88
611;1988.13;548.112;2.88
612;2007.97;579.608;2.88
613;2020.48;581.561;2.88
614;2012.85;555.925;2.89
615;1985.69;573.748;2.89
616;1958.53;583.514;2.89
617;1968.6;581.561;2.89
618;1985.69;563.738;2.89
619;1995.76;563.738;2.89
620;1998.2;561.785;2.89
621;1973.48;597.43;2.89
622;1933.81;567.888;2.89
623;1916.71;571.795;2.89
624;1951.2;593.524;2.89
625;1975.92;573.748;2.9
626;1985.69;559.832;2.9
627;1985.69;569.842;2.9
628;1968.6;581.561;2.9
629;1943.88;585.467;2.9
630;1953.64;583.514;2.9
631;1998.2;553.972;2.9
632;2022.92;581.561;2.9
633;2032.69;573.748;2.9
634;2025.36;561.785;2.9
635;1995.76;573.748;2.9
636;1971.04;585.467;2.9
637;1975.92;577.654;2.91
638;2003.08;565.935;2.91
639;2005.52;557.878;2.91
640;2007.97;567.888;2.91
641;1985.69;593.524;2.91
642;1948.76;561.785;2.91
643;1928.92;575.701;2.91
644;1966.15;585.467;2.91
645;1988.13;573.748;2.91
646;1995.76;557.878;2.91
647;1998.2;571.795;2.91
648;1980.8;579.608;2.91
649;1953.64;589.618;2.92001
650;1963.71;579.608;2.92001
651;2007.97;559.832;2.92001
652;2027.8;587.42;2.92001
653;2037.57;569.842;2.92001
654;2030.24;569.842;2.92001
655;2000.64;573.748;2.92001
656;1971.04;591.571;2.92001
657;1983.25;577.654;2.92001
658;2005.52;567.888;2.92001
659;2012.85;553.972;2.92001
660;2012.85;577.654;2.92001
661;1988.13;585.467;2.93
662;1953.64;557.878;2.93
663;1936.55;577.654;2.93
664;1971.04;585.467;2.93
665;1990.88;575.701;2.93
666;2005.52;557.878;2.93
667;2005.52;571.795;2.93
668;1985.69;579.608;2.93
669;1958.53;595.477;2.93
670;1968.6;575.701;2.93
671;2015.29;565.935;2.93
672;2035.13;589.618;2.93
673;2047.64;567.888;2.93
674;2035.13;563.738;2.94
675;2005.52;573.748;2.94
676;1978.36;587.42;2.94
677;1988.13;579.608;2.94
678;2007.97;567.888;2.94
679;2018.04;557.878;2.94
680;2018.04;569.842;2.94
681;1993.32;587.42;2.94
682;1956.08;561.785;2.94
683;1941.43;575.701;2.94
684;1978.36;583.514;2.94
685;2000.64;571.795;2.94
686;2012.85;557.878;2.95
687;2010.41;571.795;2.95
688;1990.88;579.608;2.95
689;1963.71;593.524;2.95
690;1978.36;577.654;2.95
691;2022.92;563.738;2.95
692;2042.45;589.618;2.95
693;2054.96;569.842;2.95
694;2045.2;565.935;2.95
695;2015.29;573.748;2.95
696;1983.25;591.571;2.95
697;1995.76;577.654;2.95
698;2018.04;567.888;2.96001
699;2025.36;552.019;2.96001
700;2025.36;579.608;2.96001
701;1998.2;585.467;2.96001
702;1960.97;555.925;2.96001
703;1946.32;581.561;2.96001
704;1985.69;581.561;2.96001
705;2005.52;573.748;2.96001
706;2015.29;567.888;2.96001
707;2018.04;567.888;2.96001
708;1995.76;585.467;2.96001
709;1971.04;579.608;2.96001
710;1983.25;591.571;2.96001
711;2025.36;548.112;2.97
712;2045.2;577.654;2.97
713;2057.41;579.608;2.97
714;2047.64;555.925;2.97
715;2018.04;573.748;2.97
716;1985.69;581.561;2.97
717;1995.76;581.561;2.97
718;2020.48;563.738;2.97
719;2030.24;565.935;2.97
720;2025.36;563.738;2.97
721;2000.64;597.43;2.97
722;1963.71;569.842;2.97
723;1951.2;571.795;2.97
724;1985.69;593.524;2.98
725;2010.41;571.795;2.98
726;2022.92;561.785;2.98
727;2018.04;567.888;2.98
728;1998.2;583.514;2.98
729;1973.48;585.467;2.98
730;1985.69;585.467;2.98
731;2030.24;555.925;2.98
732;2050.08;581.561;2.98
733;2062.29;575.701;2.98
734;2047.64;561.785;2.98
735;2020.48;571.795;2.98
736;1990.88;589.618;2.98
737;2000.64;579.608;2.98
738;2022.92;567.888;2.99001
739;2030.24;559.832;2.99001
740;2025.36;565.935;2.99001
741;2003.08;591.571;2.99001
742;1963.71;563.738;2.99001
743;1951.2;573.748;2.99001
744;1988.13;585.467;2.99001
745;2012.85;571.795;2.99001
746;2020.48;557.878;2.99001
747;2020.48;571.795;2.99001
748;2000.64;579.608;2.99001
749;1973.48;591.571;2.99001
750;1988.13;579.608;2.99001
751;2030.24;559.832;2.99001
752;2050.08;585.467;3
753;2062.29;571.795;3
754;2050.08;563.738;3
755;2018.04;571.795;3
756;1988.13;589.618;3
757;2003.08;577.654;3
758;2025.36;565.935;3
759;2032.69;553.972;3
760;2032.69;575.701;3
761;2005.52;587.42;3
762;1966.15;559.832;3
763;1953.64;579.608;3
764;1990.88;583.514;3
765;2012.85;573.748;3.01
766;2022.92;552.019;3.01
767;2022.92;573.748;3.01
768;2000.64;587.42;3.01
769;1975.92;575.701;3.01
770;1985.69;595.477;3.01
771;2030.24;548.112;3.01
772;2050.08;575.701;3.01
773;2059.85;581.561;3.01
774;2050.08;552.019;3.01
775;2020.48;573.748;3.01
776;1990.88;577.654;3.01
777;2000.64;583.514;3.01
778;2022.92;563.738;3.01
779;2030.24;565.935;3.02
780;2030.24;559.832;3.02
781;2003.08;599.384;3.02
782;1963.71;569.842;3.02
783;1951.2;567.888;3.02
784;1985.69;595.477;3.02
785;2010.41;571.795;3.02
786;2020.48;563.738;3.02
787;2020.48;567.888;3.02
788;1998.2;583.514;3.02
789;1973.48;579.608;3.02
790;1988.13;587.42;3.02
791;2030.24;552.019;3.02
792;2052.52;581.561;3.02
793;2059.85;577.654;3.02
794;2050.08;555.925;3.03001
795;2020.48;571.795;3.03001
796;1990.88;585.467;3.03001
797;2005.52;579.608;3.03001
798;2027.8;561.785;3.03001
799;2032.69;561.785;3.03001
800;2030.24;565.935;3.03001
801;2003.08;595.477;3.03001
802;1966.15;567.888;3.03001
803;1953.64;573.748;3.03001
804;1993.32;589.618;3.03001
805;2012.85;569.842;3.03001
806;2022.92;557.878;3.03001
807;2022.92;569.842;3.03001
808;2000.64;581.561;3.04
809;1973.48;587.42;3.04
810;1988.13;581.561;3.04
811;2030.24;557.878;3.04
812;2050.08;585.467;3.04
813;2059.85;573.748;3.04
814;2047.64;563.738;3.04
815;2018.04;573.748;3.04
816;1990.88;587.42;3.04
817;2003.08;577.654;3.04
818;2025.36;567.888;3.04
819;2032.69;557.878;3.04
820;2030.24;569.842;3.04
821;2005.52;589.618;3.04
822;1966.15;559.832;3.04
823;1956.08;575.701;3.05
824;1990.88;583.514;3.05
825;2012.85;571.795;3.05
826;2022.92;555.925;3.05
827;2025.36;571.795;3.05
828;2000.64;579.608;3.05
829;1973.48;593.524;3.05
830;1990.88;575.701;3.05
831;2030.24;553.972;3.05
832;2054.96;581.561;3.05
833;2062.29;575.701;3.05
834;2050.08;559.832;3.05
835;2018.04;573.748;3.05
836;1990.88;583.514;3.06001
837;2005.52;579.608;3.06001
838;2027.8;565.935;3.06001
839;2032.69;557.878;3.06001
840;2030.24;567.888;3.06001
841;2003.08;591.571;3.06001
842;1966.15;561.785;3.06001
843;1956.08;575.701;3.06001
844;1993.32;587.42;3.06001
845;2010.41;573.748;3.06001
846;2022.92;557.878;3.06001
847;2020.48;571.795;3.06001
848;1998.2;581.561;3.06001
849;1973.48;589.618;3.06001
850;1988.13;583.514;3.07
851;2032.69;559.832;3.07
852;2050.08;585.467;3.07
853;2062.29;571.795;3.07
854;2050.08;567.888;3.07
855;2018.04;575.701;3.07
856;1990.88;589.618;3.07
857;2005.52;579.608;3.07
858;2025.36;569.842;3.07
859;2030.24;555.925;3.07
860;2030.24;573.748;3.07
861;2005.52;587.42;3.07
862;1966.15;573.748;3.07
863;1953.64;561.785;3.07
864;1993.32;597.43;3.07
865;2012.85;575.701;3.08
866;2022.92;569.842;3.08
867;2020.48;563.738;3.08
868;2000.64;587.42;3.08
869;1973.48;577.654;3.08
870;1988.13;595.477;3.08
871;2030.24;548.112;3.08
872;2050.08;573.748;3.08
873;2062.29;583.514;3.08
874;2047.64;552.019;3.08
875;2015.29;573.748;3.08
876;1988.13;577.654;3.08
877;2000.64;585.467;3.08
878;2020.48;559.832;3.08
879;2027.8;567.888;3.09
880;2025.36;557.878;3.09
881;2000.64;597.43;3.09
882;1960.97;569.842;3.09
883;1953.64;569.842;3.09
884;1990.88;595.477;3.09
885;2012.85;571.795;3.09
886;2020.48;565.935;3.09
887;2020.48;567.888;3.09
888;1998.2;583.514;3.09
889;1973.48;581.561;3.09
890;1988.13;587.42;3.09
891;2030.24;552.019;3.09
892;2052.52;579.608;3.09
893;2062.29;575.701;3.09
894;2050.08;557.878;3.10001
895;2018.04;573.748;3.10001
896;1990.88;581.561;3.10001
897;2005.52;579.608;3.10001
898;2025.36;563.738;3.10001
899;2030.24;563.738;3.10001
900;2027.8;563.738;3.10001
901;2000.64;595.477;3.10001
902;1966.15;565.935;3.10001
903;1953.64;573.748;3.10001
904;1995.76;591.571;3.10001
905;2012.85;573.748;3.10001
906;2022.92;561.785;3.10001
907;2025.36;571.795;3.10001
908;2000.64;581.561;3.11
909;1975.92;585.467;3.11
910;1995.76;589.618;3.11
911;2037.57;553.972;3.11
912;2059.85;583.514;3.11
913;2069.61;573.748;3.11
914;2057.41;563.738;3.11
915;2025.36;573.748;3.11
916;1998.2;587.42;3.11
917;2015.29;577.654;3.11
918;2032.69;567.888;3.11
919;2037.57;557.878;3.11
920;2035.13;573.748;3.11
921;2007.97;589.618;3.11
922;1968.6;559.832;3.11
923;1958.53;577.654;3.12
924;1993.32;587.42;3.12
925;2012.85;573.748;3.12
926;2022.92;573.748;3.12
927;2022.92;563.738;3.12
928;1998.2;587.42;3.12
929;1975.92;577.654;3.12
930;1995.76;595.477;3.12
931;2040.01;548.112;3.12
932;2062.29;575.701;3.12
933;2072.36;583.514;3.12
934;2057.41;552.019;3.12
935;2027.8;575.701;3.12
936;1998.2;573.748;3.12
937;2018.04;581.561;3.12
938;2035.13;561.785;3.12
939;2042.45;571.795;3.13
940;2035.13;555.925;3.13
941;2007.97;601.337;3.13
942;1968.6;573.748;3.13
943;1960.97;565.935;3.13
944;1995.76;595.477;3.13
945;2018.04;571.795;3.13
946;2025.36;567.888;3.13
947;2025.36;567.888;3.13
948;2003.08;583.514;3.13
949;1978.36;577.654;3.13
950;1995.76;591.571;3.13
951;2040.01;550.066;3.13
952;2059.85;577.654;3.13
953;2069.61;577.654;3.13
954;2059.85;555.925;3.14
955;2025.36;575.701;3.14
956;1998.2;581.561;3.14
957;2015.29;581.561;3.14
958;2032.69;563.738;3.14
959;2037.57;563.738;3.14
960;2037.57;563.738;3.14
961;2007.97;597.43;3.14
962;1971.04;567.888;3.14
963;1960.97;569.842;3.14
964;1998.2;591.571;3.14
965;2018.04;573.748;3.14
966;2025.36;561.785;3.14
967;2025.36;569.842;3.14
968;2003.08;583.514;3.14
969;1975.92;583.514;3.14
970;1995.76;585.467;3.15
971;2037.57;553.972;3.15
972;2057.41;581.561;3.15
973;2067.17;575.701;3.15
974;2057.41;561.785;3.15
975;2025.36;573.748;3.15
976;1998.2;585.467;3.15
977;2015.29;581.561;3.15
978;2037.57;567.888;3.15
979;2042.45;557.878;3.15
980;2037.57;569.842;3.15
981;2010.41;591.571;3.15
982;1968.6;561.785;3.15
983;1963.71;573.748;3.15
984;2003.08;587.42;3.15
985;2020.48;573.748;3.16
986;2030.24;555.925;3.16
987;2027.8;571.795;3.16
988;2003.08;583.514;3.16
989;1980.8;581.561;3.16
990;2000.64;591.571;3.16
991;2045.2;552.019;3.16
992;2064.73;579.608;3.16
993;2074.8;577.654;3.16
994;2062.29;559.832;3.16
995;2030.24;573.748;3.16
996;2003.08;583.514;3.16
997;2012.85;579.608;3.16
998;2037.57;565.935;3.16
999;2042.45;563.738;3.16
1000;2040.01;563.738;3.16
1001;2018.04;595.477;3.17001
1002;1975.92;567.888;3.17001
1003;1958.53;571.795;3.17001
1004;1995.76;589.618;3.17001
1005;2018.04;573.748;3.17001
1006;2027.8;559.832;3.17001
1007;2030.24;571.795;3.17001
1008;2010.41;581.561;3.17001
1009;1983.25;585.467;3.17001
1010;1990.88;583.514;3.17001
1011;2037.57;555.925;3.17001
1012;2062.29;583.514;3.17001
1013;2072.36;571.795;3.17001
1014;2067.17;561.785;3.17001
1015;2035.13;575.701;3.17001
1016;2003.08;585.467;3.18
1017;2010.41;577.654;3.18
1018;2032.69;567.888;3.18
1019;2040.01;557.878;3.18
1020;2037.57;548.112;3.18
1021;2012.85;603.29;3.18
1022;1973.48;577.654;3.18
1023;1956.08;559.832;3.18
1024;1993.32;595.477;3.18
1025;2015.29;573.748;3.18
1026;2027.8;573.748;3.18
1027;2027.8;561.785;3.18
1028;2005.52;587.42;3.18
1029;1983.25;573.748;3.18
1030;1993.32;599.384;3.18
1031;2040.01;546.159;3.18
1032;2062.29;571.795;3.18
1033;2074.8;585.467;3.19
1034;2067.17;550.066;3.19
1035;2035.13;573.748;3.19
1036;2003.08;573.748;3.19
1037;2010.41;585.467;3.19
1038;2032.69;561.785;3.19
1039;2035.13;567.888;3.19
1040;2040.01;555.925;3.19
1041;2012.85;603.29;3.19
1042;1975.92;571.795;3.19
1043;1958.53;567.888;3.19
1044;1995.76;597.43;3.19
1045;2018.04;571.795;3.19
1046;2027.8;569.842;3.19
1047;2030.24;565.935;3.19
1048;2007.97;583.514;3.19
1049;1985.69;577.654;3.2
1050;1995.76;591.571;3.2
1051;2040.01;550.066;3.2
1052;2062.29;575.701;3.2
1053;2072.36;579.608;3.2
1054;2064.73;555.925;3.2
1055;2035.13;573.748;3.2
1056;2003.08;577.654;3.2
1057;2012.85;581.561;3.2
1058;2035.13;563.738;3.2
1059;2040.01;565.935;3.2
1060;2037.57;561.785;3.2
1061;2012.85;597.43;3.2
1062;1975.92;567.888;3.2
1063;1956.08;569.842;3.2
1064;1995.76;591.571;3.2
1065;2018.04;571.795;3.2
1066;2027.8;563.738;3.21001
1067;2030.24;569.842;3.21001
1068;2012.85;579.608;3.21001
1069;1985.69;581.561;3.21001
1070;1993.32;585.467;3.21001
1071;2037.57;555.925;3.21001
1072;2062.29;581.561;3.21001
1073;2074.8;575.701;3.21001
1074;2064.73;557.878;3.21001
1075;2035.13;573.748;3.21001
1076;2005.52;585.467;3.21001
1077;2010.41;577.654;3.21001
1078;2035.13;563.738;3.21001
1079;2042.45;555.925;3.21001
1080;2040.01;567.888;3.21001
1081;2015.29;587.42;3.21001
1082;1975.92;575.701;3.21001
1083;1958.53;552.019;3.22
1084;1998.2;595.477;3.22
1085;2020.48;573.748;3.22
1086;2030.24;573.748;3.22
1087;2032.69;561.785;3.22
1088;2015.29;589.618;3.22
1089;1983.25;571.795;3.22
1090;1998.2;603.29;3.22
1091;2045.2;546.159;3.22
1092;2064.73;569.842;3.22
1093;2077.24;589.618;3.22
1094;2064.73;552.019;3.22
1095;2037.57;573.748;3.22
1096;2003.08;571.795;3.22
1097;2015.29;583.514;3.22
1098;2035.13;559.832;3.22
1099;2040.01;571.795;3.22
1100;2040.01;550.066;3.23
1101;2020.48;603.29;3.23
1102;1978.36;573.748;3.23
1103;1960.97;559.832;3.23
1104;1998.2;599.384;3.23
1105;2020.48;573.748;3.23
1106;2032.69;567.888;3.23
1107;2030.24;565.935;3.23
1108;2012.85;585.467;3.23
1109;1985.69;575.701;3.23
1110;1995.76;593.524;3.23
1111;2042.45;546.159;3.23
1112;2064.73;573.748;3.23
1113;2077.24;579.608;3.23
1114;2067.17;553.972;3.23
1115;2035.13;571.795;3.23
1116;2005.52;577.654;3.23
1117;2018.04;579.608;3.24001
1118;2035.13;561.785;3.24001
1119;2037.57;567.888;3.24001
1120;2037.57;557.878;3.24001
1121;2012.85;599.384;3.24001
1122;1975.92;569.842;3.24001
1123;1956.08;563.738;3.24001
1124;1993.32;593.524;3.24001
1125;2015.29;571.795;3.24001
1126;2025.36;561.785;3.24001
1127;2025.36;567.888;3.24001
1128;2005.52;583.514;3.24001
1129;1983.25;579.608;3.24001
1130;1998.2;591.571;3.24001
1131;2045.2;552.019;3.24001
1132;2067.17;577.654;3.24001
1133;2079.68;575.701;3.24001
1134;2069.61;557.878;3.24001
1135;2040.01;571.795;3.25
1136;2005.52;583.514;3.25
1137;2018.04;581.561;3.25
1138;2037.57;563.738;3.25
1139;2042.45;559.832;3.25
1140;2040.01;565.935;3.25
1141;2012.85;591.571;3.25
1142;1971.04;563.738;3.25
1143;1953.64;571.795;3.25
1144;1990.88;587.42;3.25
1145;2015.29;573.748;3.25
1146;2025.36;565.935;3.25
1147;2022.92;561.785;3.25
1148;2005.52;583.514;3.25
1149;1980.8;577.654;3.25
1150;1995.76;593.524;3.25
1151;2045.2;548.112;3.25
1152;2067.17;575.701;3.25
1153;2079.68;581.561;3.26
1154;2069.61;552.019;3.26
1155;2040.01;573.748;3.26
1156;2007.97;577.654;3.26
1157;2018.04;579.608;3.26
1158;2035.13;559.832;3.26
1159;2040.01;563.738;3.26
1160;2040.01;559.832;3.26
1161;2005.52;595.477;3.26
1162;1968.6;567.888;3.26
1163;1956.08;567.888;3.26
1164;1993.32;591.571;3.26
1165;2015.29;571.795;3.26
1166;2027.8;561.785;3.26
1167;2025.36;567.888;3.26
1168;2007.97;581.561;3.26
1169;1980.8;583.514;3.27
1170;1998.2;585.467;3.27
1171;2042.45;552.019;3.27
1172;2067.17;579.608;3.27
1173;2077.24;575.701;3.27
1174;2067.17;559.832;3.27
1175;2037.57;571.795;3.27
1176;2007.97;579.608;3.27
1177;2015.29;583.514;3.27
1178;2032.69;555.925;3.27
1179;2037.57;571.795;3.27
1180;2035.13;546.159;3.27
1181;2007.97;601.337;3.27
1182;1968.6;575.701;3.27
1183;1953.64;555.925;3.27
1184;1988.13;595.477;3.27
1185;2012.85;569.842;3.27
1186;2022.92;575.701;3.28001
1187;2022.92;559.832;3.28001
1188;2003.08;587.42;3.28001
1189;1978.36;571.795;3.28001
1190;1995.76;601.337;3.28001
1191;2042.45;546.159;3.28001
1192;2062.29;569.842;3.28001
1193;2074.8;587.42;3.28001
1194;2064.73;553.972;3.28001
1195;2035.13;573.748;3.28001
1196;2003.08;567.888;3.28001
1197;2015.29;581.561;3.28001
1198;2032.69;555.925;3.28001
1199;2037.57;569.842;3.28001
1200;2035.13;550.066;3.28001
1201;2005.52;603.29;3.28001
1202;1968.6;575.701;3.28001
1203;1953.64;559.832;3.29
1204;1990.88;595.477;3.29
1205;2012.85;571.795;3.29
1206;2018.04;569.842;3.29
1207;2022.92;561.785;3.29
1208;2012.85;585.467;3.29
1209;1985.69;575.701;3.29
1210;1983.25;595.477;3.29
1211;2025.36;546.159;3.29
1212;2052.52;571.795;3.29
1213;2069.61;581.561;3.29
1214;2069.61;552.019;3.29
1215;2047.64;571.795;3.29
1216;2012.85;575.701;3.29
1217;2003.08;583.514;3.29
1218;2027.8;559.832;3.29
1219;2032.69;563.738;3.29
1220;2040.01;557.878;3.3
1221;2020.48;597.43;3.3
1222;1983.25;569.842;3.3
1223;1948.76;565.935;3.3
1224;1978.36;593.524;3.3
1225;2007.97;567.888;3.3
1226;2018.04;563.738;3.3
1227;2025.36;565.935;3.3
1228;2010.41;581.561;3.3
1229;1985.69;581.561;3.3
1230;1983.25;587.42;3.3
1231;2027.8;550.066;3.3
1232;2054.96;579.608;3.3
1233;2072.36;575.701;3.3
1234;2072.36;557.878;3.3
1235;2050.08;571.795;3.3
1236;2012.85;579.608;3.3
1237;2007.97;579.608;3.31001
1238;2027.8;561.785;3.31001
1239;2035.13;559.832;3.31001
1240;2037.57;546.159;3.31001
1241;2020.48;597.43;3.31001
1242;1980.8;575.701;3.31001
1243;1948.76;553.972;3.31001
1244;1973.48;591.571;3.31001
1245;2007.97;571.795;3.31001
1246;2018.04;575.701;3.31001
1247;2025.36;557.878;3.31001
1248;2010.41;591.571;3.31001
1249;1985.69;571.795;3.31001
1250;1980.8;601.337;3.31001
1251;2027.8;544.206;3.31001
1252;2057.41;569.842;3.31001
1253;2072.36;589.618;3.31001
1254;2074.8;552.019;3.32
1255;2045.2;573.748;3.32
1256;2010.41;567.888;3.32
1257;2005.52;585.467;3.32
1258;2030.24;555.925;3.32
1259;2035.13;571.795;3.32
1260;2037.57;546.159;3.32
1261;2018.04;603.29;3.32
1262;1983.25;573.748;3.32
1263;1946.32;555.925;3.32
1264;1975.92;595.477;3.32
1265;2007.97;571.795;3.32
1266;2018.04;571.795;3.32
1267;2025.36;561.785;3.32
1268;2010.41;587.42;3.32
1269;1985.69;571.795;3.32
1270;1980.8;597.43;3.32
1271;2025.36;544.206;3.33
1272;2057.41;571.795;3.33
1273;2072.36;583.514;3.33
1274;2069.61;552.019;3.33
1275;2045.2;571.795;3.33
1276;2010.41;573.748;3.33
1277;2005.52;583.514;3.33
1278;2030.24;557.878;3.33
1279;2037.57;565.935;3.33
1280;2037.57;552.019;3.33
1281;2020.48;599.384;3.33
1282;1983.25;571.795;3.33
1283;1951.2;561.785;3.33
1284;1978.36;595.477;3.33
1285;2007.97;569.842;3.33
1286;2020.48;565.935;3.33
1287;2025.36;565.935;3.33
1288;2010.41;581.561;3.34
1289;1985.69;577.654;3.34
1290;1978.36;591.571;3.34
1291;2027.8;548.112;3.34
1292;2057.41;575.701;3.34
1293;2072.36;579.608;3.34
1294;2072.36;553.972;3.34
1295;2045.2;571.795;3.34
1296;2012.85;579.608;3.34
1297;2003.08;579.608;3.34
1298;2027.8;563.738;3.34
1299;2032.69;559.832;3.34
1300;2035.13;559.832;3.34
1301;2015.29;593.524;3.34
1302;1978.36;565.935;3.34
1303;1946.32;559.832;3.34
1304;1973.48;595.477;3.34
1305;2003.08;571.795;3.35001
1306;2018.04;571.795;3.35001
1307;2020.48;561.785;3.35001
1308;2005.52;585.467;3.35001
1309;1983.25;575.701;3.35001
1310;1978.36;595.477;3.35001
1311;2022.92;542.009;3.35001
1312;2052.52;573.748;3.35001
1313;2067.17;583.514;3.35001
1314;2064.73;550.066;3.35001
1315;2040.01;571.795;3.35001
1316;2005.52;575.701;3.35001
1317;2000.64;581.561;3.35001
1318;2025.36;559.832;3.35001
1319;2032.69;565.935;3.35001
1320;2030.24;555.925;3.35001
1321;2012.85;595.477;3.35001
1322;1975.92;569.842;3.36
1323;1946.32;561.785;3.36
1324;1971.04;593.524;3.36
1325;2000.64;569.842;3.36
1326;2012.85;563.738;3.36
1327;2018.04;565.935;3.36
1328;2005.52;581.561;3.36
1329;1975.92;579.608;3.36
1330;1973.48;591.571;3.36
1331;2022.92;546.159;3.36
1332;2050.08;577.654;3.36
1333;2062.29;577.654;3.36
1334;2064.73;553.972;3.36
1335;2037.57;569.842;3.36
1336;2003.08;567.888;3.36
1337;1998.2;585.467;3.36
1338;2022.92;552.019;3.36
1339;2027.8;569.842;3.37
1340;2027.8;544.206;3.37
1341;2010.41;599.384;3.37
1342;1968.6;573.748;3.37
1343;1943.88;552.019;3.37
1344;1968.6;587.42;3.37
1345;1998.2;571.795;3.37
1346;2012.85;573.748;3.37
1347;2015.29;555.925;3.37
1348;2003.08;589.618;3.37
1349;1975.92;571.795;3.37
1350;1975.92;601.337;3.37
1351;2020.48;546.159;3.37
1352;2050.08;567.888;3.37
1353;2062.29;587.42;3.37
1354;2064.73;552.019;3.37
1355;2035.13;571.795;3.37
1356;2000.64;567.888;3.37
1357;1995.76;585.467;3.38
1358;2020.48;555.925;3.38
1359;2027.8;567.888;3.38
1360;2025.36;546.159;3.38
1361;2007.97;603.29;3.38
1362;1968.6;573.748;3.38
1363;1938.99;557.878;3.38
1364;1966.15;595.477;3.38
1365;1995.76;569.842;3.38
1366;2010.41;573.748;3.38
1367;2012.85;557.878;3.38
1368;1998.2;585.467;3.38
1369;1975.92;571.795;3.38
1370;1973.48;597.43;3.38
1371;2020.48;544.206;3.38
1372;2047.64;569.842;3.38
1373;2059.85;583.514;3.38
1374;2057.41;548.112;3.39
1375;2032.69;569.842;3.39
1376;2000.64;569.842;3.39
1377;1995.76;581.561;3.39
1378;2020.48;557.878;3.39
1379;2025.36;565.935;3.39
1380;2027.8;552.019;3.39
1381;2005.52;601.337;3.39
1382;1968.6;571.795;3.39
1383;1941.43;559.832;3.39
1384;1971.04;595.477;3.39
1385;1995.76;571.795;3.39
1386;2007.97;565.935;3.39
1387;2015.29;563.738;3.39
1388;1998.2;583.514;3.39
1389;1971.04;575.701;3.39
1390;1971.04;585.467;3.39
1391;2018.04;546.159;3.4
1392;2042.45;571.795;3.4
1393;2054.96;579.608;3.4
1394;2054.96;553.972;3.4
1395;2027.8;569.842;3.4
1396;1993.32;575.701;3.4
1397;1990.88;585.467;3.4
1398;2015.29;550.066;3.4
1399;2022.92;567.888;3.4
1400;2025.36;542.009;3.4
1401;2005.52;597.43;3.4
1402;1968.6;575.701;3.4
1403;1938.99;550.066;3.4
1404;1971.04;589.618;3.4
1405;1995.76;571.795;3.4
1406;2007.97;575.701;3.4
1407;2012.85;553.972;3.4
1408;1998.2;591.571;3.41
1409;1973.48;573.748;3.41
1410;1971.04;597.43;3.41
1411;2012.85;548.112;3.41
1412;2040.01;569.842;3.41
1413;2054.96;585.467;3.41
1414;2050.08;553.972;3.41
1415;2025.36;569.842;3.41
1416;1990.88;567.888;3.41
1417;1990.88;587.42;3.41
1418;2012.85;553.972;3.41
1419;2020.48;569.842;3.41
1420;2020.48;546.159;3.41
1421;2005.52;601.337;3.41
1422;1963.71;573.748;3.41
1423;1938.99;553.972;3.41
1424;1971.04;593.524;3.41
1425;1993.32;571.795;3.42001
1426;2007.97;571.795;3.42001
1427;2015.29;557.878;3.42001
1428;1998.2;587.42;3.42001
1429;1973.48;569.842;3.42001
1430;1968.6;597.43;3.42001
1431;2015.29;540.056;3.42001
1432;2040.01;567.888;3.42001
1433;2054.96;587.42;3.42001
1434;2052.52;548.112;3.42001
1435;2022.92;569.842;3.42001
1436;1990.88;567.888;3.42001
1437;1988.13;581.561;3.42001
1438;2012.85;555.925;3.42001
1439;2018.04;565.935;3.42001
1440;2018.04;546.159;3.42001
1441;2000.64;599.384;3.42001
1442;1960.97;571.795;3.42001
1443;1936.55;557.878;3.43
1444;1966.15;597.43;3.43
1445;1995.76;569.842;3.43
1446;2003.08;567.888;3.43
1447;2012.85;561.785;3.43
1448;1995.76;581.561;3.43
1449;1968.6;571.795;3.43
1450;1968.6;591.571;3.43
1451;2012.85;546.159;3.43
1452;2037.57;573.748;3.43
1453;2050.08;581.561;3.43
1454;2047.64;552.019;3.43
1455;2020.48;571.795;3.43
1456;1990.88;575.701;3.43
1457;1988.13;579.608;3.43
1458;2012.85;559.832;3.43
1459;2018.04;563.738;3.43
1460;2018.04;544.206;3.44
1461;2000.64;601.337;3.44
1462;1963.71;573.748;3.44
1463;1933.81;555.925;3.44
1464;1968.6;593.524;3.44
1465;1993.32;569.842;3.44
1466;2007.97;571.795;3.44
1467;2010.41;559.832;3.44
1468;1995.76;585.467;3.44
1469;1968.6;573.748;3.44
1470;1966.15;595.477;3.44
1471;2012.85;542.009;3.44
1472;2037.57;569.842;3.44
1473;2050.08;583.514;3.44
1474;2047.64;548.112;3.44
1475;2018.04;569.842;3.44
1476;1985.69;571.795;3.44
1477;1985.69;581.561;3.44
1478;2007.97;553.972;3.45
1479;2015.29;567.888;3.45
1480;2018.04;548.112;3.45
1481;1998.2;595.477;3.45
1482;1958.53;571.795;3.45
1483;1933.81;557.878;3.45
1484;1966.15;595.477;3.45
1485;1993.32;571.795;3.45
1486;2005.52;563.738;3.45
1487;2007.97;563.738;3.45
1488;1995.76;583.514;3.45
1489;1966.15;575.701;3.45
1490;1968.6;591.571;3.45
1491;2007.97;546.159;3.45
1492;2035.13;565.935;3.45
1493;2047.64;591.571;3.45
1494;2042.45;553.972;3.45
1495;2015.29;569.842;3.45
1496;1983.25;563.738;3.46001
1497;1985.69;587.42;3.46001
1498;2005.52;550.066;3.46001
1499;2010.41;565.935;3.46001
1500;2015.29;542.009;3.46001
1501;1993.32;593.524;3.46001
1502;1956.08;575.701;3.46001
1503;1931.36;550.066;3.46001
1504;1963.71;587.42;3.46001
1505;1988.13;569.842;3.46001
1506;2000.64;573.748;3.46001
1507;2003.08;553.972;3.46001
1508;1988.13;591.571;3.46001
1509;1960.97;571.795;3.46001
1510;1963.71;601.337;3.46001
1511;2005.52;548.112;3.46001
1512;2032.69;567.888;3.46001
1513;2045.2;589.618;3.46001
1514;2037.57;552.019;3.47
1515;2015.29;567.888;3.47
1516;1983.25;563.738;3.47
1517;1985.69;583.514;3.47
1518;2007.97;552.019;3.47
1519;2015.29;565.935;3.47
1520;2018.04;544.206;3.47
1521;1998.2;601.337;3.47
1522;1958.53;573.748;3.47
1523;1933.81;553.972;3.47
1524;1966.15;593.524;3.47
1525;1988.13;569.842;3.47
1526;2000.64;571.795;3.47
1527;2003.08;557.878;3.47
1528;1985.69;587.42;3.47
1529;1960.97;571.795;3.47
1530;1960.97;597.43;3.47
1531;2005.52;544.206;3.47
1532;2030.24;565.935;3.48
1533;2040.01;583.514;3.48
1534;2037.57;550.066;3.48
1535;2010.41;569.842;3.48
1536;1980.8;565.935;3.48
1537;1980.8;581.561;3.48
1538;2007.97;553.972;3.48
1539;2012.85;567.888;3.48
1540;2015.29;546.159;3.48
1541;1995.76;601.337;3.48
1542;1958.53;571.795;3.48
1543;1931.36;557.878;3.48
1544;1966.15;593.524;3.48
1545;1988.13;567.888;3.48
1546;1995.76;569.842;3.48
1547;2000.64;561.785;3.48
1548;1983.25;583.514;3.48
1549;1956.08;571.795;3.49001
1550;1958.53;593.524;3.49001
1551;2003.08;542.009;3.49001
1552;2025.36;569.842;3.49001
1553;2037.57;583.514;3.49001
1554;2035.13;552.019;3.49001
1555;2010.41;569.842;3.49001
1556;1975.92;563.738;3.49001
1557;1980.8;589.618;3.49001
1558;2003.08;548.112;3.49001
1559;2007.97;565.935;3.49001
1560;2010.41;540.056;3.49001
1561;1990.88;589.618;3.49001
1562;1956.08;575.701;3.49001
1563;1928.92;548.112;3.49001
1564;1963.71;587.42;3.49001
1565;1985.69;571.795;3.49001
1566;1998.2;573.748;3.49001
1567;2000.64;550.066;3.49001
1568;1985.69;589.618;3.5
1569;1956.08;569.842;3.5
1570;1956.08;601.337;3.5
1571;2003.08;548.112;3.5
1572;2025.36;565.935;3.5
1573;2040.01;589.618;3.5
1574;2037.57;552.019;3.5
1575;2007.97;567.888;3.5
1576;1975.92;561.785;3.5
1577;1980.8;587.42;3.5
1578;2005.52;552.019;3.5
1579;2010.41;567.888;3.5
1580;2012.85;540.056;3.5
1581;1990.88;597.43;3.5
1582;1956.08;571.795;3.5
1583;1928.92;552.019;3.5
1584;1960.97;589.618;3.5
1585;1985.69;571.795;3.5
1586;1993.32;571.795;3.51
1587;1993.32;555.925;3.51
1588;1980.8;589.618;3.51
1589;1951.2;567.888;3.51
1590;1951.2;597.43;3.51
1591;1998.2;542.009;3.51
1592;2020.48;567.888;3.51
1593;2032.69;585.467;3.51
1594;2030.24;550.066;3.51
1595;2000.64;569.842;3.51
1596;1971.04;567.888;3.51
1597;1978.36;583.514;3.51
1598;2000.64;552.019;3.51
1599;2010.41;567.888;3.51
1600;2010.41;542.009;3.51
1601;1993.32;601.337;3.51
1602;1953.64;575.701;3.51
1603;1928.92;555.925;3.51
1604;1963.71;593.524;3.51
1605;1985.69;567.888;3.52
1606;1995.76;569.842;3.52
1607;1998.2;557.878;3.52
1608;1983.25;585.467;3.52
1609;1953.64;569.842;3.52
1610;1953.64;595.477;3.52
1611;1995.76;544.206;3.52
1612;2020.48;567.888;3.52
1613;2030.24;581.561;3.52
1614;2025.36;548.112;3.52
1615;1998.2;571.795;3.52
1616;1963.71;569.842;3.52
1617;1973.48;579.608;3.52
1618;1995.76;550.066;3.52
1619;2005.52;569.842;3.52
1620;2007.97;542.009;3.52
1621;1985.69;599.384;3.52
1622;1948.76;573.748;3.52
1623;1926.48;550.066;3.52
1624;1958.53;591.571;3.53001
1625;1983.25;569.842;3.53001
1626;1993.32;573.748;3.53001
1627;1995.76;555.925;3.53001
1628;1990.88;587.42;3.53001
1629;1960.97;569.842;3.53001
1630;1943.88;597.43;3.53001
1631;1978.36;540.056;3.53001
1632;2007.97;567.888;3.53001
1633;2025.36;585.467;3.53001
1634;2027.8;548.112;3.53001
1635;2003.08;569.842;3.53001
1636;1973.48;565.935;3.53001
1637;1963.71;583.514;3.53001
1638;1988.13;555.925;3.53001
1639;1998.2;569.842;3.53001
1640;2005.52;544.206;3.53001
1641;1993.32;599.384;3.53001
1642;1960.97;571.795;3.53001
1643;1926.48;553.972;3.54
1644;1943.88;595.477;3.54
1645;1975.92;569.842;3.54
1646;1990.88;565.935;3.54
1647;1995.76;557.878;3.54
1648;1985.69;581.561;3.54
1649;1960.97;571.795;3.54
1650;1941.43;599.384;3.54
1651;1978.36;557.878;3.54
1652;2007.97;561.785;3.54
1653;2020.48;587.42;3.54
1654;2027.8;553.972;3.54
1655;2005.52;567.888;3.54
1656;1971.04;563.738;3.54
1657;1960.97;587.42;3.54
1658;1985.69;548.112;3.54
1659;1995.76;563.738;3.54
1660;2000.64;542.009;3.54
1661;1990.88;587.42;3.54
1662;1958.53;573.748;3.54
1663;1924.04;550.066;3.55
1664;1941.43;589.618;3.55
1665;1973.48;569.842;3.55
1666;1985.69;573.748;3.55
1667;1995.76;552.019;3.55
1668;1985.69;593.524;3.55
1669;1958.53;571.795;3.55
1670;1941.43;597.43;3.55
1671;1975.92;550.066;3.55
1672;2005.52;565.935;3.55
1673;2020.48;587.42;3.55
1674;2025.36;552.019;3.55
1675;2003.08;567.888;3.55
1676;1971.04;563.738;3.55
1677;1958.53;587.42;3.55
1678;1985.69;550.066;3.55
1679;1995.76;567.888;3.55
1680;1998.2;538.102;3.55
1681;1988.13;595.477;3.55
1682;1956.08;571.795;3.55
1683;1924.04;548.112;3.56001
1684;1933.81;589.618;3.56001
1685;1971.04;567.888;3.56001
1686;1985.69;573.748;3.56001
1687;1988.13;553.972;3.56001
1688;1983.25;587.42;3.56001
1689;1956.08;567.888;3.56001
1690;1938.99;597.43;3.56001
1691;1975.92;542.009;3.56001
1692;2005.52;565.935;3.56001
1693;2018.04;589.618;3.56001
1694;2020.48;546.159;3.56001
1695;1998.2;567.888;3.56001
1696;1968.6;561.785;3.56001
1697;1953.64;583.514;3.56001
1698;1980.8;552.019;3.56001
1699;1990.88;567.888;3.56001
1700;1995.76;544.206;3.56001
1701;1985.69;599.384;3.56001
1702;1956.08;571.795;3.56001
1703;1919.16;552.019;3.57
1704;1936.55;593.524;3.57
1705;1971.04;569.842;3.57
1706;1980.8;569.842;3.57
1707;1988.13;557.878;3.57
1708;1980.8;583.514;3.57
1709;1953.64;567.888;3.57
1710;1933.81;595.477;3.57
1711;1973.48;540.056;3.57
1712;2003.08;559.832;3.57
1713;2015.29;587.42;3.57
1714;2020.48;555.925;3.57
1715;2000.64;567.888;3.57
1716;1966.15;563.738;3.57
1717;1953.64;587.42;3.57
1718;1978.36;550.066;3.57
1719;1988.13;565.935;3.57
1720;1993.32;542.009;3.57
1721;1983.25;583.514;3.57
1722;1951.2;573.748;3.57
1723;1916.71;548.112;3.58
1724;1931.36;585.467;3.58
1725;1966.15;571.795;3.58
1726;1978.36;571.795;3.58
1727;1985.69;548.112;3.58
1728;1975.92;591.571;3.58
1729;1948.76;571.795;3.58
1730;1933.81;595.477;3.58
1731;1971.04;553.972;3.58
1732;1998.2;563.738;3.58
1733;2012.85;587.42;3.58
1734;2015.29;552.019;3.58
1735;1993.32;569.842;3.58
1736;1960.97;563.738;3.58
1737;1948.76;587.42;3.58
1738;1975.92;548.112;3.58
1739;1985.69;565.935;3.58
1740;1993.32;540.056;3.58
1741;1983.25;593.524;3.58
1742;1948.76;571.795;3.58
1743;1916.71;548.112;3.59
1744;1933.81;589.618;3.59
1745;1963.71;567.888;3.59
1746;1975.92;571.795;3.59
1747;1985.69;552.019;3.59
1748;1973.48;589.618;3.59
1749;1948.76;569.842;3.59
1750;1931.36;595.477;3.59
1751;1968.6;542.009;3.59
1752;1998.2;567.888;3.59
1753;2007.97;587.42;3.59
1754;2015.29;550.066;3.59
1755;1993.32;569.842;3.59
1756;1960.97;563.738;3.59
1757;1948.76;583.514;3.59
1758;1973.48;552.019;3.59
1759;1985.69;567.888;3.59
1760;1985.69;542.009;3.59
1761;1975.92;599.384;3.59
1762;1941.43;571.795;3.59
1763;1911.83;552.019;3.60001
1764;1928.92;593.524;3.60001
1765;1963.71;569.842;3.60001
1766;1978.36;569.842;3.60001
1767;1983.25;553.972;3.60001
1768;1973.48;585.467;3.60001
1769;1946.32;567.888;3.60001
1770;1931.36;597.43;3.60001
1771;1968.6;540.056;3.60001
1772;1995.76;565.935;3.60001
1773;2010.41;583.514;3.60001
1774;2010.41;544.206;3.60001
1775;1988.13;565.935;3.60001
1776;1956.08;561.785;3.60001
1777;1946.32;587.42;3.60001
1778;1973.48;548.112;3.60001
1779;1983.25;567.888;3.60001
1780;1988.13;538.102;3.60001
1781;1975.92;597.43;3.60001
1782;1943.88;571.795;3.61
1783;1911.83;548.112;3.61
1784;1928.92;589.618;3.61
1785;1958.53;567.888;3.61
1786;1973.48;571.795;3.61
1787;1975.92;553.972;3.61
1788;1968.6;587.42;3.61
1789;1941.43;567.888;3.61
1790;1926.48;595.477;3.61
1791;1966.15;542.009;3.61
1792;1993.32;563.738;3.61
1793;2005.52;585.467;3.61
1794;2007.97;546.159;3.61
1795;1988.13;567.888;3.61
1796;1953.64;563.738;3.61
1797;1943.88;581.561;3.61
1798;1971.04;552.019;3.61
1799;1978.36;565.935;3.61
1800;1985.69;544.206;3.61
1801;1973.48;601.337;3.61
1802;1938.99;571.795;3.61
1803;1906.64;552.019;3.62
1804;1928.92;593.524;3.62
1805;1958.53;569.842;3.62
1806;1971.04;567.888;3.62
1807;1980.8;548.112;3.62
1808;1968.6;585.467;3.62
1809;1938.99;569.842;3.62
1810;1926.48;595.477;3.62
