<WeldAnalyseData xmlns:i="http:www.w3.org/2001/XMLSchema-instance">
<WeldParameter>
<TimeStamp>DT#2023-12-05-14:11:38</TimeStamp>
<Generator>SG-22-10000</Generator>
<GenFreq>20</GenFreq>
<MaxForce>8000</MaxForce>
<MaxPower>10000</MaxPower>
<RunupPressure>1.5</RunupPressure>
<RunupDist>10</RunupDist>
<RunPress>0.8</RunPress>
<ShakeDelay>0.03</ShakeDelay>
<ShakeTime>0.3</ShakeTime>
<RunBackPress1>6</RunBackPress1>
<RunBackPress2>2</RunBackPress2>
<RunBackDist>1</RunBackDist>
<TrigValue>500</TrigValue>
<TrigModeUnit>W</TrigModeUnit>
<WeldModeUnit>Ws</WeldModeUnit>
<PressNr>0</PressNr>
<MaxLoss>1500</MaxLoss>
</WeldParameter>
<WeldSets>
<WeldSet>
<PressRiseTime>0</PressRiseTime>
<RunPressure>1</RunPressure>
<Amplitude>86</Amplitude>
<WeldMode>3270</WeldMode>
</WeldSet>
</WeldSets>
<WeldValue>
<WeldNr>2403</WeldNr>
<RecipeName>RickStyle</RecipeName>
<WeldTime>1750</WeldTime>
<DistDiff>3.53001</DistDiff>
<DistAbs>78.3</DistAbs>
<Energy>3270.1</Energy>
<MaxPower>2075.03</MaxPower>
<CycleTime>6050</CycleTime>
<TrigForce>500.748</TrigForce>
<TrigDist>74.77</TrigDist>
<RunSpeed>68.0346</RunSpeed>
<MaxForce>601.337</MaxForce>
<LossPower>248.344</LossPower>
</WeldValue>
</WeldAnalyseData>
#CSV-START#
ms;Power[W];Force[N];Distance[mm]
1;0;0;0
2;0;496.597;0.0100021
3;0;498.795;0.0100021
4;0;500.748;0.0100021
5;0;502.701;0.0100021
6;0;500.748;0.0100021
7;0;502.701;0.0100021
8;0;488.784;0.0100021
9;0;467.055;0.0200043
10;5.8748;447.279;0.0300064
11;30.5948;435.56;0.0500031
12;42.8022;425.55;0.0699997
13;65.0807;417.737;0.090004
14;89.8007;419.691;0.110001
15;131.611;399.915;0.130005
16;176.168;394.055;0.150002
17;215.842;397.961;0.170006
18;245.445;378.185;0.190002
19;270.165;382.092;0.220001
20;294.58;382.092;0.240005
21;316.858;382.092;0.260002
22;346.461;372.326;0.290001
23;371.181;372.326;0.310005
24;398.343;358.409;0.330002
25;420.621;386.242;0.360001
26;438.017;376.232;0.380005
27;447.783;360.363;0.400002
28;465.178;384.045;0.420006
29;492.34;374.279;0.440002
30;511.872;376.232;0.460007
31;529.267;380.139;0.480003
32;536.592;374.279;0.5
33;546.663;380.139;0.520004
34;558.87;384.045;0.540001
35;576.266;382.092;0.560005
36;595.798;372.326;0.580002
37;608.31;382.092;0.600006
38;618.076;378.185;0.610001
39;620.518;374.279;0.630005
40;618.076;378.185;0.650002
41;610.752;380.139;0.670006
42;615.635;382.092;0.68
43;622.959;380.139;0.700005
44;628.147;376.232;0.720001
45;633.03;382.092;0.730003
46;628.147;392.102;0.75
47;625.706;378.185;0.760002
48;630.589;392.102;0.780006
49;647.679;394.055;0.790001
50;660.192;390.149;0.810005
51;662.633;388.195;0.82
52;669.958;397.961;0.840004
53;667.516;396.008;0.850006
54;672.399;403.821;0.870003
55;689.795;396.008;0.880005
56;712.073;396.008;0.900002
57;719.398;407.971;0.910004
58;724.281;396.008;0.93
59;726.722;396.008;0.940002
60;716.956;401.868;0.960007
61;707.19;405.774;0.970001
62;709.632;397.961;0.990005
63;712.073;403.821;1
64;714.515;396.008;1.01
65;712.073;409.925;1.03001
66;707.19;413.831;1.05
67;697.119;397.961;1.06001
68;712.073;413.831;1.08
69;729.164;413.831;1.09
70;744.118;411.878;1.11
71;756.325;403.821;1.12
72;766.396;423.597;1.14001
73;773.721;415.784;1.15
74;781.045;431.654;1.17001
75;808.206;411.878;1.18
76;835.368;413.831;1.2
77;850.322;431.654;1.22
78;860.088;409.925;1.23
79;864.971;415.784;1.25
80;860.088;417.737;1.26
81;857.646;425.55;1.28001
82;867.412;407.971;1.3
83;877.483;417.737;1.31001
84;882.366;399.915;1.33
85;889.691;431.654;1.35001
86;884.808;421.644;1.37
87;879.925;405.774;1.38
88;894.574;431.654;1.4
89;919.294;423.597;1.42001
90;934.248;421.644;1.43
91;946.455;413.831;1.45
92;958.968;429.456;1.47
93;958.968;423.597;1.48
94;968.734;441.42;1.5
95;993.454;423.597;1.51
96;1015.73;419.691;1.53001
97;1033.13;443.373;1.54
98;1040.45;421.644;1.55
99;1038.01;425.55;1.57
100;1027.94;431.654;1.58
101;1020.62;435.56;1.59
102;1033.13;421.644;1.61
103;1042.89;429.456;1.62
104;1047.78;411.878;1.63
105;1052.66;437.513;1.64001
106;1045.34;435.56;1.66
107;1035.57;419.691;1.67001
108;1045.34;445.326;1.68
109;1070.06;439.467;1.69
110;1082.26;439.467;1.7
111;1092.33;427.503;1.71001
112;1104.54;451.186;1.72
113;1106.98;441.42;1.73
114;1109.42;461.196;1.74001
115;1141.47;433.607;1.75
116;1166.19;443.373;1.76
117;1183.58;459.243;1.77
118;1198.54;435.56;1.78001
119;1200.98;445.326;1.79
120;1190.91;447.279;1.8
121;1188.47;463.149;1.81001
122;1208.3;441.42;1.82
123;1220.51;449.232;1.82
124;1230.58;445.326;1.83
125;1235.47;453.383;1.84
126;1225.7;467.055;1.85001
127;1213.19;447.279;1.85001
128;1235.47;461.196;1.86
129;1262.63;469.008;1.87
130;1282.46;461.196;1.88
131;1294.67;453.383;1.88
132;1304.44;459.243;1.89001
133;1304.44;469.008;1.9
134;1307.18;479.019;1.9
135;1339.23;470.962;1.91
136;1363.95;461.196;1.91
137;1381.04;482.925;1.92001
138;1393.55;465.102;1.92001
139;1388.67;467.055;1.93
140;1376.16;472.915;1.94
141;1368.83;482.925;1.94
142;1391.11;477.065;1.95
143;1400.88;470.962;1.95
144;1410.64;459.243;1.96001
145;1410.64;479.019;1.96001
146;1395.99;486.831;1.97
147;1378.6;463.149;1.97
148;1403.32;486.831;1.98
149;1432.92;484.878;1.98
150;1450.32;480.972;1.99001
151;1464.96;467.055;1.99001
152;1472.59;488.784;2
153;1470.15;484.878;2
154;1470.15;504.654;2.01
155;1504.64;477.065;2.01
156;1529.36;479.019;2.02
157;1544.01;504.654;2.02
158;1554.08;475.112;2.03001
159;1551.64;484.878;2.03001
160;1531.8;486.831;2.04
161;1514.4;498.795;2.04
162;1531.8;477.065;2.05
163;1544.01;484.878;2.05
164;1554.08;463.149;2.06001
165;1554.08;498.795;2.06001
166;1541.57;494.644;2.06001
167;1516.85;472.915;2.07
168;1521.73;502.701;2.07
169;1558.96;492.691;2.08
170;1581.24;494.644;2.08
171;1593.45;479.019;2.09
172;1603.21;508.56;2.09
173;1600.77;496.597;2.09
174;1591.01;516.373;2.10001
175;1613.28;488.784;2.10001
176;1650.21;490.738;2.11
177;1667.61;512.467;2.11
178;1682.26;484.878;2.11
179;1677.37;498.795;2.12
180;1655.1;494.644;2.12
181;1635.56;512.467;2.13
182;1647.77;482.925;2.13
183;1665.17;496.597;2.13
184;1670.05;475.112;2.14001
185;1670.05;498.795;2.14001
186;1652.65;514.42;2.14001
187;1625.49;488.784;2.15
188;1630.38;504.654;2.15
189;1667.61;510.514;2.16
190;1684.7;500.748;2.16
191;1697.21;488.784;2.16
192;1704.54;498.795;2.17001
193;1694.77;506.607;2.17001
194;1682.26;520.524;2.17001
195;1704.54;508.56;2.18
196;1744.21;494.644;2.18
197;1758.86;524.43;2.18
198;1771.37;500.748;2.19
199;1763.74;500.748;2.19
200;1734.14;506.607;2.19
201;1714.61;518.326;2.2
202;1726.81;508.56;2.2
203;1739.02;502.701;2.2
204;1741.77;484.878;2.21001
205;1741.77;510.514;2.21001
206;1717.05;516.373;2.21001
207;1689.89;492.691;2.22
208;1689.89;516.373;2.22
209;1729.26;516.373;2.22
210;1746.65;510.514;2.23
211;1761.3;498.795;2.23
212;1763.74;516.373;2.23
213;1751.53;516.373;2.24001
214;1736.58;534.196;2.24001
215;1761.3;508.56;2.24001
216;1798.53;504.654;2.24001
217;1813.18;530.29;2.25
218;1825.69;504.654;2.25
219;1815.62;510.514;2.25
220;1788.46;510.514;2.26
221;1763.74;526.383;2.26
222;1773.81;504.654;2.26
223;1788.46;510.514;2.27
224;1790.9;490.738;2.27
225;1786.02;526.383;2.27
226;1761.3;522.477;2.27
227;1726.81;498.795;2.28001
228;1731.7;530.29;2.28001
229;1771.37;520.524;2.28001
230;1788.46;522.477;2.29
231;1803.41;504.654;2.29
232;1803.41;536.149;2.29
233;1793.34;522.477;2.29
234;1781.14;546.159;2.3
235;1808.3;510.514;2.3
236;1842.78;516.373;2.3
237;1862.62;540.056;2.31001
238;1872.39;510.514;2.31001
239;1862.62;520.524;2.31001
240;1835.46;518.326;2.31001
241;1810.74;534.196;2.32
242;1822.95;508.56;2.32
243;1835.46;522.477;2.32
244;1837.9;498.795;2.32
245;1833.02;540.056;2.33
246;1805.86;532.243;2.33
247;1773.81;506.607;2.33
248;1781.14;534.196;2.33
249;1818.06;526.383;2.34
250;1835.46;526.383;2.34
251;1847.67;514.42;2.34
252;1847.67;536.149;2.34
253;1835.46;530.29;2.35001
254;1820.51;552.019;2.35001
255;1850.11;520.524;2.35001
256;1889.78;520.524;2.35001
257;1907.18;552.019;2.36
258;1916.94;516.373;2.36
259;1904.43;524.43;2.36
260;1872.39;526.383;2.36
261;1847.67;542.009;2.37
262;1862.62;518.326;2.37
263;1872.39;526.383;2.37
264;1877.27;506.607;2.37
265;1872.39;544.206;2.38
266;1842.78;538.102;2.38
267;1808.3;510.514;2.38
268;1815.62;546.159;2.38
269;1855.3;536.149;2.39001
270;1877.27;536.149;2.39001
271;1887.34;520.524;2.39001
272;1889.78;550.066;2.39001
273;1877.27;538.102;2.39001
274;1857.74;561.785;2.4
275;1889.78;522.477;2.4
276;1929.15;530.29;2.4
277;1948.99;552.019;2.4
278;1958.75;534.196;2.41
279;1941.66;526.383;2.41
280;1912.06;536.149;2.41
281;1889.78;548.112;2.41
282;1899.55;540.056;2.41
283;1914.5;530.29;2.42001
284;1919.39;516.373;2.42001
285;1912.06;538.102;2.42001
286;1880.02;552.019;2.42001
287;1845.23;522.477;2.42001
288;1852.86;544.206;2.43
289;1894.67;546.159;2.43
290;1916.94;540.056;2.43
291;1926.71;526.383;2.43
292;1926.71;538.102;2.44
293;1912.06;546.159;2.44
294;1897.11;563.738;2.44
295;1931.59;542.009;2.44
296;1968.83;532.243;2.44
297;1985.92;563.738;2.45
298;1995.99;538.102;2.45
299;1978.59;538.102;2.45
300;1944.11;540.056;2.45
301;1921.83;555.925;2.45
302;1934.34;542.009;2.45
303;1948.99;540.056;2.46001
304;1951.43;520.524;2.46001
305;1941.66;552.019;2.46001
306;1912.06;552.019;2.46001
307;1874.83;524.43;2.46001
308;1884.9;553.972;2.47
309;1926.71;548.112;2.47
310;1948.99;550.066;2.47
311;1961.5;532.243;2.47
312;1956.31;557.878;2.47
313;1941.66;548.112;2.48
314;1926.71;573.748;2.48
315;1958.75;540.056;2.48
316;1995.99;542.009;2.48
317;2015.82;567.888;2.48
318;2025.59;536.149;2.48
319;2005.75;546.159;2.49001
320;1973.71;542.009;2.49001
321;1944.11;559.832;2.49001
322;1958.75;538.102;2.49001
323;1971.27;544.206;2.49001
324;1973.71;524.43;2.49001
325;1961.5;563.738;2.5
326;1929.15;557.878;2.5
327;1889.78;530.29;2.5
328;1904.43;563.738;2.5
329;1946.55;553.972;2.5
330;1966.38;553.972;2.5
331;1976.15;534.196;2.51
332;1973.71;569.842;2.51
333;1953.87;552.019;2.51
334;1941.66;581.561;2.51
335;1976.15;538.102;2.51
336;2013.08;546.159;2.51
337;2030.47;573.748;2.52
338;2032.91;550.066;2.52
339;2015.82;544.206;2.52
340;1981.03;553.972;2.52
341;1956.31;563.738;2.52
342;1973.71;557.878;2.52
343;1983.47;548.112;2.52
344;1983.47;534.196;2.53001
345;1973.71;552.019;2.53001
346;1941.66;567.888;2.53001
347;1901.99;538.102;2.53001
348;1912.06;557.878;2.53001
349;1956.31;563.738;2.53001
350;1971.27;553.972;2.54
351;1983.47;540.056;2.54
352;1983.47;553.972;2.54
353;1961.5;557.878;2.54
354;1946.55;577.654;2.54
355;1983.47;555.925;2.54
356;2020.71;544.206;2.54
357;2037.8;573.748;2.55
358;2042.99;552.019;2.55
359;2020.71;552.019;2.55
360;1988.66;552.019;2.55
361;1966.38;565.935;2.55
362;1978.59;557.878;2.55
363;1991.1;553.972;2.55
364;1991.1;532.243;2.56001
365;1981.03;563.738;2.56001
366;1946.55;565.935;2.56001
367;1909.62;538.102;2.56001
368;1924.27;567.888;2.56001
369;1963.94;561.785;2.56001
370;1983.47;561.785;2.56001
371;1993.55;542.009;2.57
372;1988.66;569.842;2.57
373;1971.27;561.785;2.57
374;1953.87;585.467;2.57
375;1988.66;553.972;2.57
376;2025.59;553.972;2.57
377;2042.99;577.654;2.57
378;2050.31;548.112;2.58
379;2030.47;555.925;2.58
380;1991.1;553.972;2.58
381;1968.83;573.748;2.58
382;1983.47;548.112;2.58
383;1993.55;555.925;2.58
384;1995.99;532.243;2.58
385;1983.47;573.748;2.59
386;1951.43;567.888;2.59
387;1912.06;542.009;2.59
388;1926.71;573.748;2.59
389;1966.38;561.785;2.59
390;1983.47;563.738;2.59
391;1995.99;546.159;2.59
392;1991.1;577.654;2.60001
393;1971.27;561.785;2.60001
394;1958.75;589.618;2.60001
395;1995.99;548.112;2.60001
396;2030.47;555.925;2.60001
397;2050.31;579.608;2.60001
398;2060.08;548.112;2.60001
399;2035.36;557.878;2.60001
400;1993.55;557.878;2.61
401;1976.15;573.748;2.61
402;1991.1;557.878;2.61
403;1998.43;559.832;2.61
404;2000.87;534.196;2.61
405;1988.66;571.795;2.61
406;1953.87;571.795;2.61
407;1914.5;542.009;2.61
408;1934.34;573.748;2.62
409;1973.71;565.935;2.62
410;1991.1;565.935;2.62
411;1998.43;550.066;2.62
412;1998.43;577.654;2.62
413;1976.15;567.888;2.62
414;1963.94;591.571;2.62
415;2003.31;553.972;2.63
416;2040.24;557.878;2.63
417;2055.19;583.514;2.63
418;2060.08;552.019;2.63
419;2032.91;561.785;2.63
420;2000.87;557.878;2.63
421;1981.03;575.701;2.63
422;1993.55;548.112;2.63
423;2005.75;561.785;2.64001
424;2005.75;536.149;2.64001
425;1993.55;579.608;2.64001
426;1958.75;567.888;2.64001
427;1921.83;546.159;2.64001
428;1939.22;581.561;2.64001
429;1976.15;565.935;2.64001
430;1993.55;563.738;2.64001
431;2005.75;553.972;2.64001
432;2000.87;561.785;2.65
433;1983.47;569.842;2.65
434;1968.83;585.467;2.65
435;2005.75;567.888;2.65
436;2042.99;552.019;2.65
437;2055.19;583.514;2.65
438;2060.08;561.785;2.65
439;2035.36;557.878;2.65
440;2000.87;563.738;2.66
441;1978.59;575.701;2.66
442;1995.99;567.888;2.66
443;2005.75;559.832;2.66
444;2005.75;540.056;2.66
445;1993.55;569.842;2.66
446;1953.87;573.748;2.66
447;1919.39;546.159;2.66
448;1939.22;571.795;2.66
449;1976.15;571.795;2.67001
450;1991.1;565.935;2.67001
451;2003.31;550.066;2.67001
452;1998.43;567.888;2.67001
453;1976.15;567.888;2.67001
454;1966.38;589.618;2.67001
455;2005.75;565.935;2.67001
456;2037.8;555.925;2.67001
457;2052.75;585.467;2.67001
458;2055.19;557.878;2.68
459;2032.91;561.785;2.68
460;1995.99;565.935;2.68
461;1978.59;577.654;2.68
462;1993.55;565.935;2.68
463;2003.31;563.738;2.68
464;2003.31;542.009;2.68
465;1985.92;575.701;2.68
466;1953.87;573.748;2.68
467;1919.39;548.112;2.69
468;1941.66;579.608;2.69
469;1983.47;571.795;2.69
470;1998.43;571.795;2.69
471;2008.19;552.019;2.69
472;2003.31;581.561;2.69
473;1981.03;567.888;2.69
474;1966.38;595.477;2.69
475;2003.31;559.832;2.69
476;2035.36;563.738;2.7
477;2052.75;587.42;2.7
478;2055.19;553.972;2.7
479;2030.47;565.935;2.7
480;1991.1;561.785;2.7
481;1976.15;583.514;2.7
482;1993.55;553.972;2.7
483;2003.31;565.935;2.7
484;2008.19;540.056;2.7
485;1991.1;581.561;2.7
486;1953.87;571.795;2.71001
487;1921.83;548.112;2.71001
488;1944.11;583.514;2.71001
489;1978.59;569.842;2.71001
490;1995.99;571.795;2.71001
491;2003.31;553.972;2.71001
492;1995.99;563.738;2.71001
493;1976.15;573.748;2.71001
494;1963.94;587.42;2.71001
495;2003.31;573.748;2.72
496;2032.91;553.972;2.72
497;2050.31;585.467;2.72
498;2052.75;565.935;2.72
499;2028.03;561.785;2.72
500;1991.1;569.842;2.72
501;1976.15;579.608;2.72
502;1993.55;575.701;2.72
503;2000.87;561.785;2.72
504;2003.31;548.112;2.73
505;1985.92;569.842;2.73
506;1953.87;581.561;2.73
507;1919.39;548.112;2.73
508;1941.66;575.701;2.73
509;1978.59;577.654;2.73
510;1991.1;571.795;2.73
511;2003.31;555.925;2.73
512;1993.55;571.795;2.73
513;1971.27;571.795;2.73
514;1961.5;593.524;2.74001
515;1998.43;569.842;2.74001
516;2032.91;561.785;2.74001
517;2045.43;589.618;2.74001
518;2047.87;561.785;2.74001
519;2023.15;567.888;2.74001
520;1985.92;569.842;2.74001
521;1973.71;583.514;2.74001
522;1991.1;567.888;2.74001
523;2000.87;567.888;2.74001
524;2000.87;544.206;2.75
525;1983.47;579.608;2.75
526;1948.99;579.608;2.75
527;1916.94;552.019;2.75
528;1941.66;579.608;2.75
529;1978.59;575.701;2.75
530;1991.1;571.795;2.75
531;2003.31;553.972;2.75
532;1993.55;583.514;2.75
533;1973.71;571.795;2.75
534;1963.94;599.384;2.76
535;2000.87;565.935;2.76
536;2028.03;563.738;2.76
537;2047.87;591.571;2.76
538;2050.31;561.785;2.76
539;2030.47;569.842;2.76
540;1995.99;565.935;2.76
541;1971.27;585.467;2.76
542;1988.66;555.925;2.76
543;2000.87;567.888;2.76
544;2003.31;546.159;2.76
545;1991.1;587.42;2.77
546;1958.75;577.654;2.77
547;1924.27;555.925;2.77
548;1936.78;587.42;2.77
549;1978.59;573.748;2.77
550;1993.55;573.748;2.77
551;2005.75;557.878;2.77
552;2000.87;593.524;2.77
553;1978.59;573.748;2.77
554;1963.94;595.477;2.77
555;1995.99;567.888;2.78001
556;2032.91;563.738;2.78001
557;2050.31;591.571;2.78001
558;2055.19;563.738;2.78001
559;2032.91;569.842;2.78001
560;1998.43;567.888;2.78001
561;1976.15;585.467;2.78001
562;1993.55;565.935;2.78001
563;2003.31;569.842;2.78001
564;2005.75;546.159;2.78001
565;1991.1;583.514;2.78001
566;1961.5;577.654;2.79
567;1924.27;552.019;2.79
568;1939.22;583.514;2.79
569;1978.59;575.701;2.79
570;1998.43;575.701;2.79
571;2005.75;555.925;2.79
572;2003.31;589.618;2.79
573;1981.03;575.701;2.79
574;1963.94;599.384;2.79
575;1998.43;563.738;2.79
576;2032.91;567.888;2.79
577;2052.75;591.571;2.8
578;2057.63;557.878;2.8
579;2032.91;571.795;2.8
580;1998.43;567.888;2.8
581;1978.59;589.618;2.8
582;1993.55;555.925;2.8
583;2005.75;569.842;2.8
584;2005.75;544.206;2.8
585;1995.99;571.795;2.8
586;1961.5;587.42;2.8
587;1924.27;555.925;2.8
588;1941.66;579.608;2.8
589;1981.03;583.514;2.81001
590;1998.43;571.795;2.81001
591;2008.19;557.878;2.81001
592;2005.75;569.842;2.81001
593;1983.47;577.654;2.81001
594;1966.38;593.524;2.81001
595;2003.31;575.701;2.81001
596;2037.8;561.785;2.81001
597;2057.63;589.618;2.81001
598;2060.08;567.888;2.81001
599;2037.8;565.935;2.81001
600;2005.75;571.795;2.81001
601;1983.47;583.514;2.82
602;2000.87;575.701;2.82
603;2013.08;569.842;2.82
604;2013.08;550.066;2.82
605;2000.87;577.654;2.82
606;1966.38;581.561;2.82
607;1929.15;553.972;2.82
608;1948.99;581.561;2.82
609;1985.92;579.608;2.82
610;2005.75;573.748;2.82
611;2015.82;559.832;2.82
612;2008.19;577.654;2.82
613;1985.92;575.701;2.83
614;1973.71;599.384;2.83
615;2010.64;569.842;2.83
616;2045.43;563.738;2.83
617;2060.08;593.524;2.83
618;2064.96;565.935;2.83
619;2042.99;571.795;2.83
620;2003.31;569.842;2.83
621;1985.92;587.42;2.83
622;2000.87;565.935;2.83
623;2013.08;571.795;2.83
624;2015.82;548.112;2.83
625;2000.87;581.561;2.84
626;1966.38;579.608;2.84
627;1931.59;553.972;2.84
628;1948.99;587.42;2.84
629;1985.92;577.654;2.84
630;2005.75;577.654;2.84
631;2013.08;557.878;2.84
632;2005.75;589.618;2.84
633;1985.92;573.748;2.84
634;1973.71;601.337;2.84
635;2008.19;567.888;2.84
636;2042.99;567.888;2.84
637;2060.08;589.618;2.84
638;2064.96;559.832;2.85001
639;2037.8;569.842;2.85001
640;2000.87;567.888;2.85001
641;1983.47;589.618;2.85001
642;2000.87;555.925;2.85001
643;2010.64;569.842;2.85001
644;2013.08;544.206;2.85001
645;2003.31;589.618;2.85001
646;1966.38;577.654;2.85001
647;1931.59;557.878;2.85001
648;1951.43;575.701;2.85001
649;1991.1;585.467;2.85001
650;2008.19;571.795;2.85001
651;2018.27;555.925;2.86
652;2010.64;571.795;2.86
653;1985.92;577.654;2.86
654;1976.15;591.571;2.86
655;2013.08;577.654;2.86
656;2047.87;561.785;2.86
657;2064.96;591.571;2.86
658;2070.15;569.842;2.86
659;2045.43;565.935;2.86
660;2008.19;571.795;2.86
661;1988.66;587.42;2.86
662;2008.19;575.701;2.86
663;2018.27;567.888;2.86
664;2020.71;550.066;2.87
665;2005.75;577.654;2.87
666;1971.27;581.561;2.87
667;1936.78;553.972;2.87
668;1958.75;581.561;2.87
669;1993.55;581.561;2.87
670;2015.82;573.748;2.87
671;2023.15;559.832;2.87
672;2020.71;577.654;2.87
673;1993.55;577.654;2.87
674;1981.03;595.477;2.87
675;2020.71;573.748;2.87
676;2055.19;563.738;2.87
677;2070.15;593.524;2.87
678;2072.59;565.935;2.88
679;2045.43;571.795;2.88
680;2008.19;569.842;2.88
681;1991.1;589.618;2.88
682;2010.64;569.842;2.88
683;2020.71;569.842;2.88
684;2020.71;546.159;2.88
685;2008.19;585.467;2.88
686;1971.27;579.608;2.88
687;1939.22;553.972;2.88
688;1961.5;585.467;2.88
689;1998.43;577.654;2.88
690;2018.27;579.608;2.88
691;2025.59;559.832;2.88
692;2018.27;589.618;2.89001
693;1995.99;577.654;2.89001
694;1981.03;599.384;2.89001
695;2020.71;565.935;2.89001
696;2050.31;569.842;2.89001
697;2067.4;595.477;2.89001
698;2067.4;561.785;2.89001
699;2042.99;573.748;2.89001
700;2000.87;569.842;2.89001
701;1983.47;587.42;2.89001
702;2008.19;553.972;2.89001
703;2015.82;567.888;2.89001
704;2020.71;544.206;2.89001
705;2005.75;591.571;2.89001
706;1971.27;577.654;2.9
707;1939.22;555.925;2.9
708;1966.38;591.571;2.9
709;2000.87;579.608;2.9
710;2018.27;577.654;2.9
711;2030.47;559.832;2.9
712;2023.15;583.514;2.9
713;1995.99;577.654;2.9
714;1985.92;599.384;2.9
715;2023.15;569.842;2.9
716;2055.19;565.935;2.9
717;2067.4;593.524;2.9
718;2072.59;561.785;2.9
719;2045.43;571.795;2.9
720;2005.75;569.842;2.9
721;1991.1;587.42;2.91
722;2010.64;563.738;2.91
723;2020.71;569.842;2.91
724;2023.15;546.159;2.91
725;2008.19;585.467;2.91
726;1973.71;579.608;2.91
727;1941.66;553.972;2.91
728;1966.38;589.618;2.91
729;2008.19;577.654;2.91
730;2015.82;577.654;2.91
731;2030.47;555.925;2.91
732;2030.47;591.571;2.91
733;2005.75;575.701;2.91
734;1985.92;601.337;2.91
735;2005.75;563.738;2.91
736;2047.87;569.842;2.91
737;2067.4;593.524;2.92001
738;2075.03;557.878;2.92001
739;2057.63;573.748;2.92001
740;2023.15;575.701;2.92001
741;1991.1;587.42;2.92001
742;2003.31;577.654;2.92001
743;2020.71;567.888;2.92001
744;2023.15;553.972;2.92001
745;2018.27;573.748;2.92001
746;1985.92;585.467;2.92001
747;1948.99;557.878;2.92001
748;1948.99;579.608;2.92001
749;1991.1;583.514;2.92001
750;2013.08;573.748;2.92001
751;2025.59;561.785;2.92001
752;2023.15;571.795;2.93
753;2005.75;577.654;2.93
754;1983.47;593.524;2.93
755;2003.31;577.654;2.93
756;2042.99;563.738;2.93
757;2062.52;593.524;2.93
758;2070.15;565.935;2.93
759;2052.75;567.888;2.93
760;2013.08;571.795;2.93
761;1985.92;587.42;2.93
762;1998.43;573.748;2.93
763;2015.82;569.842;2.93
764;2020.71;550.066;2.93
765;2013.08;579.608;2.93
766;1983.47;579.608;2.93
767;1944.11;553.972;2.93
768;1946.55;583.514;2.94
769;1991.1;581.561;2.94
770;2013.08;577.654;2.94
771;2023.15;557.878;2.94
772;2025.59;581.561;2.94
773;2003.31;575.701;2.94
774;1983.47;601.337;2.94
775;2003.31;569.842;2.94
776;2047.87;567.888;2.94
777;2060.08;591.571;2.94
778;2070.15;563.738;2.94
779;2052.75;571.795;2.94
780;2015.82;569.842;2.94
781;1985.92;587.42;2.94
782;1998.43;563.738;2.94
783;2013.08;569.842;2.95
784;2015.82;548.112;2.95
785;2013.08;585.467;2.95
786;1983.47;577.654;2.95
787;1944.11;553.972;2.95
788;1946.55;587.42;2.95
789;1991.1;577.654;2.95
790;2015.82;575.701;2.95
791;2028.03;557.878;2.95
792;2023.15;593.524;2.95
793;2000.87;573.748;2.95
794;1983.47;601.337;2.95
795;2000.87;563.738;2.95
796;2045.43;569.842;2.95
797;2062.52;593.524;2.95
798;2070.15;557.878;2.95
799;2050.31;573.748;2.96001
800;2013.08;569.842;2.96001
801;1991.1;587.42;2.96001
802;2005.75;577.654;2.96001
803;2025.59;565.935;2.96001
804;2028.03;552.019;2.96001
805;2020.71;571.795;2.96001
806;1991.1;587.42;2.96001
807;1953.87;557.878;2.96001
808;1951.43;577.654;2.96001
809;1991.1;585.467;2.96001
810;2008.19;573.748;2.96001
811;2018.27;557.878;2.96001
812;2013.08;573.748;2.96001
813;1988.66;577.654;2.96001
814;1968.83;595.477;2.97
815;1991.1;575.701;2.97
816;2030.47;563.738;2.97
817;2047.87;589.618;2.97
818;2057.63;569.842;2.97
819;2042.99;567.888;2.97
820;2008.19;571.795;2.97
821;1983.47;587.42;2.97
822;2003.31;573.748;2.97
823;2018.27;565.935;2.97
824;2023.15;550.066;2.97
825;2018.27;579.608;2.97
826;1983.47;583.514;2.97
827;1948.99;555.925;2.97
828;1951.43;581.561;2.97
829;1985.92;579.608;2.97
830;2005.75;573.748;2.98
831;2015.82;557.878;2.98
832;2010.64;577.654;2.98
833;1988.66;577.654;2.98
834;1966.38;597.43;2.98
835;1993.55;571.795;2.98
836;2032.91;565.935;2.98
837;2050.31;591.571;2.98
838;2060.08;563.738;2.98
839;2040.24;567.888;2.98
840;2005.75;567.888;2.98
841;1985.92;587.42;2.98
842;2000.87;563.738;2.98
843;2020.71;569.842;2.98
844;2020.71;548.112;2.98
845;2015.82;581.561;2.99001
846;1985.92;579.608;2.99001
847;1946.55;555.925;2.99001
848;1951.43;587.42;2.99001
849;1988.66;577.654;2.99001
850;2005.75;573.748;2.99001
851;2013.08;557.878;2.99001
852;2008.19;591.571;2.99001
853;1983.47;573.748;2.99001
854;1963.94;601.337;2.99001
855;1991.1;563.738;2.99001
856;2030.47;567.888;2.99001
857;2047.87;591.571;2.99001
858;2055.19;559.832;2.99001
859;2035.36;569.842;2.99001
860;2003.31;569.842;2.99001
861;1983.47;585.467;3
862;2000.87;555.925;3
863;2015.82;567.888;3
864;2020.71;546.159;3
865;2013.08;579.608;3
866;1981.03;581.561;3
867;1944.11;553.972;3
868;1948.99;583.514;3
869;1985.92;577.654;3
870;2003.31;577.654;3
871;2010.64;555.925;3
872;2008.19;585.467;3
873;1983.47;575.701;3
874;1961.5;599.384;3
875;1988.66;565.935;3
876;2030.47;565.935;3.01
877;2047.87;593.524;3.01
878;2055.19;563.738;3.01
879;2037.8;569.842;3.01
880;2000.87;569.842;3.01
881;1981.03;587.42;3.01
882;2000.87;557.878;3.01
883;2018.27;567.888;3.01
884;2020.71;546.159;3.01
885;2013.08;583.514;3.01
886;1978.59;577.654;3.01
887;1941.66;555.925;3.01
888;1948.99;585.467;3.01
889;1985.92;573.748;3.01
890;2003.31;575.701;3.01
891;2015.82;559.832;3.02
892;2008.19;593.524;3.02
893;1983.47;575.701;3.02
894;1963.94;591.571;3.02
895;1993.55;579.608;3.02
896;2030.47;557.878;3.02
897;2047.87;587.42;3.02
898;2055.19;569.842;3.02
899;2035.36;563.738;3.02
900;2000.87;573.748;3.02
901;1983.47;585.467;3.02
902;2000.87;575.701;3.02
903;2015.82;565.935;3.02
904;2020.71;552.019;3.02
905;2010.64;575.701;3.02
906;1978.59;585.467;3.03001
907;1941.66;555.925;3.03001
908;1951.43;577.654;3.03001
909;1985.92;581.561;3.03001
910;2003.31;571.795;3.03001
911;2010.64;557.878;3.03001
912;2005.75;573.748;3.03001
913;1981.03;575.701;3.03001
914;1961.5;595.477;3.03001
915;1991.1;571.795;3.03001
916;2030.47;559.832;3.03001
917;2047.87;591.571;3.03001
918;2052.75;567.888;3.03001
919;2032.91;567.888;3.03001
920;2000.87;569.842;3.03001
921;1983.47;589.618;3.03001
922;2000.87;569.842;3.04
923;2015.82;567.888;3.04
924;2018.27;546.159;3.04
925;2010.64;577.654;3.04
926;1981.03;581.561;3.04
927;1941.66;553.972;3.04
928;1946.55;579.608;3.04
929;1983.47;577.654;3.04
930;2000.87;573.748;3.04
931;2010.64;555.925;3.04
932;2003.31;585.467;3.04
933;1981.03;577.654;3.04
934;1958.75;601.337;3.04
935;1993.55;563.738;3.04
936;2035.36;567.888;3.04
937;2050.31;591.571;3.05
938;2057.63;561.785;3.05
939;2040.24;569.842;3.05
940;2005.75;567.888;3.05
941;1985.92;587.42;3.05
942;2005.75;557.878;3.05
943;2018.27;569.842;3.05
944;2023.15;544.206;3.05
945;2010.64;585.467;3.05
946;1976.15;579.608;3.05
947;1939.22;553.972;3.05
948;1944.11;585.467;3.05
949;1983.47;573.748;3.05
950;1998.43;575.701;3.05
951;2005.75;557.878;3.05
952;2000.87;591.571;3.05
953;1976.15;573.748;3.06001
954;1956.31;597.43;3.06001
955;1991.1;561.785;3.06001
956;2030.47;555.925;3.06001
957;2045.43;587.42;3.06001
958;2055.19;571.795;3.06001
959;2032.91;563.738;3.06001
960;2000.87;571.795;3.06001
961;1983.47;585.467;3.06001
962;2000.87;575.701;3.06001
963;2013.08;563.738;3.06001
964;2018.27;552.019;3.06001
965;2005.75;571.795;3.06001
966;1971.27;583.514;3.06001
967;1934.34;557.878;3.06001
968;1946.55;575.701;3.06001
969;1983.47;581.561;3.07
970;1995.99;573.748;3.07
971;2005.75;555.925;3.07
972;1998.43;571.795;3.07
973;1973.71;573.748;3.07
974;1956.31;595.477;3.07
975;1993.55;569.842;3.07
976;2030.47;561.785;3.07
977;2047.87;589.618;3.07
978;2052.75;567.888;3.07
979;2030.47;565.935;3.07
980;2000.87;571.795;3.07
981;1981.03;585.467;3.07
982;2003.31;571.795;3.07
983;2015.82;567.888;3.07
984;2018.27;546.159;3.07
985;2005.75;579.608;3.08
986;1973.71;579.608;3.08
987;1934.34;553.972;3.08
988;1946.55;579.608;3.08
989;1983.47;577.654;3.08
990;1995.99;575.701;3.08
991;2003.31;557.878;3.08
992;1998.43;583.514;3.08
993;1973.71;575.701;3.08
994;1958.75;601.337;3.08
995;1993.55;563.738;3.08
996;2032.91;565.935;3.08
997;2050.31;591.571;3.08
998;2055.19;561.785;3.08
999;2035.36;567.888;3.08
1000;2000.87;569.842;3.08
1001;1983.47;587.42;3.09
1002;2003.31;559.832;3.09
1003;2015.82;567.888;3.09
1004;2020.71;544.206;3.09
1005;2008.19;585.467;3.09
1006;1973.71;579.608;3.09
1007;1936.78;555.925;3.09
1008;1951.43;585.467;3.09
1009;1985.92;575.701;3.09
1010;1998.43;575.701;3.09
1011;2005.75;557.878;3.09
1012;1998.43;593.524;3.09
1013;1973.71;575.701;3.09
1014;1958.75;597.43;3.09
1015;1993.55;561.785;3.09
1016;2030.47;565.935;3.09
1017;2047.87;589.618;3.09
1018;2052.75;565.935;3.10001
1019;2030.47;569.842;3.10001
1020;1998.43;567.888;3.10001
1021;1981.03;585.467;3.10001
1022;2003.31;565.935;3.10001
1023;2013.08;569.842;3.10001
1024;2015.82;544.206;3.10001
1025;2003.31;581.561;3.10001
1026;1968.83;579.608;3.10001
1027;1931.59;553.972;3.10001
1028;1946.55;583.514;3.10001
1029;1981.03;577.654;3.10001
1030;1993.55;575.701;3.10001
1031;2003.31;555.925;3.10001
1032;1993.55;587.42;3.10001
1033;1971.27;573.748;3.10001
1034;1951.43;597.43;3.11
1035;1993.55;561.785;3.11
1036;2025.59;567.888;3.11
1037;2042.99;589.618;3.11
1038;2050.31;561.785;3.11
1039;2025.59;571.795;3.11
1040;1995.99;567.888;3.11
1041;1981.03;585.467;3.11
1042;2003.31;553.972;3.11
1043;2013.08;571.795;3.11
1044;2018.27;544.206;3.11
1045;2003.31;589.618;3.11
1046;1966.38;575.701;3.11
1047;1934.34;555.925;3.11
1048;1951.43;573.748;3.11
1049;1983.47;581.561;3.11
1050;1995.99;571.795;3.12
1051;2000.87;559.832;3.12
1052;1993.55;571.795;3.12
1053;1971.27;579.608;3.12
1054;1956.31;589.618;3.12
1055;1993.55;575.701;3.12
1056;2030.47;559.832;3.12
1057;2047.87;587.42;3.12
1058;2050.31;569.842;3.12
1059;2030.47;563.738;3.12
1060;1995.99;569.842;3.12
1061;1983.47;583.514;3.12
1062;2003.31;575.701;3.12
1063;2010.64;565.935;3.12
1064;2018.27;550.066;3.12
1065;1998.43;571.795;3.12
1066;1963.94;585.467;3.12
1067;1931.59;555.925;3.13
1068;1946.55;575.701;3.13
1069;1981.03;579.608;3.13
1070;1993.55;573.748;3.13
1071;2000.87;557.878;3.13
1072;1991.1;573.748;3.13
1073;1966.38;575.701;3.13
1074;1953.87;595.477;3.13
1075;1993.55;569.842;3.13
1076;2028.03;561.785;3.13
1077;2042.99;589.618;3.13
1078;2045.43;563.738;3.13
1079;2025.59;567.888;3.13
1080;1991.1;565.935;3.13
1081;1981.03;585.467;3.13
1082;1998.43;565.935;3.13
1083;2010.64;569.842;3.13
1084;2013.08;546.159;3.14001
1085;2000.87;581.561;3.14001
1086;1963.94;577.654;3.14001
1087;1929.15;553.972;3.14001
1088;1948.99;583.514;3.14001
1089;1981.03;575.701;3.14001
1090;1993.55;575.701;3.14001
1091;1998.43;555.925;3.14001
1092;1991.1;585.467;3.14001
1093;1963.94;573.748;3.14001
1094;1953.87;597.43;3.14001
1095;1993.55;563.738;3.14001
1096;2028.03;563.738;3.14001
1097;2042.99;589.618;3.14001
1098;2045.43;561.785;3.14001
1099;2023.15;569.842;3.14001
1100;1988.66;565.935;3.14001
1101;1978.59;585.467;3.15
1102;2000.87;555.925;3.15
1103;2010.64;567.888;3.15
1104;2013.08;542.009;3.15
1105;1998.43;585.467;3.15
1106;1963.94;577.654;3.15
1107;1929.15;553.972;3.15
1108;1948.99;585.467;3.15
1109;1981.03;573.748;3.15
1110;1993.55;571.795;3.15
1111;1995.99;555.925;3.15
1112;1995.99;569.842;3.15
1113;1973.71;575.701;3.15
1114;1951.43;589.618;3.15
1115;1976.15;575.701;3.15
1116;2018.27;559.832;3.15
1117;2040.24;585.467;3.15
1118;2047.87;569.842;3.15
1119;2035.36;563.738;3.16
1120;2003.31;567.888;3.16
1121;1981.03;581.561;3.16
1122;1993.55;575.701;3.16
1123;2005.75;565.935;3.16
1124;2010.64;548.112;3.16
1125;2008.19;571.795;3.16
1126;1976.15;583.514;3.16
1127;1936.78;553.972;3.16
1128;1934.34;575.701;3.16
1129;1973.71;579.608;3.16
1130;1988.66;573.748;3.16
1131;1995.99;555.925;3.16
1132;1995.99;573.748;3.16
1133;1976.15;575.701;3.16
1134;1951.43;595.477;3.16
1135;1976.15;569.842;3.16
1136;2018.27;561.785;3.17001
1137;2037.8;587.42;3.17001
1138;2047.87;565.935;3.17001
1139;2032.91;565.935;3.17001
1140;2000.87;569.842;3.17001
1141;1976.15;587.42;3.17001
1142;1993.55;565.935;3.17001
1143;2005.75;565.935;3.17001
1144;2010.64;544.206;3.17001
1145;2005.75;577.654;3.17001
1146;1978.59;579.608;3.17001
1147;1936.78;552.019;3.17001
1148;1931.59;581.561;3.17001
1149;1971.27;573.748;3.17001
1150;1985.92;573.748;3.17001
1151;1995.99;555.925;3.17001
1152;1993.55;585.467;3.17001
1153;1976.15;575.701;3.17001
1154;1948.99;599.384;3.18
1155;1976.15;563.738;3.18
1156;2015.82;561.785;3.18
1157;2037.8;591.571;3.18
1158;2045.43;557.878;3.18
1159;2032.91;567.888;3.18
1160;2000.87;565.935;3.18
1161;1978.59;585.467;3.18
1162;1991.1;555.925;3.18
1163;2005.75;565.935;3.18
1164;2010.64;544.206;3.18
1165;2005.75;583.514;3.18
1166;1973.71;575.701;3.18
1167;1934.34;552.019;3.18
1168;1931.59;585.467;3.18
1169;1971.27;573.748;3.18
1170;1991.1;573.748;3.18
1171;1998.43;555.925;3.18
1172;1995.99;577.654;3.19
1173;1976.15;575.701;3.19
1174;1953.87;599.384;3.19
1175;1981.03;565.935;3.19
1176;2023.15;561.785;3.19
1177;2042.99;591.571;3.19
1178;2050.31;561.785;3.19
1179;2035.36;567.888;3.19
1180;2003.31;569.842;3.19
1181;1978.59;587.42;3.19
1182;1993.55;561.785;3.19
1183;2008.19;565.935;3.19
1184;2008.19;542.009;3.19
1185;2000.87;583.514;3.19
1186;1971.27;577.654;3.19
1187;1931.59;550.066;3.19
1188;1926.71;583.514;3.2
1189;1968.83;573.748;3.2
1190;1983.47;575.701;3.2
1191;1993.55;555.925;3.2
1192;1991.1;589.618;3.2
1193;1971.27;573.748;3.2
1194;1948.99;599.384;3.2
1195;1981.03;563.738;3.2
1196;2020.71;565.935;3.2
1197;2037.8;589.618;3.2
1198;2052.75;557.878;3.2
1199;2035.36;569.842;3.2
1200;2003.31;565.935;3.2
1201;1978.59;585.467;3.2
1202;1991.1;573.748;3.2
1203;2003.31;565.935;3.2
1204;2008.19;550.066;3.2
1205;1998.43;569.842;3.21001
1206;1971.27;585.467;3.21001
1207;1926.71;553.972;3.21001
1208;1929.15;575.701;3.21001
1209;1966.38;581.561;3.21001
1210;1983.47;569.842;3.21001
1211;1993.55;553.972;3.21001
1212;1985.92;569.842;3.21001
1213;1966.38;575.701;3.21001
1214;1944.11;589.618;3.21001
1215;1981.03;571.795;3.21001
1216;2020.71;555.925;3.21001
1217;2040.24;587.42;3.21001
1218;2052.75;565.935;3.21001
1219;2032.91;565.935;3.21001
1220;2000.87;569.842;3.21001
1221;1978.59;583.514;3.22
1222;1993.55;573.748;3.22
1223;2005.75;565.935;3.22
1224;2008.19;548.112;3.22
1225;2000.87;575.701;3.22
1226;1968.83;579.608;3.22
1227;1926.71;553.972;3.22
1228;1929.15;577.654;3.22
1229;1966.38;575.701;3.22
1230;1983.47;571.795;3.22
1231;1993.55;557.878;3.22
1232;1985.92;571.795;3.22
1233;1968.83;575.701;3.22
1234;1948.99;595.477;3.22
1235;1978.59;567.888;3.22
1236;2020.71;561.785;3.22
1237;2040.24;587.42;3.22
1238;2047.87;561.785;3.23
1239;2032.91;567.888;3.23
1240;2000.87;565.935;3.23
1241;1978.59;581.561;3.23
1242;1993.55;561.785;3.23
1243;2005.75;567.888;3.23
1244;2005.75;546.159;3.23
1245;1998.43;581.561;3.23
1246;1966.38;577.654;3.23
1247;1926.71;550.066;3.23
1248;1929.15;583.514;3.23
1249;1968.83;573.748;3.23
1250;1983.47;573.748;3.23
1251;1993.55;555.925;3.23
1252;1988.66;587.42;3.23
1253;1966.38;573.748;3.23
1254;1948.99;599.384;3.23
1255;1981.03;559.832;3.24001
1256;2020.71;565.935;3.24001
1257;2040.24;589.618;3.24001
1258;2047.87;557.878;3.24001
1259;2032.91;567.888;3.24001
1260;1998.43;567.888;3.24001
1261;1978.59;583.514;3.24001
1262;1993.55;553.972;3.24001
1263;2005.75;567.888;3.24001
1264;2008.19;550.066;3.24001
1265;2000.87;563.738;3.24001
1266;1966.38;587.42;3.24001
1267;1924.27;557.878;3.24001
1268;1929.15;573.748;3.24001
1269;1966.38;581.561;3.24001
1270;1983.47;569.842;3.24001
1271;1991.1;555.925;3.25
1272;1988.66;569.842;3.25
1273;1966.38;577.654;3.25
1274;1948.99;589.618;3.25
1275;1981.03;573.748;3.25
1276;2023.15;559.832;3.25
1277;2037.8;585.467;3.25
1278;2047.87;567.888;3.25
1279;2028.03;565.935;3.25
1280;1995.99;569.842;3.25
1281;1976.15;581.561;3.25
1282;1993.55;573.748;3.25
1283;2005.75;565.935;3.25
1284;2008.19;546.159;3.25
1285;2000.87;575.701;3.25
1286;1966.38;579.608;3.25
1287;1926.71;552.019;3.25
1288;1929.15;577.654;3.26
1289;1968.83;575.701;3.26
1290;1981.03;571.795;3.26
1291;1985.92;553.972;3.26
1292;1985.92;571.795;3.26
1293;1961.5;571.795;3.26
1294;1948.99;597.43;3.26
1295;1981.03;565.935;3.26
1296;2018.27;561.785;3.26
1297;2035.36;589.618;3.26
1298;2045.43;561.785;3.26
1299;2028.03;565.935;3.26
1300;1995.99;565.935;3.26
1301;1976.15;583.514;3.26
1302;1991.1;565.935;3.26
1303;2000.87;565.935;3.27
1304;2005.75;544.206;3.27
1305;1993.55;579.608;3.27
1306;1961.5;577.654;3.27
1307;1921.83;548.112;3.27
1308;1929.15;581.561;3.27
1309;1966.38;573.748;3.27
1310;1978.59;575.701;3.27
1311;1991.1;555.925;3.27
1312;1983.47;587.42;3.27
1313;1963.94;571.795;3.27
1314;1944.11;597.43;3.27
1315;1983.47;561.785;3.27
1316;2020.71;563.738;3.27
1317;2037.8;591.571;3.27
1318;2045.43;557.878;3.27
1319;2028.03;565.935;3.28001
1320;1993.55;565.935;3.28001
1321;1973.71;583.514;3.28001
1322;1988.66;553.972;3.28001
1323;1998.43;567.888;3.28001
1324;2000.87;546.159;3.28001
1325;1988.66;577.654;3.28001
1326;1953.87;577.654;3.28001
1327;1916.94;550.066;3.28001
1328;1926.71;579.608;3.28001
1329;1966.38;575.701;3.28001
1330;1983.47;571.795;3.28001
1331;1988.66;555.925;3.28001
1332;1983.47;579.608;3.28001
1333;1961.5;571.795;3.28001
1334;1944.11;597.43;3.28001
1335;1981.03;565.935;3.28001
1336;2018.27;561.785;3.29
1337;2037.8;589.618;3.29
1338;2042.99;559.832;3.29
1339;2023.15;565.935;3.29
1340;1991.1;567.888;3.29
1341;1968.83;583.514;3.29
1342;1988.66;557.878;3.29
1343;1998.43;565.935;3.29
1344;1998.43;540.056;3.29
1345;1985.92;583.514;3.29
1346;1953.87;575.701;3.29
1347;1916.94;550.066;3.29
1348;1926.71;583.514;3.29
1349;1966.38;573.748;3.29
1350;1981.03;573.748;3.29
1351;1988.66;557.878;3.29
1352;1983.47;585.467;3.3
1353;1958.75;571.795;3.3
1354;1946.55;601.337;3.3
1355;1983.47;559.832;3.3
1356;2018.27;553.972;3.3
1357;2035.36;583.514;3.3
1358;2042.99;569.842;3.3
1359;2020.71;559.832;3.3
1360;1983.47;569.842;3.3
1361;1968.83;579.608;3.3
1362;1985.92;573.748;3.3
1363;1995.99;561.785;3.3
1364;1995.99;546.159;3.3
1365;1985.92;567.888;3.3
1366;1951.43;581.561;3.3
1367;1914.5;550.066;3.3
1368;1926.71;573.748;3.31001
1369;1963.94;579.608;3.31001
1370;1981.03;567.888;3.31001
1371;1985.92;553.972;3.31001
1372;1983.47;567.888;3.31001
1373;1961.5;573.748;3.31001
1374;1941.66;591.571;3.31001
1375;1981.03;569.842;3.31001
1376;2015.82;557.878;3.31001
1377;2032.91;585.467;3.31001
1378;2037.8;565.935;3.31001
1379;2018.27;565.935;3.31001
1380;1985.92;567.888;3.31001
1381;1968.83;581.561;3.31001
1382;1983.47;569.842;3.31001
1383;1993.55;565.935;3.31001
1384;1993.55;542.009;3.32
1385;1983.47;573.748;3.32
1386;1951.43;579.608;3.32
1387;1914.5;552.019;3.32
1388;1926.71;579.608;3.32
1389;1963.94;573.748;3.32
1390;1981.03;571.795;3.32
1391;1985.92;552.019;3.32
1392;1978.59;577.654;3.32
1393;1956.31;571.795;3.32
1394;1939.22;595.477;3.32
1395;1981.03;563.738;3.32
1396;2015.82;561.785;3.32
1397;2032.91;589.618;3.32
1398;2037.8;557.878;3.32
1399;2015.82;565.935;3.32
1400;1983.47;565.935;3.32
1401;1968.83;583.514;3.33
1402;1983.47;561.785;3.33
1403;1995.99;563.738;3.33
1404;1995.99;542.009;3.33
1405;1983.47;579.608;3.33
1406;1946.55;577.654;3.33
1407;1912.06;552.019;3.33
1408;1926.71;581.561;3.33
1409;1963.94;571.795;3.33
1410;1978.59;571.795;3.33
1411;1983.47;553.972;3.33
1412;1978.59;585.467;3.33
1413;1956.31;571.795;3.33
1414;1941.66;593.524;3.33
1415;1981.03;559.832;3.33
1416;2013.08;563.738;3.33
1417;2030.47;585.467;3.34
1418;2035.36;569.842;3.34
1419;2015.82;559.832;3.34
1420;1983.47;569.842;3.34
1421;1963.94;581.561;3.34
1422;1983.47;571.795;3.34
1423;1993.55;561.785;3.34
1424;1995.99;548.112;3.34
1425;1983.47;569.842;3.34
1426;1948.99;581.561;3.34
1427;1912.06;552.019;3.34
1428;1929.15;573.748;3.34
1429;1966.38;579.608;3.34
1430;1978.59;569.842;3.34
1431;1985.92;552.019;3.34
1432;1981.03;567.888;3.34
1433;1956.31;573.748;3.34
1434;1941.66;589.618;3.35001
1435;1981.03;571.795;3.35001
1436;2013.08;557.878;3.35001
1437;2025.59;585.467;3.35001
1438;2030.47;563.738;3.35001
1439;2008.19;563.738;3.35001
1440;1978.59;565.935;3.35001
1441;1961.5;581.561;3.35001
1442;1983.47;569.842;3.35001
1443;1991.1;565.935;3.35001
1444;1995.99;544.206;3.35001
1445;1983.47;575.701;3.35001
1446;1948.99;577.654;3.35001
1447;1912.06;552.019;3.35001
1448;1929.15;573.748;3.35001
1449;1963.94;573.748;3.35001
1450;1978.59;571.795;3.36
1451;1983.47;552.019;3.36
1452;1978.59;575.701;3.36
1453;1951.43;573.748;3.36
1454;1939.22;595.477;3.36
1455;1978.59;565.935;3.36
1456;2010.64;561.785;3.36
1457;2025.59;587.42;3.36
1458;2030.47;559.832;3.36
1459;2005.75;563.738;3.36
1460;1976.15;563.738;3.36
1461;1961.5;581.561;3.36
1462;1983.47;559.832;3.36
1463;1993.55;563.738;3.36
1464;1993.55;542.009;3.36
1465;1983.47;577.654;3.36
1466;1946.55;575.701;3.36
1467;1914.5;552.019;3.37
1468;1931.59;581.561;3.37
1469;1963.94;571.795;3.37
1470;1978.59;573.748;3.37
1471;1985.92;553.972;3.37
1472;1981.03;587.42;3.37
1473;1953.87;571.795;3.37
1474;1941.66;595.477;3.37
1475;1983.47;559.832;3.37
1476;2013.08;563.738;3.37
1477;2028.03;585.467;3.37
1478;2030.47;553.972;3.37
1479;2005.75;567.888;3.37
1480;1976.15;563.738;3.37
1481;1961.5;585.467;3.37
1482;1983.47;563.738;3.37
1483;1991.1;563.738;3.37
1484;1993.55;544.206;3.38
1485;1981.03;577.654;3.38
1486;1946.55;577.654;3.38
1487;1914.5;548.112;3.38
1488;1924.27;579.608;3.38
1489;1963.94;573.748;3.38
1490;1976.15;569.842;3.38
1491;1985.92;553.972;3.38
1492;1983.47;579.608;3.38
1493;1958.75;571.795;3.38
1494;1941.66;597.43;3.38
1495;1971.27;561.785;3.38
1496;2005.75;559.832;3.38
1497;2023.15;587.42;3.38
1498;2028.03;557.878;3.38
1499;2010.64;565.935;3.38
1500;1981.03;565.935;3.38
1501;1958.75;583.514;3.39001
1502;1978.59;553.972;3.39001
1503;1988.66;563.738;3.39001
1504;1991.1;542.009;3.39001
1505;1981.03;583.514;3.39001
1506;1951.43;573.748;3.39001
1507;1914.5;548.112;3.39001
1508;1921.83;581.561;3.39001
1509;1958.75;569.842;3.39001
1510;1976.15;571.795;3.39001
1511;1983.47;553.972;3.39001
1512;1978.59;565.935;3.39001
1513;1956.31;575.701;3.39001
1514;1936.78;583.514;3.39001
1515;1971.27;575.701;3.39001
1516;2005.75;552.019;3.39001
1517;2023.15;583.514;3.39001
1518;2028.03;567.888;3.4
1519;2008.19;559.832;3.4
1520;1976.15;569.842;3.4
1521;1956.31;579.608;3.4
1522;1976.15;571.795;3.4
1523;1985.92;563.738;3.4
1524;1991.1;548.112;3.4
1525;1983.47;569.842;3.4
1526;1948.99;579.608;3.4
1527;1912.06;552.019;3.4
1528;1924.27;573.748;3.4
1529;1961.5;575.701;3.4
1530;1978.59;567.888;3.4
1531;1983.47;553.972;3.4
1532;1981.03;567.888;3.4
1533;1953.87;571.795;3.4
1534;1936.78;593.524;3.4
1535;1971.27;565.935;3.4
1536;2003.31;559.832;3.41
1537;2020.71;585.467;3.41
1538;2028.03;561.785;3.41
1539;2005.75;563.738;3.41
1540;1976.15;567.888;3.41
1541;1956.31;583.514;3.41
1542;1976.15;565.935;3.41
1543;1985.92;563.738;3.41
1544;1991.1;544.206;3.41
1545;1981.03;575.701;3.41
1546;1946.55;575.701;3.41
1547;1914.5;550.066;3.41
1548;1921.83;577.654;3.41
1549;1958.75;571.795;3.41
1550;1976.15;573.748;3.41
1551;1983.47;552.019;3.41
1552;1973.71;579.608;3.41
1553;1953.87;573.748;3.42001
1554;1936.78;595.477;3.42001
1555;1968.83;561.785;3.42001
1556;2005.75;561.785;3.42001
1557;2020.71;587.42;3.42001
1558;2028.03;555.925;3.42001
1559;2005.75;563.738;3.42001
1560;1971.27;563.738;3.42001
1561;1951.43;583.514;3.42001
1562;1976.15;553.972;3.42001
1563;1985.92;563.738;3.42001
1564;1988.66;542.009;3.42001
1565;1976.15;583.514;3.42001
1566;1944.11;575.701;3.42001
1567;1909.62;548.112;3.42001
1568;1921.83;583.514;3.42001
1569;1958.75;571.795;3.42001
1570;1971.27;571.795;3.42001
1571;1981.03;553.972;3.43
1572;1976.15;587.42;3.43
1573;1951.43;573.748;3.43
1574;1934.34;585.467;3.43
1575;1968.83;577.654;3.43
1576;2003.31;553.972;3.43
1577;2018.27;579.608;3.43
1578;2023.15;563.738;3.43
1579;2003.31;559.832;3.43
1580;1971.27;567.888;3.43
1581;1953.87;577.654;3.43
1582;1971.27;571.795;3.43
1583;1983.47;561.785;3.43
1584;1985.92;548.112;3.43
1585;1976.15;567.888;3.43
1586;1944.11;579.608;3.43
1587;1909.62;552.019;3.43
1588;1919.39;571.795;3.43
1589;1958.75;577.654;3.44
1590;1973.71;567.888;3.44
1591;1981.03;553.972;3.44
1592;1973.71;569.842;3.44
1593;1948.99;571.795;3.44
1594;1934.34;589.618;3.44
1595;1971.27;565.935;3.44
1596;2003.31;557.878;3.44
1597;2020.71;585.467;3.44
1598;2023.15;559.832;3.44
1599;2000.87;561.785;3.44
1600;1966.38;567.888;3.44
1601;1953.87;581.561;3.44
1602;1973.71;565.935;3.44
1603;1983.47;563.738;3.44
1604;1985.92;542.009;3.44
1605;1973.71;571.795;3.44
1606;1939.22;577.654;3.44
1607;1907.18;550.066;3.45
1608;1921.83;575.701;3.45
1609;1956.31;573.748;3.45
1610;1971.27;571.795;3.45
1611;1978.59;552.019;3.45
1612;1971.27;579.608;3.45
1613;1944.11;571.795;3.45
1614;1931.59;593.524;3.45
1615;1966.38;565.935;3.45
1616;1998.43;561.785;3.45
1617;2015.82;589.618;3.45
1618;2018.27;555.925;3.45
1619;1998.43;565.935;3.45
1620;1963.94;563.738;3.45
1621;1951.43;581.561;3.45
1622;1971.27;555.925;3.45
1623;1981.03;563.738;3.45
1624;1983.47;540.056;3.45
1625;1973.71;581.561;3.46001
1626;1936.78;571.795;3.46001
1627;1904.43;546.159;3.46001
1628;1919.39;581.561;3.46001
1629;1956.31;569.842;3.46001
1630;1966.38;571.795;3.46001
1631;1978.59;553.972;3.46001
1632;1968.83;587.42;3.46001
1633;1944.11;567.888;3.46001
1634;1929.15;593.524;3.46001
1635;1968.83;563.738;3.46001
1636;1998.43;559.832;3.46001
1637;2013.08;585.467;3.46001
1638;2018.27;557.878;3.46001
1639;1995.99;563.738;3.46001
1640;1963.94;563.738;3.46001
1641;1948.99;583.514;3.46001
1642;1968.83;561.785;3.46001
1643;1978.59;561.785;3.47
1644;1983.47;540.056;3.47
1645;1971.27;575.701;3.47
1646;1934.34;573.748;3.47
1647;1899.55;546.159;3.47
1648;1916.94;579.608;3.47
1649;1953.87;569.842;3.47
1650;1968.83;569.842;3.47
1651;1973.71;552.019;3.47
1652;1968.83;583.514;3.47
1653;1941.66;569.842;3.47
1654;1929.15;593.524;3.47
1655;1968.83;561.785;3.47
1656;1995.99;561.785;3.47
1657;2010.64;583.514;3.47
1658;2010.64;553.972;3.47
1659;1988.66;565.935;3.47
1660;1953.87;561.785;3.47
1661;1941.66;583.514;3.47
1662;1963.94;552.019;3.48
1663;1973.71;561.785;3.48
1664;1978.59;542.009;3.48
1665;1963.94;561.785;3.48
1666;1931.59;583.514;3.48
1667;1901.99;553.972;3.48
1668;1919.39;569.842;3.48
1669;1956.31;579.608;3.48
1670;1968.83;567.888;3.48
1671;1976.15;552.019;3.48
1672;1966.38;567.888;3.48
1673;1939.22;573.748;3.48
1674;1926.71;585.467;3.48
1675;1946.55;569.842;3.48
1676;1983.47;553.972;3.48
1677;2003.31;585.467;3.48
1678;2010.64;565.935;3.48
1679;1998.43;557.878;3.48
1680;1966.38;565.935;3.48
1681;1939.22;579.608;3.48
1682;1951.43;571.795;3.49001
1683;1971.27;557.878;3.49001
1684;1976.15;548.112;3.49001
1685;1971.27;569.842;3.49001
1686;1946.55;577.654;3.49001
1687;1907.18;550.066;3.49001
1688;1904.43;573.748;3.49001
1689;1946.55;575.701;3.49001
1690;1961.5;569.842;3.49001
1691;1971.27;552.019;3.49001
1692;1968.83;571.795;3.49001
1693;1948.99;571.795;3.49001
1694;1926.71;591.571;3.49001
1695;1946.55;565.935;3.49001
1696;1983.47;559.832;3.49001
1697;1998.43;585.467;3.49001
1698;2008.19;559.832;3.49001
1699;1995.99;563.738;3.49001
1700;1961.5;563.738;3.49001
1701;1939.22;583.514;3.5
1702;1953.87;561.785;3.5
1703;1968.83;563.738;3.5
1704;1971.27;540.056;3.5
1705;1968.83;575.701;3.5
1706;1941.66;573.748;3.5
1707;1901.99;546.159;3.5
1708;1901.99;577.654;3.5
1709;1941.66;573.748;3.5
1710;1958.75;571.795;3.5
1711;1968.83;550.066;3.5
1712;1968.83;583.514;3.5
1713;1946.55;569.842;3.5
1714;1921.83;595.477;3.5
1715;1944.11;557.878;3.5
1716;1983.47;561.785;3.5
1717;2000.87;587.42;3.5
1718;2005.75;555.925;3.5
1719;1993.55;565.935;3.5
1720;1961.5;561.785;3.5
1721;1936.78;581.561;3.51
1722;1951.43;552.019;3.51
1723;1966.38;563.738;3.51
1724;1971.27;542.009;3.51
1725;1968.83;579.608;3.51
1726;1939.22;581.561;3.51
1727;1901.99;553.972;3.51
1728;1901.99;567.888;3.51
1729;1941.66;577.654;3.51
1730;1961.5;567.888;3.51
1731;1968.83;552.019;3.51
1732;1968.83;565.935;3.51
1733;1946.55;571.795;3.51
1734;1921.83;585.467;3.51
1735;1944.11;571.795;3.51
1736;1981.03;553.972;3.51
1737;1995.99;581.561;3.51
1738;2003.31;561.785;3.51
1739;1988.66;559.832;3.51
1740;1958.75;567.888;3.52
1741;1936.78;581.561;3.52
1742;1948.99;569.842;3.52
1743;1966.38;559.832;3.52
1744;1971.27;546.159;3.52
1745;1968.83;567.888;3.52
1746;1941.66;579.608;3.52
1747;1901.99;552.019;3.52
1748;1904.43;573.748;3.52
1749;1944.11;573.748;3.52
1750;1956.31;567.888;3.52
