<WeldAnalyseData xmlns:i="http:www.w3.org/2001/XMLSchema-instance">
<WeldParameter>
<TimeStamp>DT#2023-12-05-14:55:33</TimeStamp>
<Generator>SG-22-10000</Generator>
<GenFreq>20</GenFreq>
<MaxForce>8000</MaxForce>
<MaxPower>10000</MaxPower>
<RunupPressure>1.5</RunupPressure>
<RunupDist>10</RunupDist>
<RunPress>0.8</RunPress>
<ShakeDelay>0.03</ShakeDelay>
<ShakeTime>0.3</ShakeTime>
<RunBackPress1>6</RunBackPress1>
<RunBackPress2>2</RunBackPress2>
<RunBackDist>1</RunBackDist>
<TrigValue>500</TrigValue>
<TrigModeUnit>W</TrigModeUnit>
<WeldModeUnit>Ws</WeldModeUnit>
<PressNr>0</PressNr>
<MaxLoss>1500</MaxLoss>
</WeldParameter>
<WeldSets>
<WeldSet>
<PressRiseTime>0</PressRiseTime>
<RunPressure>1</RunPressure>
<Amplitude>86</Amplitude>
<WeldMode>3270</WeldMode>
</WeldSet>
</WeldSets>
<WeldValue>
<WeldNr>2427</WeldNr>
<RecipeName>RickStyle</RecipeName>
<WeldTime>1797</WeldTime>
<DistDiff>3.52</DistDiff>
<DistAbs>78.37</DistAbs>
<Energy>3270.98</Energy>
<MaxPower>2061.89</MaxPower>
<CycleTime>6110</CycleTime>
<TrigForce>502.701</TrigForce>
<TrigDist>74.85</TrigDist>
<RunSpeed>67.7376</RunSpeed>
<MaxForce>605.243</MaxForce>
<LossPower>248.974</LossPower>
</WeldValue>
</WeldAnalyseData>
#CSV-START#
ms;Power[W];Force[N];Distance[mm]
1;0;0;0
2;0;502.701;0.0100021
3;0;502.701;0.0100021
4;0;500.748;0.0100021
5;0;500.748;0.0100021
6;0;502.701;0.0100021
7;0;502.701;0.0100021
8;0;482.925;0.0100021
9;0;469.008;0.0200043
10;2.80388;453.383;0.0299988
11;22.3357;439.467;0.0500031
12;32.4068;435.56;0.0600052
13;49.4972;429.456;0.0800018
14;74.2172;423.597;0.0999985
15;101.379;411.878;0.120003
16;133.728;413.831;0.139999
17;160.89;405.774;0.150002
18;190.493;413.831;0.169998
19;220.096;390.149;0.190002
20;244.816;397.961;0.209999
21;269.536;403.821;0.230003
22;291.509;392.102;0.25
23;311.346;399.915;0.270004
24;328.742;397.961;0.290001
25;348.273;403.821;0.310005
26;365.669;397.961;0.32
27;383.065;401.868;0.340004
28;395.272;392.102;0.349998
29;402.596;417.737;0.370003
30;402.596;409.925;0.380005
31;402.596;403.821;0.400002
32;417.55;421.644;0.410004
33;424.875;413.831;0.419998
34;427.316;411.878;0.43
35;432.199;405.774;0.450005
36;432.199;417.737;0.459999
37;437.387;411.878;0.470001
38;442.27;423.597;0.480003
39;454.478;405.774;0.5
40;466.99;411.878;0.510002
41;471.873;417.737;0.520004
42;474.315;409.925;0.529999
43;471.873;417.737;0.550003
44;469.432;415.784;0.560005
45;466.99;425.55;0.57
46;466.99;417.737;0.580002
47;471.873;417.737;0.590004
48;474.315;411.878;0.599998
49;471.873;427.503;0.610001
50;464.549;419.691;0.620003
51;459.361;413.831;0.630005
52;469.432;427.503;0.639999
53;476.756;419.691;0.660004
54;484.081;421.644;0.669998
55;491.71;415.784;0.68
56;491.71;421.644;0.690002
57;496.593;423.597;0.709999
58;503.918;429.456;0.720001
59;523.755;415.784;0.730003
60;533.521;427.503;0.739998
61;546.033;425.55;0.760002
62;548.475;419.691;0.770004
63;548.475;425.55;0.779999
64;546.033;423.597;0.790001
65;546.033;429.456;0.810005
66;548.475;425.55;0.82
67;553.358;421.644;0.830002
68;550.916;421.644;0.840004
69;548.475;435.56;0.849998
70;543.592;423.597;0.870003
71;538.404;427.503;0.880005
72;546.033;437.513;0.889999
73;558.241;429.456;0.900002
74;565.565;429.456;0.919998
75;570.753;423.597;0.93
76;575.636;433.607;0.940002
77;580.519;433.607;0.959999
78;590.285;441.42;0.970001
79;612.564;421.644;0.980003
80;629.959;437.513;1
81;637.284;437.513;1.01
82;642.167;429.456;1.03
83;637.284;435.56;1.04
84;632.401;435.56;1.05
85;632.401;441.42;1.07
86;637.284;433.607;1.08
87;639.725;433.607;1.09
88;644.608;431.654;1.11
89;642.167;445.326;1.12
90;634.842;435.56;1.14
91;632.401;435.56;1.15
92;647.05;443.373;1.16
93;659.562;437.513;1.18
94;664.445;439.467;1.19
95;671.77;435.56;1.21
96;679.399;439.467;1.22
97;679.399;445.326;1.24
98;689.165;449.232;1.25
99;711.444;433.607;1.27
100;730.976;449.232;1.28
101;741.047;439.467;1.3
102;748.371;437.513;1.31001
103;745.93;441.42;1.32
104;741.047;445.326;1.34
105;741.047;447.279;1.35
106;748.371;435.56;1.37
107;753.254;441.42;1.38
108;760.884;425.55;1.4
109;758.137;459.243;1.41
110;753.254;443.373;1.42
111;748.371;433.607;1.44
112;770.65;459.243;1.45
113;788.045;441.42;1.46
114;797.811;441.42;1.48
115;810.018;433.607;1.49
116;817.648;449.232;1.5
117;820.09;447.279;1.51
118;832.297;461.196;1.53
119;861.9;431.654;1.54
120;879.295;447.279;1.55
121;889.061;457.289;1.56001
122;899.133;433.607;1.57
123;896.691;449.232;1.58
124;891.503;447.279;1.59
125;893.944;459.243;1.6
126;906.457;445.326;1.61
127;913.781;451.186;1.62
128;918.664;439.467;1.63
129;921.106;469.008;1.64
130;908.898;455.336;1.65
131;901.574;451.186;1.66
132;923.852;467.055;1.67
133;938.501;455.336;1.68
134;948.267;453.383;1.69
135;960.78;449.232;1.7
136;965.663;461.196;1.71
137;970.546;461.196;1.72
138;980.617;470.962;1.73
139;1012.66;447.279;1.73
140;1032.5;461.196;1.74
141;1049.59;467.055;1.75
142;1059.66;449.232;1.76
143;1059.66;461.196;1.77
144;1054.47;463.149;1.78
145;1066.98;469.008;1.79
146;1084.07;461.196;1.79
147;1096.59;457.289;1.8
148;1103.91;459.243;1.81001
149;1108.79;477.065;1.82
150;1096.59;463.149;1.83
151;1094.15;465.102;1.83
152;1123.75;475.112;1.84
153;1140.84;467.055;1.85
154;1158.23;465.102;1.86
155;1173.19;465.102;1.86
156;1178.07;472.915;1.87
157;1178.07;480.972;1.88
158;1192.72;479.019;1.88
159;1227.51;463.149;1.89
160;1254.67;482.925;1.9
161;1269.32;472.915;1.9
162;1279.39;467.055;1.91
163;1274.21;479.019;1.92
164;1262;484.878;1.92
165;1271.76;480.972;1.93
166;1294.04;475.112;1.94
167;1309;480.972;1.94
168;1316.32;465.102;1.95
169;1313.88;504.654;1.95
170;1301.37;482.925;1.96
171;1296.48;475.112;1.97
172;1323.65;502.701;1.97
173;1343.48;482.925;1.98
174;1358.13;482.925;1.98
175;1370.64;475.112;1.99
176;1373.08;496.597;2
177;1363.32;488.784;2
178;1375.53;502.701;2.01
179;1412.45;467.055;2.01
180;1427.41;490.738;2.02
181;1442.36;498.795;2.03
182;1449.69;475.112;2.03
183;1434.73;492.691;2.04
184;1422.52;492.691;2.04
185;1429.85;500.748;2.05
186;1447.24;482.925;2.05
187;1457.01;488.784;2.06001
188;1461.89;479.019;2.06001
189;1452.13;516.373;2.07
190;1429.85;496.597;2.07
191;1422.52;490.738;2.08
192;1452.13;516.373;2.08
193;1469.52;496.597;2.09
194;1479.29;488.784;2.09
195;1486.61;492.691;2.09
196;1481.73;506.607;2.1
197;1469.52;504.654;2.1
198;1479.29;514.42;2.11
199;1516.22;482.925;2.11
200;1533.61;506.607;2.12
201;1548.26;506.607;2.12
202;1551.01;490.738;2.13
203;1533.61;502.701;2.13
204;1516.22;512.467;2.14
205;1526.29;512.467;2.14
206;1543.38;498.795;2.14
207;1553.45;498.795;2.15
208;1553.45;498.795;2.15
209;1545.82;524.43;2.16
210;1518.66;498.795;2.16
211;1511.33;504.654;2.17
212;1538.5;522.477;2.17
213;1560.77;506.607;2.17
214;1568.1;500.748;2.18
215;1575.42;504.654;2.18
216;1570.54;516.373;2.19
217;1555.89;522.477;2.19
218;1568.1;520.524;2.19
219;1605.33;494.644;2.2
220;1627.3;522.477;2.2
221;1639.82;512.467;2.21
222;1642.26;504.654;2.21
223;1622.42;514.42;2.21
224;1602.58;522.477;2.22
225;1610.21;520.524;2.22
226;1627.3;508.56;2.23
227;1637.38;500.748;2.23
228;1644.7;514.42;2.24
229;1629.75;538.102;2.24
230;1602.58;508.56;2.24
231;1592.82;508.56;2.25
232;1624.86;534.196;2.25
233;1644.7;516.373;2.25
234;1656.91;506.607;2.26
235;1664.54;510.514;2.26
236;1659.65;526.383;2.26
237;1642.26;528.336;2.27
238;1656.91;532.243;2.27
239;1694.14;504.654;2.28
240;1713.98;524.43;2.28
241;1728.63;526.383;2.28
242;1728.63;508.56;2.29
243;1708.79;520.524;2.29
244;1684.07;528.336;2.29
245;1691.7;526.383;2.3
246;1716.42;518.326;2.3
247;1723.74;510.514;2.3
248;1726.18;520.524;2.31001
249;1708.79;540.056;2.31001
250;1681.63;514.42;2.31001
251;1671.86;524.43;2.31001
252;1703.91;538.102;2.32
253;1723.74;522.477;2.32
254;1738.39;514.42;2.32
255;1741.14;524.43;2.33
256;1733.51;532.243;2.33
257;1711.23;542.009;2.33
258;1728.63;534.196;2.34
259;1765.55;504.654;2.34
260;1790.27;526.383;2.34
261;1802.79;538.102;2.34
262;1800.34;512.467;2.35
263;1775.62;526.383;2.35
264;1753.35;530.29;2.35
265;1763.11;540.056;2.35
266;1785.39;518.326;2.36
267;1790.27;528.336;2.36
268;1795.16;516.373;2.36
269;1778.07;557.878;2.36
270;1746.02;532.243;2.37
271;1735.95;524.43;2.37
272;1768.3;555.925;2.37
273;1787.83;530.29;2.38
274;1797.9;528.336;2.38
275;1805.23;524.43;2.38
276;1790.27;546.159;2.38
277;1768.3;540.056;2.38
278;1785.39;553.972;2.39
279;1827.51;510.514;2.39
280;1847.04;538.102;2.39
281;1857.11;544.206;2.39
282;1854.67;518.326;2.4
283;1829.95;536.149;2.4
284;1805.23;544.206;2.4
285;1812.55;546.159;2.4
286;1832.39;524.43;2.41
287;1842.15;530.29;2.41
288;1839.71;524.43;2.41
289;1825.06;559.832;2.41
290;1785.39;534.196;2.42
291;1778.07;534.196;2.42
292;1807.67;557.878;2.42
293;1829.95;538.102;2.42
294;1839.71;530.29;2.42
295;1844.6;534.196;2.43
296;1832.39;552.019;2.43
297;1810.11;550.066;2.43
298;1825.06;553.972;2.43
299;1864.43;522.477;2.44
300;1884.27;548.112;2.44
301;1894.04;544.206;2.44
302;1886.71;528.336;2.44
303;1864.43;542.009;2.44
304;1834.83;553.972;2.45
305;1844.6;548.112;2.45
306;1864.43;534.196;2.45
307;1871.76;530.29;2.45
308;1869.32;534.196;2.45
309;1847.04;559.832;2.46
310;1814.99;534.196;2.46
311;1802.79;542.009;2.46
312;1834.83;557.878;2.46
313;1854.67;544.206;2.46
314;1866.87;532.243;2.47
315;1869.32;540.056;2.47
316;1854.67;550.066;2.47
317;1829.95;559.832;2.47
318;1844.6;555.925;2.47
319;1886.71;530.29;2.48
320;1903.8;555.925;2.48
321;1916.31;557.878;2.48
322;1908.99;528.336;2.48
323;1876.64;546.159;2.48
324;1854.67;546.159;2.49
325;1861.99;561.785;2.49
326;1884.27;530.29;2.49
327;1886.71;544.206;2.49
328;1889.15;530.29;2.49
329;1866.87;575.701;2.49
330;1827.51;550.066;2.5
331;1819.88;538.102;2.5
332;1854.67;571.795;2.5
333;1871.76;548.112;2.5
334;1884.27;544.206;2.51
335;1884.27;540.056;2.51
336;1866.87;565.935;2.51
337;1844.6;552.019;2.51
338;1854.67;569.842;2.51
339;1896.48;524.43;2.51
340;1918.76;550.066;2.52
341;1923.64;561.785;2.52
342;1918.76;530.29;2.52
343;1894.04;552.019;2.52
344;1864.43;555.925;2.52
345;1874.2;561.785;2.52
346;1891.59;542.009;2.53
347;1896.48;548.112;2.53
348;1894.04;540.056;2.53
349;1871.76;577.654;2.53
350;1832.39;552.019;2.53
351;1822.32;542.009;2.54
352;1859.55;575.701;2.54
353;1876.64;552.019;2.54
354;1886.71;542.009;2.54
355;1884.27;548.112;2.54
356;1871.76;563.738;2.54
357;1849.48;561.785;2.55
358;1864.43;567.888;2.55
359;1901.36;530.29;2.55
360;1923.64;561.785;2.55
361;1933.71;559.832;2.55
362;1926.08;540.056;2.55
363;1894.04;555.925;2.56001
364;1869.32;565.935;2.56001
365;1879.39;561.785;2.56001
366;1898.92;548.112;2.56001
367;1906.55;544.206;2.56001
368;1903.8;548.112;2.56001
369;1876.64;575.701;2.56001
370;1839.71;548.112;2.57
371;1829.95;553.972;2.57
372;1864.43;571.795;2.57
373;1884.27;555.925;2.57
374;1891.59;542.009;2.57
375;1891.59;552.019;2.57
376;1871.76;561.785;2.58
377;1852.23;573.748;2.58
378;1869.32;567.888;2.58
379;1911.43;540.056;2.58
380;1928.52;567.888;2.58
381;1938.59;559.832;2.58
382;1928.52;538.102;2.59
383;1901.36;559.832;2.59
384;1871.76;561.785;2.59
385;1881.83;565.935;2.59
386;1898.92;548.112;2.59
387;1903.8;550.066;2.59
388;1901.36;546.159;2.59
389;1876.64;581.561;2.6
390;1839.71;553.972;2.6
391;1834.83;555.925;2.6
392;1869.32;579.608;2.6
393;1889.15;557.878;2.6
394;1898.92;546.159;2.6
395;1901.36;555.925;2.6
396;1881.83;571.795;2.61
397;1857.11;569.842;2.61
398;1874.2;571.795;2.61
399;1911.43;540.056;2.61
400;1930.96;569.842;2.61
401;1941.03;565.935;2.61
402;1928.52;548.112;2.62
403;1898.92;563.738;2.62
404;1871.76;571.795;2.62
405;1881.83;567.888;2.62
406;1903.8;553.972;2.62
407;1911.43;548.112;2.62
408;1908.99;555.925;2.62
409;1884.27;579.608;2.63
410;1859.55;550.066;2.63
411;1837.27;559.832;2.63
412;1859.55;575.701;2.63
413;1884.27;561.785;2.63
414;1898.92;559.832;2.63
415;1906.55;550.066;2.63
416;1894.04;579.608;2.64
417;1871.76;563.738;2.64
418;1864.43;583.514;2.64
419;1903.8;540.056;2.64
420;1928.52;559.832;2.64
421;1941.03;575.701;2.64
422;1943.48;546.159;2.64
423;1918.76;565.935;2.65
424;1884.27;561.785;2.65
425;1879.39;575.701;2.65
426;1901.36;546.159;2.65
427;1913.87;561.785;2.65
428;1918.76;546.159;2.65
429;1903.8;591.571;2.65
430;1866.87;563.738;2.65
431;1842.15;553.972;2.66
432;1871.76;587.42;2.66
433;1898.92;565.935;2.66
434;1911.43;561.785;2.66
435;1916.31;555.925;2.66
436;1906.55;579.608;2.66
437;1879.39;565.935;2.66
438;1874.2;585.467;2.66
439;1913.87;538.102;2.67
440;1936.15;567.888;2.67
441;1950.8;573.748;2.67
442;1948.36;546.159;2.67
443;1923.64;565.935;2.67
444;1891.59;569.842;2.67
445;1891.59;577.654;2.67
446;1911.43;553.972;2.67
447;1921.2;561.785;2.68
448;1923.64;552.019;2.68
449;1903.8;591.571;2.68
450;1871.76;561.785;2.68
451;1852.23;561.785;2.68
452;1876.64;591.571;2.68
453;1903.8;563.738;2.68
454;1916.31;555.925;2.68
455;1918.76;561.785;2.69
456;1911.43;577.654;2.69
457;1881.83;573.748;2.69
458;1879.39;581.561;2.69
459;1916.31;546.159;2.69
460;1943.48;573.748;2.69
461;1953.24;575.701;2.69
462;1953.24;552.019;2.69
463;1926.08;567.888;2.69
464;1896.48;577.654;2.7
465;1891.59;573.748;2.7
466;1913.87;557.878;2.7
467;1923.64;555.925;2.7
468;1923.64;559.832;2.7
469;1911.43;587.42;2.7
470;1876.64;559.832;2.7
471;1852.23;565.935;2.7
472;1879.39;585.467;2.7
473;1906.55;567.888;2.71
474;1916.31;555.925;2.71
475;1923.64;559.832;2.71
476;1911.43;587.42;2.71
477;1884.27;569.842;2.71
478;1881.83;593.524;2.71
479;1918.76;550.066;2.71
480;1948.36;565.935;2.71
481;1955.68;583.514;2.71
482;1955.68;550.066;2.71
483;1928.52;569.842;2.72
484;1898.92;567.888;2.72
485;1894.04;579.608;2.72
486;1918.76;553.972;2.72
487;1928.52;569.842;2.72
488;1928.52;552.019;2.72
489;1913.87;597.43;2.72
490;1876.64;573.748;2.72
491;1854.67;563.738;2.72
492;1886.71;593.524;2.72
493;1913.87;573.748;2.73
494;1923.64;565.935;2.73
495;1930.96;559.832;2.73
496;1918.76;585.467;2.73
497;1894.04;573.748;2.73
498;1886.71;591.571;2.73
499;1928.52;548.112;2.73
500;1950.8;571.795;2.73
501;1963.31;581.561;2.73
502;1963.31;552.019;2.73
503;1936.15;569.842;2.74
504;1903.8;573.748;2.74
505;1901.36;579.608;2.74
506;1926.08;557.878;2.74
507;1936.15;565.935;2.74
508;1938.59;555.925;2.74
509;1923.64;597.43;2.74
510;1886.71;571.795;2.74
511;1864.43;565.935;2.74
512;1891.59;593.524;2.74
513;1918.76;571.795;2.74
514;1930.96;561.785;2.75
515;1936.15;565.935;2.75
516;1923.64;583.514;2.75
517;1896.48;579.608;2.75
518;1894.04;589.618;2.75
519;1936.15;550.066;2.75
520;1958.12;577.654;2.75
521;1970.64;579.608;2.75
522;1968.2;555.925;2.75
523;1943.48;573.748;2.75
524;1908.99;581.561;2.76
525;1908.99;581.561;2.76
526;1930.96;561.785;2.76
527;1938.59;561.785;2.76
528;1941.03;559.832;2.76
529;1928.52;595.477;2.76
530;1889.15;563.738;2.76
531;1866.87;569.842;2.76
532;1898.92;591.571;2.76
533;1926.08;571.795;2.76
534;1938.59;557.878;2.76
535;1941.03;569.842;2.77
536;1926.08;587.42;2.77
537;1898.92;575.701;2.77
538;1896.48;591.571;2.77
539;1938.59;546.159;2.77
540;1963.31;575.701;2.77
541;1975.52;581.561;2.77
542;1970.64;555.925;2.77
543;1943.48;573.748;2.77
544;1913.87;581.561;2.77
545;1916.31;581.561;2.77
546;1936.15;563.738;2.77
547;1945.92;561.785;2.78
548;1950.8;561.785;2.78
549;1928.52;601.337;2.78
550;1896.48;571.795;2.78
551;1874.2;569.842;2.78
552;1906.55;595.477;2.78
553;1933.71;573.748;2.78
554;1943.48;563.738;2.78
555;1945.92;567.888;2.78
556;1933.71;583.514;2.78
557;1908.99;581.561;2.78
558;1906.55;589.618;2.78
559;1945.92;552.019;2.79
560;1970.64;581.561;2.79
561;1982.84;577.654;2.79
562;1977.96;559.832;2.79
563;1950.8;573.748;2.79
564;1918.76;587.42;2.79
565;1918.76;581.561;2.79
566;1941.03;565.935;2.79
567;1950.8;571.795;2.79
568;1953.24;552.019;2.79
569;1933.71;597.43;2.79
570;1898.92;577.654;2.79
571;1876.64;559.832;2.8
572;1911.43;595.477;2.8
573;1936.15;575.701;2.8
574;1948.36;577.654;2.8
575;1953.24;563.738;2.8
576;1936.15;593.524;2.8
577;1911.43;575.701;2.8
578;1908.99;597.43;2.8
579;1953.24;553.972;2.8
580;1975.52;573.748;2.8
581;1985.29;587.42;2.8
582;1980.4;557.878;2.8
583;1955.68;575.701;2.8
584;1923.64;573.748;2.81001
585;1923.64;589.618;2.81001
586;1945.92;557.878;2.81001
587;1958.12;569.842;2.81001
588;1958.12;557.878;2.81001
589;1943.48;605.243;2.81001
590;1906.55;577.654;2.81001
591;1884.27;563.738;2.81001
592;1916.31;597.43;2.81001
593;1943.48;575.701;2.81001
594;1955.68;571.795;2.81001
595;1958.12;565.935;2.81001
596;1943.48;587.42;2.81001
597;1918.76;577.654;2.82
598;1918.76;597.43;2.82
599;1958.12;548.112;2.82
600;1982.84;575.701;2.82
601;1995.36;583.514;2.82
602;1990.47;555.925;2.82
603;1963.31;575.701;2.82
604;1928.52;579.608;2.82
605;1930.96;585.467;2.82
606;1955.68;563.738;2.82
607;1965.75;567.888;2.82
608;1965.75;559.832;2.82
609;1948.36;601.337;2.82
610;1913.87;573.748;2.83
611;1889.15;569.842;2.83
612;1921.2;599.384;2.83
613;1948.36;575.701;2.83
614;1960.87;565.935;2.83
615;1963.31;569.842;2.83
616;1943.48;585.467;2.83
617;1918.76;585.467;2.83
618;1916.31;589.618;2.83
619;1960.87;553.972;2.83
620;1982.84;581.561;2.83
621;1995.36;583.514;2.83
622;1992.92;559.832;2.83
623;1963.31;575.701;2.83
624;1933.71;585.467;2.83
625;1936.15;581.561;2.84
626;1960.87;563.738;2.84
627;1968.2;565.935;2.84
628;1970.64;552.019;2.84
629;1950.8;597.43;2.84
630;1916.31;581.561;2.84
631;1894.04;559.832;2.84
632;1926.08;593.524;2.84
633;1953.24;575.701;2.84
634;1963.31;577.654;2.84
635;1965.75;561.785;2.84
636;1945.92;595.477;2.84
637;1918.76;575.701;2.84
638;1923.64;601.337;2.84
639;1970.64;553.972;2.84
640;1992.92;571.795;2.85
641;2002.68;589.618;2.85
642;2002.68;559.832;2.85
643;1973.08;575.701;2.85
644;1943.48;573.748;2.85
645;1945.92;589.618;2.85
646;1973.08;557.878;2.85
647;1980.4;573.748;2.85
648;1980.4;555.925;2.85
649;1960.87;605.243;2.85
650;1923.64;581.561;2.85
651;1901.36;565.935;2.85
652;1933.71;599.384;2.85
653;1958.12;577.654;2.85
654;1968.2;573.748;2.85
655;1970.64;563.738;2.86
656;1953.24;591.571;2.86
657;1928.52;577.654;2.86
658;1933.71;597.43;2.86
659;1975.52;550.066;2.86
660;2000.24;575.701;2.86
661;2012.45;585.467;2.86
662;2007.56;555.925;2.86
663;1977.96;575.701;2.86
664;1950.8;579.608;2.86
665;1955.68;587.42;2.86
666;1975.52;563.738;2.86
667;1982.84;567.888;2.86
668;1985.29;561.785;2.86
669;1965.75;603.29;2.86
670;1928.52;575.701;2.87
671;1908.99;567.888;2.87
672;1936.15;599.384;2.87
673;1960.87;575.701;2.87
674;1970.64;567.888;2.87
675;1973.08;565.935;2.87
676;1960.87;587.42;2.87
677;1930.96;583.514;2.87
678;1938.59;593.524;2.87
679;1980.4;552.019;2.87
680;2005.12;579.608;2.87
681;2020.08;583.514;2.87
682;2015.19;557.878;2.87
683;1985.29;573.748;2.87
684;1955.68;583.514;2.87
685;1963.31;583.514;2.88
686;1985.29;565.935;2.88
687;1992.92;565.935;2.88
688;1992.92;565.935;2.88
689;1975.52;605.243;2.88
690;1936.15;577.654;2.88
691;1916.31;567.888;2.88
692;1950.8;597.43;2.88
693;1973.08;575.701;2.88
694;1982.84;571.795;2.88
695;1982.84;565.935;2.88
696;1968.2;589.618;2.88
697;1943.48;581.561;2.88
698;1945.92;595.477;2.88
699;1990.47;550.066;2.88
700;2012.45;577.654;2.89
701;2024.96;587.42;2.89
702;2020.08;555.925;2.89
703;1992.92;577.654;2.89
704;1963.31;579.608;2.89
705;1970.64;585.467;2.89
706;1990.47;563.738;2.89
707;2000.24;565.935;2.89
708;2000.24;561.785;2.89
709;1977.96;601.337;2.89
710;1941.03;573.748;2.89
711;1921.2;569.842;2.89
712;1955.68;599.384;2.89
713;1982.84;575.701;2.89
714;1992.92;563.738;2.89
715;1992.92;571.795;2.89
716;1980.4;587.42;2.9
717;1948.36;583.514;2.9
718;1955.68;589.618;2.9
719;2000.24;555.925;2.9
720;2024.96;571.795;2.9
721;2037.17;593.524;2.9
722;2029.84;561.785;2.9
723;2002.68;573.748;2.9
724;1970.64;575.701;2.9
725;1980.4;591.571;2.9
726;2002.68;553.972;2.9
727;2010.01;573.748;2.9
728;2007.56;553.972;2.9
729;1985.29;595.477;2.9
730;1948.36;579.608;2.9
731;1930.96;561.785;2.91
732;1963.31;593.524;2.91
733;1985.29;575.701;2.91
734;1997.8;577.654;2.91
735;2000.24;563.738;2.91
736;1980.4;595.477;2.91
737;1955.68;577.654;2.91
738;1963.31;597.43;2.91
739;2007.56;553.972;2.91
740;2032.28;571.795;2.91
741;2039.61;589.618;2.91
742;2034.73;561.785;2.91
743;2005.12;573.748;2.91
744;1977.96;575.701;2.91
745;1982.84;589.618;2.91
746;2005.12;557.878;2.91
747;2015.19;573.748;2.92
748;2012.45;555.925;2.92
749;1992.92;603.29;2.92
750;1953.24;577.654;2.92
751;1933.71;565.935;2.92
752;1970.64;597.43;2.92
753;1992.92;575.701;2.92
754;2002.68;573.748;2.92
755;2005.12;565.935;2.92
756;1985.29;591.571;2.92
757;1958.12;577.654;2.92
758;1965.75;597.43;2.92
759;2012.45;550.066;2.92
760;2034.73;573.748;2.92
761;2047.24;585.467;2.92
762;2042.36;555.925;2.93
763;2010.01;573.748;2.93
764;1980.4;577.654;2.93
765;1985.29;587.42;2.93
766;2010.01;559.832;2.93
767;2017.64;569.842;2.93
768;2017.64;557.878;2.93
769;1992.92;601.337;2.93
770;1955.68;573.748;2.93
771;1936.15;569.842;2.93
772;1973.08;599.384;2.93
773;1992.92;575.701;2.93
774;2005.12;565.935;2.93
775;2007.56;569.842;2.93
776;1988.03;587.42;2.93
777;1960.87;583.514;2.93
778;1968.2;591.571;2.94
779;2015.19;552.019;2.94
780;2039.61;579.608;2.94
781;2049.68;593.524;2.94
782;2042.36;561.785;2.94
783;2020.08;573.748;2.94
784;1990.47;569.842;2.94
785;1988.03;589.618;2.94
786;2010.01;555.925;2.94
787;2022.52;573.748;2.94
788;2022.52;550.066;2.94
789;2005.12;595.477;2.94
790;1965.75;579.608;2.94
791;1938.59;557.878;2.94
792;1965.75;591.571;2.94
793;1992.92;577.654;2.95
794;2002.68;577.654;2.95
795;2010.01;563.738;2.95
796;1995.36;597.43;2.95
797;1968.2;577.654;2.95
798;1968.2;599.384;2.95
799;2010.01;553.972;2.95
800;2037.17;569.842;2.95
801;2052.12;587.42;2.95
802;2047.24;559.832;2.95
803;2022.52;573.748;2.95
804;1992.92;571.795;2.95
805;1988.03;585.467;2.95
806;2015.19;557.878;2.95
807;2024.96;571.795;2.95
808;2027.4;553.972;2.95
809;2002.68;601.337;2.96
810;1968.2;577.654;2.96
811;1941.03;563.738;2.96
812;1970.64;595.477;2.96
813;1992.92;573.748;2.96
814;2007.56;571.795;2.96
815;2012.45;563.738;2.96
816;1995.36;591.571;2.96
817;1968.2;579.608;2.96
818;1970.64;593.524;2.96
819;2012.45;548.112;2.96
820;2039.61;575.701;2.96
821;2054.56;585.467;2.96
822;2049.68;555.925;2.96
823;2022.52;575.701;2.96
824;1992.92;575.701;2.96
825;1990.47;583.514;2.97
826;2015.19;559.832;2.97
827;2022.52;571.795;2.97
828;2022.52;557.878;2.97
829;2005.12;601.337;2.97
830;1968.2;575.701;2.97
831;1941.03;565.935;2.97
832;1970.64;597.43;2.97
833;1997.8;571.795;2.97
834;2010.01;563.738;2.97
835;2010.01;567.888;2.97
836;1995.36;585.467;2.97
837;1965.75;581.561;2.97
838;1963.31;591.571;2.97
839;2012.45;548.112;2.97
840;2037.17;577.654;2.97
841;2052.12;581.561;2.98
842;2049.68;559.832;2.98
843;2022.52;575.701;2.98
844;1990.47;575.701;2.98
845;1990.47;585.467;2.98
846;2015.19;557.878;2.98
847;2024.96;569.842;2.98
848;2024.96;555.925;2.98
849;2005.12;601.337;2.98
850;1968.2;577.654;2.98
851;1943.48;563.738;2.98
852;1973.08;595.477;2.98
853;2002.68;573.748;2.98
854;2010.01;573.748;2.98
855;2012.45;565.935;2.98
856;1997.8;589.618;2.98
857;1970.64;575.701;2.98
858;1970.64;595.477;2.99
859;2017.64;546.159;2.99
860;2044.8;573.748;2.99
861;2059.45;583.514;2.99
862;2057;553.972;2.99
863;2029.84;575.701;2.99
864;1995.36;577.654;2.99
865;2000.24;583.514;2.99
866;2020.08;563.738;2.99
867;2024.96;567.888;2.99
868;2027.4;561.785;2.99
869;2005.12;603.29;2.99
870;1968.2;571.795;2.99
871;1938.59;565.935;2.99
872;1973.08;601.337;2.99
873;1997.8;577.654;2.99
874;2010.01;579.608;3
875;2012.45;559.832;3
876;1995.36;595.477;3
877;1970.64;577.654;3
878;1973.08;601.337;3
879;2017.64;565.935;3
880;2047.24;571.795;3
881;2061.89;593.524;3
882;2059.45;561.785;3
883;2027.4;573.748;3
884;1997.8;569.842;3
885;1997.8;587.42;3
886;2017.64;555.925;3
887;2027.4;575.701;3
888;2027.4;552.019;3
889;2005.12;597.43;3
890;1965.75;579.608;3.01
891;1943.48;559.832;3.01
892;1973.08;591.571;3.01
893;1997.8;575.701;3.01
894;2010.01;577.654;3.01
895;2012.45;563.738;3.01
896;2000.24;593.524;3.01
897;1973.08;577.654;3.01
898;1975.52;597.43;3.01
899;2020.08;553.972;3.01
900;2049.68;569.842;3.01
901;2061.89;587.42;3.01
902;2059.45;557.878;3.01
903;2029.84;571.795;3.01
904;1997.8;571.795;3.01
905;1997.8;587.42;3.01
906;2017.64;557.878;3.01
907;2029.84;571.795;3.02
908;2029.84;555.925;3.02
909;2002.68;603.29;3.02
910;1965.75;577.654;3.02
911;1943.48;561.785;3.02
912;1973.08;595.477;3.02
913;1997.8;571.795;3.02
914;2007.56;573.748;3.02
915;2012.45;565.935;3.02
916;1997.8;589.618;3.02
917;1970.64;577.654;3.02
918;1973.08;593.524;3.02
919;2024.96;550.066;3.02
920;2047.24;571.795;3.02
921;2061.89;585.467;3.02
922;2057;553.972;3.02
923;2029.84;575.701;3.03
924;1997.8;575.701;3.03
925;2000.24;583.514;3.03
926;2020.08;561.785;3.03
927;2029.84;569.842;3.03
928;2027.4;557.878;3.03
929;2005.12;603.29;3.03
930;1965.75;573.748;3.03
931;1943.48;563.738;3.03
932;1973.08;597.43;3.03
933;1997.8;573.748;3.03
934;2010.01;579.608;3.03
935;2012.45;561.785;3.03
936;1997.8;593.524;3.03
937;1968.2;577.654;3.03
938;1975.52;601.337;3.03
939;2020.08;563.738;3.03
940;2049.68;569.842;3.04
941;2061.89;595.477;3.04
942;2057;561.785;3.04
943;2029.84;573.748;3.04
944;1995.36;569.842;3.04
945;1997.8;587.42;3.04
946;2020.08;555.925;3.04
947;2027.4;571.795;3.04
948;2027.4;548.112;3.04
949;2002.68;593.524;3.04
950;1965.75;577.654;3.04
951;1943.48;557.878;3.04
952;1975.52;589.618;3.04
953;1997.8;575.701;3.04
954;2007.56;577.654;3.04
955;2010.01;561.785;3.04
956;1995.36;595.477;3.04
957;1968.2;573.748;3.05
958;1975.52;599.384;3.05
959;2022.52;557.878;3.05
960;2047.24;571.795;3.05
961;2059.45;587.42;3.05
962;2057;559.832;3.05
963;2027.4;573.748;3.05
964;1995.36;569.842;3.05
965;1997.8;587.42;3.05
966;2020.08;555.925;3.05
967;2024.96;573.748;3.05
968;2027.4;553.972;3.05
969;2015.19;601.337;3.05
970;1980.4;577.654;3.05
971;1943.48;561.785;3.05
972;1955.68;595.477;3.05
973;1988.03;571.795;3.05
974;2005.12;575.701;3.05
975;2012.45;561.785;3.06001
976;2002.68;591.571;3.06001
977;1980.4;577.654;3.06001
978;1965.75;597.43;3.06001
979;2005.12;548.112;3.06001
980;2037.17;575.701;3.06001
981;2054.56;585.467;3.06001
982;2061.89;555.925;3.06001
983;2042.36;573.748;3.06001
984;2007.56;577.654;3.06001
985;1992.92;581.561;3.06001
986;2015.19;559.832;3.06001
987;2024.96;569.842;3.06001
988;2027.4;555.925;3.06001
989;2015.19;603.29;3.06001
990;1980.4;575.701;3.06001
991;1943.48;567.888;3.06001
992;1955.68;597.43;3.06001
993;1988.03;573.748;3.07
994;2000.24;567.888;3.07
995;2007.56;561.785;3.07
996;1997.8;593.524;3.07
997;1973.08;575.701;3.07
998;1960.87;601.337;3.07
999;2000.24;552.019;3.07
1000;2037.17;571.795;3.07
1001;2054.56;589.618;3.07
1002;2059.45;553.972;3.07
1003;2039.61;573.748;3.07
1004;2005.12;569.842;3.07
1005;1990.47;583.514;3.07
1006;2012.45;557.878;3.07
1007;2024.96;571.795;3.07
1008;2022.52;555.925;3.07
1009;2010.01;603.29;3.07
1010;1975.52;577.654;3.08
1011;1938.59;561.785;3.08
1012;1953.24;595.477;3.08
1013;1982.84;573.748;3.08
1014;2000.24;569.842;3.08
1015;2007.56;561.785;3.08
1016;2000.24;589.618;3.08
1017;1975.52;577.654;3.08
1018;1958.12;591.571;3.08
1019;2000.24;550.066;3.08
1020;2032.28;573.748;3.08
1021;2049.68;585.467;3.08
1022;2054.56;553.972;3.08
1023;2032.28;573.748;3.08
1024;1997.8;577.654;3.08
1025;1985.29;585.467;3.08
1026;2007.56;561.785;3.08
1027;2017.64;571.795;3.08
1028;2022.52;546.159;3.09
1029;2007.56;587.42;3.09
1030;1975.52;577.654;3.09
1031;1936.15;555.925;3.09
1032;1953.24;587.42;3.09
1033;1985.29;577.654;3.09
1034;2000.24;577.654;3.09
1035;2005.12;559.832;3.09
1036;1997.8;593.524;3.09
1037;1970.64;573.748;3.09
1038;1960.87;601.337;3.09
1039;2000.24;561.785;3.09
1040;2034.73;567.888;3.09
1041;2052.12;591.571;3.09
1042;2054.56;559.832;3.09
1043;2032.28;573.748;3.09
1044;2000.24;567.888;3.09
1045;1985.29;587.42;3.09
1046;2010.01;553.972;3.09
1047;2020.08;571.795;3.1
1048;2022.52;553.972;3.1
1049;2007.56;593.524;3.1
1050;1970.64;579.608;3.1
1051;1936.15;559.832;3.1
1052;1953.24;589.618;3.1
1053;1985.29;573.748;3.1
1054;2000.24;577.654;3.1
1055;2005.12;559.832;3.1
1056;1995.36;591.571;3.1
1057;1968.2;575.701;3.1
1058;1958.12;599.384;3.1
1059;2000.24;553.972;3.1
1060;2032.28;569.842;3.1
1061;2052.12;587.42;3.1
1062;2052.12;557.878;3.1
1063;2029.84;571.795;3.1
1064;1997.8;571.795;3.1
1065;1985.29;585.467;3.11
1066;2007.56;555.925;3.11
1067;2015.19;571.795;3.11
1068;2020.08;552.019;3.11
1069;2005.12;601.337;3.11
1070;1968.2;575.701;3.11
1071;1936.15;561.785;3.11
1072;1953.24;593.524;3.11
1073;1982.84;573.748;3.11
1074;1995.36;573.748;3.11
1075;2000.24;563.738;3.11
1076;1992.92;591.571;3.11
1077;1965.75;575.701;3.11
1078;1955.68;595.477;3.11
1079;1995.36;548.112;3.11
1080;2029.84;571.795;3.11
1081;2047.24;583.514;3.11
1082;2052.12;552.019;3.12
1083;2029.84;573.748;3.12
1084;1992.92;575.701;3.12
1085;1982.84;583.514;3.12
1086;2005.12;557.878;3.12
1087;2015.19;569.842;3.12
1088;2017.64;552.019;3.12
1089;2002.68;581.561;3.12
1090;1965.75;581.561;3.12
1091;1933.71;553.972;3.12
1092;1950.8;585.467;3.12
1093;1985.29;577.654;3.12
1094;1995.36;577.654;3.12
1095;2000.24;557.878;3.12
1096;1990.47;591.571;3.12
1097;1968.2;573.748;3.12
1098;1955.68;599.384;3.12
1099;1997.8;563.738;3.13
1100;2029.84;567.888;3.13
1101;2049.68;589.618;3.13
1102;2049.68;561.785;3.13
1103;2029.84;569.842;3.13
1104;1992.92;569.842;3.13
1105;1982.84;585.467;3.13
1106;2005.12;555.925;3.13
1107;2015.19;571.795;3.13
1108;2015.19;550.066;3.13
1109;2005.12;589.618;3.13
1110;1965.75;577.654;3.13
1111;1930.96;557.878;3.13
1112;1948.36;587.42;3.13
1113;1982.84;573.748;3.13
1114;1992.92;575.701;3.13
1115;2000.24;559.832;3.13
1116;1988.03;591.571;3.14
1117;1963.31;571.795;3.14
1118;1953.24;595.477;3.14
1119;1995.36;555.925;3.14
1120;2027.4;567.888;3.14
1121;2044.8;589.618;3.14
1122;2047.24;557.878;3.14
1123;2022.52;571.795;3.14
1124;1988.03;569.842;3.14
1125;1980.4;585.467;3.14
1126;2002.68;553.972;3.14
1127;2012.45;571.795;3.14
1128;2017.64;552.019;3.14
1129;2002.68;597.43;3.14
1130;1968.2;577.654;3.14
1131;1936.15;559.832;3.14
1132;1950.8;593.524;3.14
1133;1982.84;573.748;3.15
1134;1997.8;573.748;3.15
1135;2002.68;563.738;3.15
1136;1990.47;591.571;3.15
1137;1965.75;575.701;3.15
1138;1953.24;597.43;3.15
1139;1995.36;550.066;3.15
1140;2024.96;571.795;3.15
1141;2039.61;585.467;3.15
1142;2042.36;553.972;3.15
1143;2020.08;573.748;3.15
1144;1985.29;573.748;3.15
1145;1977.96;585.467;3.15
1146;2000.24;559.832;3.15
1147;2012.45;567.888;3.15
1148;2012.45;553.972;3.15
1149;2002.68;593.524;3.15
1150;1965.75;577.654;3.15
1151;1930.96;557.878;3.16
1152;1950.8;589.618;3.16
1153;1982.84;571.795;3.16
1154;1992.92;575.701;3.16
1155;2000.24;559.832;3.16
1156;1988.03;593.524;3.16
1157;1963.31;571.795;3.16
1158;1953.24;595.477;3.16
1159;1992.92;555.925;3.16
1160;2024.96;569.842;3.16
1161;2039.61;587.42;3.16
1162;2042.36;555.925;3.16
1163;2020.08;571.795;3.16
1164;1985.29;569.842;3.16
1165;1975.52;585.467;3.16
1166;2002.68;553.972;3.16
1167;2012.45;569.842;3.16
1168;2015.19;553.972;3.17
1169;2000.24;601.337;3.17
1170;1965.75;577.654;3.17
1171;1933.71;561.785;3.17
1172;1953.24;593.524;3.17
1173;1982.84;573.748;3.17
1174;1995.36;571.795;3.17
1175;2000.24;563.738;3.17
1176;1988.03;591.571;3.17
1177;1960.87;575.701;3.17
1178;1950.8;593.524;3.17
1179;1992.92;548.112;3.17
1180;2024.96;563.738;3.17
1181;2037.17;591.571;3.17
1182;2039.61;563.738;3.17
1183;2015.19;569.842;3.17
1184;1982.84;569.842;3.18
1185;1975.52;585.467;3.18
1186;2000.24;561.785;3.18
1187;2007.56;569.842;3.18
1188;2012.45;550.066;3.18
1189;1995.36;581.561;3.18
1190;1965.75;579.608;3.18
1191;1928.52;553.972;3.18
1192;1948.36;585.467;3.18
1193;1980.4;577.654;3.18
1194;1990.47;575.701;3.18
1195;1997.8;559.832;3.18
1196;1985.29;591.571;3.18
1197;1955.68;575.701;3.18
1198;1950.8;599.384;3.18
1199;1995.36;565.935;3.18
1200;2024.96;567.888;3.18
1201;2037.17;593.524;3.19
1202;2039.61;559.832;3.19
1203;2015.19;571.795;3.19
1204;1982.84;567.888;3.19
1205;1977.96;585.467;3.19
1206;2002.68;553.972;3.19
1207;2012.45;569.842;3.19
1208;2015.19;544.206;3.19
1209;1997.8;589.618;3.19
1210;1960.87;575.701;3.19
1211;1930.96;553.972;3.19
1212;1950.8;589.618;3.19
1213;1980.4;571.795;3.19
1214;1992.92;575.701;3.19
1215;1995.36;559.832;3.19
1216;1982.84;593.524;3.19
1217;1958.12;573.748;3.19
1218;1945.92;597.43;3.2
1219;1992.92;555.925;3.2
1220;2022.52;569.842;3.2
1221;2034.73;587.42;3.2
1222;2037.17;557.878;3.2
1223;2012.45;571.795;3.2
1224;1982.84;567.888;3.2
1225;1975.52;583.514;3.2
1226;2000.24;555.925;3.2
1227;2010.01;569.842;3.2
1228;2010.01;552.019;3.2
1229;1995.36;599.384;3.2
1230;1958.12;577.654;3.2
1231;1928.52;561.785;3.2
1232;1948.36;591.571;3.2
1233;1977.96;573.748;3.2
1234;1988.03;571.795;3.21
1235;1992.92;559.832;3.21
1236;1982.84;593.524;3.21
1237;1955.68;573.748;3.21
1238;1948.36;597.43;3.21
1239;1990.47;548.112;3.21
1240;2020.08;571.795;3.21
1241;2034.73;593.524;3.21
1242;2037.17;565.935;3.21
1243;2015.19;567.888;3.21
1244;1982.84;567.888;3.21
1245;1975.52;585.467;3.21
1246;1997.8;567.888;3.21
1247;2007.56;567.888;3.21
1248;2010.01;546.159;3.21
1249;1995.36;579.608;3.21
1250;1960.87;577.654;3.21
1251;1926.08;552.019;3.22
1252;1948.36;581.561;3.22
1253;1977.96;575.701;3.22
1254;1990.47;575.701;3.22
1255;1995.36;557.878;3.22
1256;1982.84;589.618;3.22
1257;1958.12;577.654;3.22
1258;1948.36;597.43;3.22
1259;1992.92;565.935;3.22
1260;2020.08;563.738;3.22
1261;2037.17;591.571;3.22
1262;2039.61;559.832;3.22
1263;2015.19;571.795;3.22
1264;1980.4;567.888;3.22
1265;1975.52;585.467;3.22
1266;2000.24;555.925;3.22
1267;2007.56;569.842;3.22
1268;2007.56;546.159;3.23
1269;1992.92;587.42;3.23
1270;1955.68;577.654;3.23
1271;1923.64;555.925;3.23
1272;1943.48;585.467;3.23
1273;1973.08;573.748;3.23
1274;1982.84;575.701;3.23
1275;1988.03;557.878;3.23
1276;1977.96;593.524;3.23
1277;1950.8;571.795;3.23
1278;1945.92;599.384;3.23
1279;1990.47;559.832;3.23
1280;2020.08;569.842;3.23
1281;2034.73;589.618;3.23
1282;2039.61;557.878;3.23
1283;2012.45;571.795;3.23
1284;1982.84;567.888;3.23
1285;1975.52;585.467;3.24
1286;2000.24;553.972;3.24
1287;2007.56;571.795;3.24
1288;2010.01;548.112;3.24
1289;1995.36;597.43;3.24
1290;1955.68;577.654;3.24
1291;1926.08;559.832;3.24
1292;1950.8;591.571;3.24
1293;1975.52;573.748;3.24
1294;1985.29;573.748;3.24
1295;1992.92;559.832;3.24
1296;1980.4;591.571;3.24
1297;1950.8;571.795;3.24
1298;1945.92;595.477;3.24
1299;1990.47;550.066;3.24
1300;2017.64;571.795;3.24
1301;2032.28;583.514;3.25
1302;2034.73;555.925;3.25
1303;2012.45;571.795;3.25
1304;1980.4;565.935;3.25
1305;1977.96;585.467;3.25
1306;1995.36;553.972;3.25
1307;2005.12;569.842;3.25
1308;2005.12;546.159;3.25
1309;1990.47;587.42;3.25
1310;1950.8;577.654;3.25
1311;1921.2;557.878;3.25
1312;1945.92;587.42;3.25
1313;1975.52;573.748;3.25
1314;1985.29;573.748;3.25
1315;1988.03;559.832;3.25
1316;1975.52;591.571;3.25
1317;1950.8;573.748;3.25
1318;1945.92;599.384;3.26
1319;1990.47;555.925;3.26
1320;2020.08;567.888;3.26
1321;2034.73;587.42;3.26
1322;2032.28;555.925;3.26
1323;2010.01;569.842;3.26
1324;1980.4;567.888;3.26
1325;1973.08;581.561;3.26
1326;1995.36;553.972;3.26
1327;2005.12;569.842;3.26
1328;2005.12;550.066;3.26
1329;1988.03;595.477;3.26
1330;1950.8;573.748;3.26
1331;1921.2;559.832;3.26
1332;1945.92;593.524;3.26
1333;1973.08;575.701;3.26
1334;1982.84;573.748;3.26
1335;1990.47;557.878;3.27
1336;1975.52;575.701;3.27
1337;1945.92;575.701;3.27
1338;1945.92;599.384;3.27
1339;1988.03;569.842;3.27
1340;2007.56;563.738;3.27
1341;2022.52;591.571;3.27
1342;2034.73;563.738;3.27
1343;2020.08;565.935;3.27
1344;1985.29;567.888;3.27
1345;1968.2;585.467;3.27
1346;1985.29;565.935;3.27
1347;2002.68;567.888;3.27
1348;2002.68;546.159;3.27
1349;1995.36;583.514;3.27
1350;1963.31;579.608;3.27
1351;1928.52;552.019;3.27
1352;1933.71;581.561;3.28
1353;1970.64;573.748;3.28
1354;1982.84;575.701;3.28
1355;1990.47;555.925;3.28
1356;1985.29;585.467;3.28
1357;1958.12;575.701;3.28
1358;1941.03;599.384;3.28
1359;1968.2;563.738;3.28
1360;2005.12;565.935;3.28
1361;2022.52;589.618;3.28
1362;2027.4;561.785;3.28
1363;2010.01;569.842;3.28
1364;1980.4;567.888;3.28
1365;1960.87;585.467;3.28
1366;1982.84;555.925;3.28
1367;1995.36;569.842;3.28
1368;2000.24;548.112;3.29
1369;1992.92;585.467;3.29
1370;1960.87;577.654;3.29
1371;1923.64;553.972;3.29
1372;1930.96;587.42;3.29
1373;1965.75;575.701;3.29
1374;1982.84;575.701;3.29
1375;1990.47;557.878;3.29
1376;1985.29;591.571;3.29
1377;1960.87;571.795;3.29
1378;1941.03;599.384;3.29
1379;1970.64;555.925;3.29
1380;2005.12;567.888;3.29
1381;2024.96;587.42;3.29
1382;2029.84;555.925;3.29
1383;2012.45;571.795;3.29
1384;1980.4;565.935;3.29
1385;1963.31;585.467;3.29
1386;1982.84;552.019;3.3
1387;1992.92;569.842;3.3
1388;1997.8;546.159;3.3
1389;1990.47;593.524;3.3
1390;1963.31;577.654;3.3
1391;1923.64;559.832;3.3
1392;1930.96;589.618;3.3
1393;1968.2;573.748;3.3
1394;1980.4;571.795;3.3
1395;1988.03;555.925;3.3
1396;1982.84;571.795;3.3
1397;1960.87;573.748;3.3
1398;1941.03;597.43;3.3
1399;1965.75;567.888;3.3
1400;2007.56;561.785;3.3
1401;2022.52;591.571;3.3
1402;2029.84;565.935;3.3
1403;2012.45;567.888;3.31001
1404;1980.4;567.888;3.31001
1405;1960.87;585.467;3.31001
1406;1982.84;569.842;3.31001
1407;1995.36;565.935;3.31001
1408;2002.68;546.159;3.31001
1409;1992.92;577.654;3.31001
1410;1963.31;577.654;3.31001
1411;1926.08;552.019;3.31001
1412;1930.96;579.608;3.31001
1413;1963.31;577.654;3.31001
1414;1975.52;575.701;3.31001
1415;1985.29;555.925;3.31001
1416;1980.4;585.467;3.31001
1417;1955.68;573.748;3.31001
1418;1936.15;599.384;3.31001
1419;1968.2;563.738;3.31001
1420;2002.68;563.738;3.32
1421;2020.08;589.618;3.32
1422;2027.4;561.785;3.32
1423;2007.56;567.888;3.32
1424;1977.96;565.935;3.32
1425;1960.87;585.467;3.32
1426;1980.4;557.878;3.32
1427;1995.36;567.888;3.32
1428;2000.24;546.159;3.32
1429;1990.47;585.467;3.32
1430;1958.12;575.701;3.32
1431;1923.64;555.925;3.32
1432;1928.52;583.514;3.32
1433;1963.31;573.748;3.32
1434;1980.4;573.748;3.32
1435;1985.29;557.878;3.32
1436;1982.84;591.571;3.32
1437;1953.24;573.748;3.33
1438;1933.71;595.477;3.33
1439;1965.75;561.785;3.33
1440;2000.24;565.935;3.33
1441;2017.64;589.618;3.33
1442;2027.4;559.832;3.33
1443;2007.56;569.842;3.33
1444;1975.52;565.935;3.33
1445;1955.68;585.467;3.33
1446;1980.4;552.019;3.33
1447;1992.92;571.795;3.33
1448;1995.36;546.159;3.33
1449;1990.47;589.618;3.33
1450;1958.12;575.701;3.33
1451;1918.76;555.925;3.33
1452;1926.08;587.42;3.33
1453;1963.31;571.795;3.33
1454;1977.96;571.795;3.33
1455;1982.84;557.878;3.34
1456;1977.96;585.467;3.34
1457;1955.68;573.748;3.34
1458;1933.71;597.43;3.34
1459;1965.75;563.738;3.34
1460;2000.24;563.738;3.34
1461;2020.08;593.524;3.34
1462;2024.96;559.832;3.34
1463;2005.12;567.888;3.34
1464;1975.52;567.888;3.34
1465;1958.12;583.514;3.34
1466;1977.96;553.972;3.34
1467;1990.47;567.888;3.34
1468;1995.36;544.206;3.34
1469;1988.03;585.467;3.34
1470;1955.68;577.654;3.34
1471;1916.31;553.972;3.34
1472;1928.52;587.42;3.34
1473;1960.87;571.795;3.35
1474;1973.08;573.748;3.35
1475;1982.84;555.925;3.35
1476;1975.52;589.618;3.35
1477;1948.36;573.748;3.35
1478;1933.71;599.384;3.35
1479;1965.75;555.925;3.35
1480;2000.24;567.888;3.35
1481;2015.19;587.42;3.35
1482;2020.08;555.925;3.35
1483;2005.12;569.842;3.35
1484;1973.08;565.935;3.35
1485;1955.68;583.514;3.35
1486;1977.96;575.701;3.35
1487;1992.92;565.935;3.35
1488;1995.36;550.066;3.35
1489;1988.03;573.748;3.35
1490;1955.68;585.467;3.35
1491;1918.76;555.925;3.36
1492;1926.08;577.654;3.36
1493;1963.31;577.654;3.36
1494;1975.52;571.795;3.36
1495;1982.84;553.972;3.36
1496;1977.96;573.748;3.36
1497;1950.8;573.748;3.36
1498;1933.71;597.43;3.36
1499;1965.75;571.795;3.36
1500;2000.24;561.785;3.36
1501;2015.19;589.618;3.36
1502;2017.64;565.935;3.36
1503;2000.24;565.935;3.36
1504;1970.64;565.935;3.36
1505;1953.24;583.514;3.36
1506;1975.52;565.935;3.36
1507;1990.47;565.935;3.36
1508;1995.36;546.159;3.36
1509;1982.84;577.654;3.37
1510;1950.8;579.608;3.37
1511;1918.76;550.066;3.37
1512;1926.08;579.608;3.37
1513;1960.87;575.701;3.37
1514;1975.52;573.748;3.37
1515;1980.4;553.972;3.37
1516;1975.52;585.467;3.37
1517;1950.8;573.748;3.37
1518;1930.96;597.43;3.37
1519;1963.31;563.738;3.37
1520;1997.8;563.738;3.37
1521;2015.19;589.618;3.37
1522;2017.64;559.832;3.37
1523;2002.68;565.935;3.37
1524;1970.64;565.935;3.37
1525;1950.8;583.514;3.37
1526;1977.96;555.925;3.37
1527;1988.03;565.935;3.38
1528;1992.92;544.206;3.38
1529;1982.84;583.514;3.38
1530;1948.36;577.654;3.38
1531;1916.31;553.972;3.38
1532;1926.08;583.514;3.38
1533;1958.12;573.748;3.38
1534;1970.64;573.748;3.38
1535;1980.4;555.925;3.38
1536;1970.64;589.618;3.38
1537;1945.92;571.795;3.38
1538;1928.52;595.477;3.38
1539;1965.75;557.878;3.38
1540;1995.36;565.935;3.38
1541;2010.01;589.618;3.38
1542;2020.08;555.925;3.38
1543;2000.24;569.842;3.38
1544;1965.75;565.935;3.38
1545;1953.24;583.514;3.39
1546;1975.52;553.972;3.39
1547;1985.29;567.888;3.39
1548;1990.47;550.066;3.39
1549;1980.4;571.795;3.39
1550;1948.36;581.561;3.39
1551;1913.87;552.019;3.39
1552;1926.08;577.654;3.39
1553;1958.12;579.608;3.39
1554;1973.08;569.842;3.39
1555;1980.4;552.019;3.39
1556;1970.64;571.795;3.39
1557;1948.36;575.701;3.39
1558;1928.52;593.524;3.39
1559;1965.75;569.842;3.39
1560;1995.36;557.878;3.39
1561;2015.19;587.42;3.39
1562;2015.19;565.935;3.39
1563;1997.8;565.935;3.39
1564;1963.31;565.935;3.4
1565;1950.8;583.514;3.4
1566;1973.08;569.842;3.4
1567;1985.29;565.935;3.4
1568;1990.47;546.159;3.4
1569;1980.4;575.701;3.4
1570;1945.92;579.608;3.4
1571;1911.43;550.066;3.4
1572;1923.64;577.654;3.4
1573;1955.68;573.748;3.4
1574;1973.08;571.795;3.4
1575;1975.52;553.972;3.4
1576;1968.2;581.561;3.4
1577;1943.48;573.748;3.4
1578;1926.08;597.43;3.4
1579;1963.31;565.935;3.4
1580;1992.92;561.785;3.4
1581;2010.01;589.618;3.4
1582;2015.19;561.785;3.4
1583;1992.92;567.888;3.41
1584;1960.87;565.935;3.41
1585;1945.92;585.467;3.41
1586;1970.64;557.878;3.41
1587;1982.84;563.738;3.41
1588;1988.03;546.159;3.41
1589;1975.52;579.608;3.41
1590;1943.48;577.654;3.41
1591;1911.43;553.972;3.41
1592;1923.64;581.561;3.41
1593;1955.68;573.748;3.41
1594;1968.2;571.795;3.41
1595;1975.52;553.972;3.41
1596;1965.75;591.571;3.41
1597;1943.48;571.795;3.41
1598;1926.08;597.43;3.41
1599;1963.31;559.832;3.41
1600;1997.8;561.785;3.41
1601;2012.45;587.42;3.41
1602;2020.08;557.878;3.41
1603;1997.8;567.888;3.42
1604;1965.75;563.738;3.42
1605;1953.24;583.514;3.42
1606;1973.08;550.066;3.42
1607;1982.84;565.935;3.42
1608;1988.03;546.159;3.42
1609;1977.96;575.701;3.42
1610;1943.48;577.654;3.42
1611;1906.55;550.066;3.42
1612;1918.76;579.608;3.42
1613;1953.24;571.795;3.42
1614;1965.75;573.748;3.42
1615;1973.08;555.925;3.42
1616;1965.75;581.561;3.42
1617;1936.15;571.795;3.42
1618;1923.64;593.524;3.42
1619;1960.87;563.738;3.42
1620;1990.47;561.785;3.42
1621;2005.12;587.42;3.42
1622;2010.01;557.878;3.43
1623;1990.47;567.888;3.43
1624;1958.12;563.738;3.43
1625;1948.36;583.514;3.43
1626;1970.64;555.925;3.43
1627;1980.4;565.935;3.43
1628;1985.29;544.206;3.43
1629;1973.08;583.514;3.43
1630;1938.59;575.701;3.43
1631;1903.8;548.112;3.43
1632;1918.76;583.514;3.43
1633;1950.8;571.795;3.43
1634;1965.75;573.748;3.43
1635;1973.08;555.925;3.43
1636;1960.87;589.618;3.43
1637;1936.15;571.795;3.43
1638;1923.64;595.477;3.43
1639;1960.87;555.925;3.43
1640;1992.92;555.925;3.43
1641;2005.12;583.514;3.44
1642;2010.01;567.888;3.44
1643;1990.47;559.832;3.44
1644;1960.87;567.888;3.44
1645;1945.92;579.608;3.44
1646;1968.2;573.748;3.44
1647;1977.96;563.738;3.44
1648;1982.84;546.159;3.44
1649;1968.2;567.888;3.44
1650;1936.15;581.561;3.44
1651;1901.36;555.925;3.44
1652;1916.31;573.748;3.44
1653;1945.92;575.701;3.44
1654;1960.87;569.842;3.44
1655;1968.2;553.972;3.44
1656;1958.12;569.842;3.44
1657;1930.96;571.795;3.44
1658;1918.76;591.571;3.44
1659;1958.12;571.795;3.44
1660;1988.03;557.878;3.44
1661;2002.68;585.467;3.45
1662;2005.12;563.738;3.45
1663;1985.29;563.738;3.45
1664;1953.24;563.738;3.45
1665;1941.03;583.514;3.45
1666;1965.75;567.888;3.45
1667;1975.52;565.935;3.45
1668;1977.96;544.206;3.45
1669;1970.64;575.701;3.45
1670;1936.15;577.654;3.45
1671;1901.36;552.019;3.45
1672;1913.87;577.654;3.45
1673;1948.36;571.795;3.45
1674;1958.12;571.795;3.45
1675;1965.75;555.925;3.45
1676;1958.12;579.608;3.45
1677;1930.96;571.795;3.45
1678;1918.76;595.477;3.45
1679;1958.12;563.738;3.45
1680;1985.29;561.785;3.46
1681;2002.68;587.42;3.46
1682;2002.68;559.832;3.46
1683;1982.84;567.888;3.46
1684;1953.24;563.738;3.46
1685;1941.03;583.514;3.46
1686;1963.31;553.972;3.46
1687;1973.08;565.935;3.46
1688;1977.96;542.009;3.46
1689;1963.31;579.608;3.46
1690;1928.52;573.748;3.46
1691;1894.04;550.066;3.46
1692;1911.43;581.561;3.46
1693;1943.48;571.795;3.46
1694;1955.68;573.748;3.46
1695;1960.87;553.972;3.46
1696;1953.24;589.618;3.46
1697;1928.52;571.795;3.46
1698;1913.87;597.43;3.46
1699;1953.24;559.832;3.47
1700;1982.84;563.738;3.47
1701;1997.8;583.514;3.47
1702;1997.8;569.842;3.47
1703;1980.4;559.832;3.47
1704;1945.92;567.888;3.47
1705;1933.71;581.561;3.47
1706;1960.87;571.795;3.47
1707;1968.2;559.832;3.47
1708;1973.08;548.112;3.47
1709;1958.12;565.935;3.47
1710;1926.08;583.514;3.47
1711;1896.48;553.972;3.47
1712;1901.36;571.795;3.47
1713;1936.15;575.701;3.47
1714;1950.8;567.888;3.47
1715;1958.12;553.972;3.47
1716;1953.24;563.738;3.47
1717;1928.52;573.748;3.47
1718;1911.43;589.618;3.47
1719;1941.03;569.842;3.48
1720;1975.52;555.925;3.48
1721;1990.47;581.561;3.48
1722;1997.8;565.935;3.48
1723;1982.84;563.738;3.48
1724;1950.8;565.935;3.48
1725;1930.96;581.561;3.48
1726;1953.24;571.795;3.48
1727;1965.75;565.935;3.48
1728;1970.64;544.206;3.48
1729;1960.87;571.795;3.48
1730;1930.96;579.608;3.48
1731;1894.04;550.066;3.48
1732;1896.48;573.748;3.48
1733;1933.71;573.748;3.48
1734;1948.36;569.842;3.48
1735;1955.68;553.972;3.48
1736;1950.8;573.748;3.48
1737;1926.08;571.795;3.48
1738;1906.55;595.477;3.48
1739;1936.15;563.738;3.49
1740;1975.52;561.785;3.49
1741;1988.03;585.467;3.49
1742;1995.36;559.832;3.49
1743;1980.4;565.935;3.49
1744;1948.36;563.738;3.49
1745;1930.96;583.514;3.49
1746;1950.8;557.878;3.49
1747;1963.31;565.935;3.49
1748;1968.2;542.009;3.49
1749;1960.87;577.654;3.49
1750;1928.52;575.701;3.49
1751;1889.15;548.112;3.49
1752;1896.48;579.608;3.49
1753;1930.96;571.795;3.49
1754;1943.48;573.748;3.49
1755;1950.8;553.972;3.49
1756;1945.92;587.42;3.49
1757;1918.76;569.842;3.49
1758;1901.36;593.524;3.49
1759;1936.15;561.785;3.5
1760;1970.64;565.935;3.5
1761;1982.84;583.514;3.5
1762;1992.92;563.738;3.5
1763;1977.96;561.785;3.5
1764;1943.48;563.738;3.5
1765;1926.08;579.608;3.5
1766;1948.36;565.935;3.5
1767;1960.87;563.738;3.5
1768;1965.75;540.056;3.5
1769;1955.68;573.748;3.5
1770;1923.64;577.654;3.5
1771;1886.71;550.066;3.5
1772;1894.04;575.701;3.5
1773;1928.52;571.795;3.5
1774;1938.59;571.795;3.5
1775;1945.92;553.972;3.5
1776;1941.03;577.654;3.5
1777;1916.31;569.842;3.5
1778;1901.36;595.477;3.5
1779;1933.71;561.785;3.51
1780;1965.75;561.785;3.51
1781;1985.29;587.42;3.51
1782;1988.03;559.832;3.51
1783;1973.08;565.935;3.51
1784;1941.03;563.738;3.51
1785;1921.2;577.654;3.51
1786;1943.48;555.925;3.51
1787;1955.68;565.935;3.51
1788;1958.12;544.206;3.51
1789;1953.24;579.608;3.51
1790;1916.31;573.748;3.51
1791;1884.27;550.066;3.51
1792;1891.59;579.608;3.51
1793;1923.64;581.561;3.51
1794;1936.15;565.935;3.51
1795;1943.48;555.925;3.51
1796;1938.59;565.935;3.51
1797;1913.87;575.701;3.51
