<WeldAnalyseData xmlns:i="http:www.w3.org/2001/XMLSchema-instance">
<WeldParameter>
<TimeStamp>DT#2023-12-05-15:11:36</TimeStamp>
<Generator>SG-22-10000</Generator>
<GenFreq>20</GenFreq>
<MaxForce>8000</MaxForce>
<MaxPower>10000</MaxPower>
<RunupPressure>1.5</RunupPressure>
<RunupDist>10</RunupDist>
<RunPress>0.8</RunPress>
<ShakeDelay>0.03</ShakeDelay>
<ShakeTime>0.3</ShakeTime>
<RunBackPress1>6</RunBackPress1>
<RunBackPress2>2</RunBackPress2>
<RunBackDist>1</RunBackDist>
<TrigValue>500</TrigValue>
<TrigModeUnit>W</TrigModeUnit>
<WeldModeUnit>Ws</WeldModeUnit>
<PressNr>0</PressNr>
<MaxLoss>1500</MaxLoss>
</WeldParameter>
<WeldSets>
<WeldSet>
<PressRiseTime>0</PressRiseTime>
<RunPressure>1</RunPressure>
<Amplitude>86</Amplitude>
<WeldMode>3270</WeldMode>
</WeldSet>
</WeldSets>
<WeldValue>
<WeldNr>2430</WeldNr>
<RecipeName>RickStyle</RecipeName>
<WeldTime>1911</WeldTime>
<DistDiff>3.79</DistDiff>
<DistAbs>78.29</DistAbs>
<Energy>3270.44</Energy>
<MaxPower>2073.89</MaxPower>
<CycleTime>6250</CycleTime>
<TrigForce>502.701</TrigForce>
<TrigDist>74.5</TrigDist>
<RunSpeed>67.0567</RunSpeed>
<MaxForce>599.384</MaxForce>
<LossPower>249.489</LossPower>
</WeldValue>
</WeldAnalyseData>
#CSV-START#
ms;Power[W];Force[N];Distance[mm]
1;0;0;0
2;0;504.654;0
3;0;504.654;0
4;0;506.607;0.0100021
5;0;504.654;0.0100021
6;0;508.56;0.0100021
7;0;506.607;0.0100021
8;0;496.597;0.0100021
9;0;479.019;0.0199966
10;0;463.149;0.0199966
11;16.9378;463.149;0.0299988
12;16.9378;453.383;0.0500031
13;31.8918;441.42;0.0599976
14;51.7289;445.326;0.0699997
15;78.8903;441.42;0.0800018
16;106.052;437.513;0.0999985
17;128.025;433.607;0.110001
18;150.304;435.56;0.120003
19;170.141;433.607;0.129997
20;187.536;443.373;0.139999
21;217.139;427.503;0.150002
22;241.859;431.654;0.160004
23;261.391;445.326;0.169998
24;281.228;425.55;0.18
25;298.624;433.607;0.190002
26;310.831;433.607;0.199997
27;320.597;435.56;0.209999
28;328.227;429.456;0.220001
29;342.875;433.607;0.230003
30;355.388;421.644;0.239998
31;362.712;449.232;0.25
32;365.154;439.467;0.25
33;362.712;427.503;0.260002
34;372.478;445.326;0.269997
35;384.991;435.56;0.279999
36;394.757;435.56;0.290001
37;402.081;431.654;0.300003
38;407.269;437.513;0.309998
39;414.594;433.607;0.330002
40;421.918;449.232;0.339996
41;436.872;439.467;0.349998
42;451.521;431.654;0.360001
43;458.846;445.326;0.370003
44;458.846;435.56;0.379997
45;458.846;435.56;0.389999
46;456.404;437.513;0.389999
47;449.08;439.467;0.400002
48;451.521;437.513;0.410004
49;451.521;439.467;0.419998
50;449.08;435.56;0.43
51;449.08;443.373;0.440002
52;439.314;447.279;0.449997
53;429.243;437.513;0.459999
54;434.431;447.279;0.470001
55;439.314;447.279;0.470001
56;446.638;447.279;0.480003
57;449.08;447.279;0.489998
58;451.521;457.289;0.5
59;451.521;451.186;0.510002
60;456.404;463.149;0.519997
61;464.034;457.289;0.519997
62;473.8;453.383;0.529999
63;483.566;467.055;0.540001
64;483.566;455.336;0.550003
65;483.566;457.289;0.559998
66;476.241;463.149;0.559998
67;473.8;463.149;0.57
68;466.475;459.243;0.580002
69;466.475;461.196;0.589996
70;468.917;451.186;0.599998
71;464.034;467.055;0.610001
72;458.846;469.008;0.610001
73;451.521;457.289;0.620003
74;451.521;475.112;0.629997
75;458.846;472.915;0.639999
76;464.034;469.008;0.639999
77;466.475;467.055;0.650002
78;468.917;480.972;0.660004
79;468.917;472.915;0.669998
80;471.358;488.784;0.669998
81;481.124;469.008;0.68
82;496.078;472.915;0.690002
83;503.403;488.784;0.699997
84;508.286;469.008;0.699997
85;505.844;477.065;0.709999
86;500.961;477.065;0.720001
87;496.078;477.065;0.730003
88;491.195;472.915;0.730003
89;491.195;477.065;0.739998
90;491.195;465.102;0.75
91;491.195;488.784;0.760002
92;486.007;484.878;0.760002
93;476.241;470.962;0.769997
94;473.8;492.691;0.779999
95;483.566;484.878;0.779999
96;493.637;482.925;0.790001
97;491.195;482.925;0.800003
98;493.637;490.738;0.800003
99;496.078;488.784;0.809998
100;496.078;498.795;0.82
101;500.961;479.019;0.82
102;515.915;486.831;0.830002
103;523.24;494.644;0.839996
104;525.681;486.831;0.839996
105;525.681;484.878;0.849998
106;518.357;488.784;0.860001
107;510.727;488.784;0.870003
108;508.286;490.738;0.870003
109;505.844;488.784;0.879997
110;505.844;484.878;0.889999
111;505.844;492.691;0.889999
112;498.52;498.795;0.900002
113;486.007;482.925;0.900002
114;483.566;494.644;0.910004
115;496.078;496.597;0.919998
116;500.961;492.691;0.919998
117;503.403;492.691;0.93
118;503.403;498.795;0.940002
119;503.403;496.597;0.940002
120;500.961;506.607;0.949997
121;513.169;498.795;0.949997
122;528.123;494.644;0.959999
123;533.006;508.56;0.959999
124;537.889;494.644;0.970001
125;535.447;492.691;0.980003
126;530.564;496.597;0.980003
127;525.681;498.795;0.989998
128;525.681;494.644;0.989998
129;525.681;492.691;1
130;525.681;486.831;1.01
131;525.681;498.795;1.01
132;520.798;500.748;1.02
133;513.169;484.878;1.02
134;515.915;500.748;1.03
135;530.564;500.748;1.04
136;535.447;496.597;1.04
137;537.889;494.644;1.05
138;543.077;504.654;1.06
139;545.518;500.748;1.06
140;547.96;514.42;1.07
141;557.726;496.597;1.07
142;572.68;500.748;1.08
143;582.446;510.514;1.09
144;584.887;492.691;1.09
145;587.329;498.795;1.1
146;580.004;500.748;1.1
147;575.121;500.748;1.11
148;572.68;494.644;1.11
149;572.68;500.748;1.12
150;570.238;486.831;1.13
151;572.68;510.514;1.13
152;565.05;504.654;1.14
153;557.726;490.738;1.14
154;560.167;508.56;1.15
155;575.121;502.701;1.16
156;584.887;500.748;1.16
157;589.77;494.644;1.17
158;597.4;508.56;1.17
159;597.4;500.748;1.18
160;602.283;514.42;1.19
161;619.373;488.784;1.19
162;636.769;496.597;1.2
163;646.535;512.467;1.2
164;656.606;492.691;1.21
165;656.606;498.795;1.22
166;648.976;500.748;1.22
167;644.093;502.701;1.23
168;644.093;492.691;1.23
169;648.976;496.597;1.24
170;648.976;484.878;1.25
171;648.976;502.701;1.25
172;646.535;502.701;1.26
173;636.769;484.878;1.27
174;641.652;506.607;1.27
175;656.606;500.748;1.28
176;663.93;496.597;1.29
177;673.696;492.691;1.29
178;676.138;504.654;1.3
179;676.138;500.748;1.31
180;681.326;516.373;1.31
181;695.975;492.691;1.32
182;715.812;494.644;1.33
183;725.578;510.514;1.34
184;733.207;490.738;1.34
185;733.207;496.597;1.35
186;725.578;498.795;1.36
187;718.253;502.701;1.36
188;718.253;486.831;1.37
189;720.695;494.644;1.38
190;725.578;480.972;1.39
191;723.136;510.514;1.39
192;720.695;498.795;1.4
193;710.929;482.925;1.41
194;713.37;508.56;1.41
195;728.019;504.654;1.42
196;738.09;494.644;1.43
197;740.532;494.644;1.43
198;745.415;494.644;1.44
199;742.973;500.748;1.45
200;745.415;508.56;1.45
201;757.622;500.748;1.46
202;777.459;492.691;1.47
203;787.53;508.56;1.47
204;792.413;498.795;1.48
205;789.972;492.691;1.49
206;779.9;496.597;1.5
207;770.135;496.597;1.5
208;770.135;500.748;1.51
209;770.135;492.691;1.52
210;772.576;488.784;1.53
211;770.135;498.795;1.53
212;762.81;504.654;1.54
213;750.298;484.878;1.55
214;755.18;502.701;1.56
215;772.576;502.701;1.57
216;784.784;496.597;1.57
217;787.53;496.597;1.58
218;789.972;500.748;1.59
219;792.413;502.701;1.6
220;794.855;512.467;1.61
221;811.945;498.795;1.61
222;829.341;496.597;1.62
223;841.853;512.467;1.63
224;849.178;494.644;1.64
225;846.736;496.597;1.65
226;836.665;498.795;1.65
227;829.341;502.701;1.66
228;829.341;492.691;1.67
229;831.782;494.644;1.68
230;836.665;484.878;1.68
231;836.665;504.654;1.69
232;829.341;502.701;1.7
233;817.133;484.878;1.71
234;824.457;504.654;1.72
235;846.736;504.654;1.72
236;854.06;500.748;1.73
237;858.943;494.644;1.74
238;866.268;510.514;1.75
239;869.015;502.701;1.75
240;871.456;516.373;1.76
241;886.105;498.795;1.77
242;905.942;500.748;1.77
243;918.149;516.373;1.78
244;925.779;492.691;1.79
245;923.337;502.701;1.8
246;913.266;500.748;1.8
247;905.942;508.56;1.81
248;910.825;492.691;1.82
249;918.149;500.748;1.83
250;925.779;484.878;1.83
251;930.662;514.42;1.84
252;918.149;506.607;1.85
253;908.383;488.784;1.85
254;915.708;514.42;1.86
255;937.986;506.607;1.87
256;950.499;504.654;1.87
257;957.823;496.597;1.88
258;965.148;500.748;1.89
259;960.265;508.56;1.89
260;960.265;512.467;1.9
261;977.66;510.514;1.91
262;999.634;496.597;1.91
263;1012.15;518.326;1.92
264;1019.47;504.654;1.93
265;1017.03;498.795;1.93
266;1002.08;506.607;1.94
267;994.751;508.56;1.94
268;1004.82;510.514;1.95
269;1009.7;502.701;1.96
270;1014.59;494.644;1.96
271;1017.03;504.654;1.97
272;1007.26;514.42;1.98
273;992.309;494.644;1.98
274;1004.82;510.514;1.99
275;1029.24;514.42;1.99
276;1039.31;508.56;2
277;1049.07;502.701;2.01
278;1059.14;510.514;2.01
279;1056.4;514.42;2.02
280;1056.4;524.43;2.02
281;1078.68;512.467;2.03
282;1098.51;506.607;2.03
283;1108.28;526.383;2.04
284;1118.35;508.56;2.05
285;1113.16;510.514;2.05
286;1098.51;514.42;2.06
287;1086.31;520.524;2.06
288;1098.51;510.514;2.07
289;1105.84;512.467;2.07
290;1105.84;500.748;2.08
291;1105.84;520.524;2.08
292;1096.07;522.477;2.09
293;1078.68;500.748;2.09
294;1086.31;522.477;2.1
295;1110.72;522.477;2.1
296;1118.35;516.373;2.11
297;1123.23;510.514;2.11
298;1130.56;528.336;2.12
299;1128.12;520.524;2.12
300;1125.68;538.102;2.13
301;1145.51;516.373;2.13
302;1167.49;518.326;2.14
303;1177.56;536.149;2.14
304;1187.32;514.42;2.15
305;1184.88;520.524;2.15
306;1165.04;520.524;2.16
307;1155.28;528.336;2.16
308;1167.49;508.56;2.16
309;1172.67;518.326;2.17
310;1180;500.748;2.17
311;1180;532.243;2.18
312;1167.49;524.43;2.18
313;1152.84;504.654;2.19
314;1165.04;534.196;2.19
315;1189.76;522.477;2.19
316;1202.28;524.43;2.2
317;1212.04;514.42;2.2
318;1221.81;528.336;2.21
319;1216.93;526.383;2.21
320;1214.48;542.009;2.22
321;1236.76;524.43;2.22
322;1261.48;522.477;2.22
323;1273.69;540.056;2.23
324;1281.32;522.477;2.23
325;1273.69;522.477;2.24
326;1256.6;524.43;2.24
327;1244.09;534.196;2.24
328;1259.04;520.524;2.25
329;1263.92;522.477;2.25
330;1268.81;504.654;2.26
331;1266.37;534.196;2.26
332;1251.72;532.243;2.27
333;1231.88;510.514;2.27
334;1244.09;536.149;2.27
335;1268.81;530.29;2.28
336;1276.13;528.336;2.28
337;1288.64;518.326;2.29
338;1293.53;540.056;2.29
339;1291.09;530.29;2.29
340;1283.76;552.019;2.3
341;1308.48;524.43;2.3
342;1330.45;524.43;2.31
343;1342.97;550.066;2.31
344;1347.85;520.524;2.31
345;1340.53;528.336;2.32
346;1315.81;530.29;2.32
347;1308.48;540.056;2.33
348;1320.69;538.102;2.33
349;1328.01;528.336;2.33
350;1333.2;522.477;2.34
351;1325.57;526.383;2.34
352;1310.92;542.009;2.35
353;1288.64;524.43;2.35
354;1306.04;534.196;2.35
355;1330.45;542.009;2.36
356;1342.97;534.196;2.36
357;1352.73;526.383;2.36
358;1357.62;526.383;2.37
359;1352.73;540.056;2.37
360;1345.41;546.159;2.38
361;1372.57;538.102;2.38
362;1394.85;526.383;2.38
363;1407.06;548.112;2.39
364;1414.69;532.243;2.39
365;1402.17;530.29;2.39
366;1382.34;536.149;2.4
367;1372.57;544.206;2.4
368;1384.78;542.009;2.4
369;1389.97;532.243;2.41
370;1392.41;522.477;2.41
371;1389.97;538.102;2.41
372;1370.13;546.159;2.42
373;1350.29;522.477;2.42
374;1362.8;542.009;2.42
375;1392.41;546.159;2.43
376;1402.17;540.056;2.43
377;1411.94;530.29;2.43
378;1417.13;540.056;2.44
379;1409.5;542.009;2.44
380;1404.61;559.832;2.44
381;1429.33;540.056;2.44
382;1451.61;532.243;2.45
383;1463.82;559.832;2.45
384;1471.45;534.196;2.45
385;1458.94;538.102;2.46
386;1436.66;540.056;2.46
387;1426.89;550.066;2.46
388;1441.85;538.102;2.47
389;1449.17;538.102;2.47
390;1454.05;522.477;2.47
391;1449.17;548.112;2.48
392;1429.33;550.066;2.48
393;1409.5;524.43;2.48
394;1426.89;552.019;2.49
395;1454.05;546.159;2.49
396;1469.01;546.159;2.49
397;1478.77;534.196;2.49
398;1483.66;555.925;2.5
399;1473.89;546.159;2.5
400;1471.45;569.842;2.5
401;1498.61;538.102;2.51
402;1523.33;540.056;2.51
403;1535.54;567.888;2.51
404;1542.86;536.149;2.52
405;1533.1;542.009;2.52
406;1508.38;542.009;2.52
407;1496.17;557.878;2.52
408;1513.26;536.149;2.53
409;1518.14;544.206;2.53
410;1523.33;534.196;2.53
411;1518.14;542.009;2.54
412;1498.61;561.785;2.54
413;1473.89;536.149;2.54
414;1483.66;550.066;2.54
415;1515.7;559.832;2.55
416;1530.66;548.112;2.55
417;1540.42;538.102;2.55
418;1547.75;544.206;2.56
419;1537.98;552.019;2.56
420;1530.66;563.738;2.56
421;1555.38;555.925;2.56
422;1584.98;536.149;2.57
423;1597.19;563.738;2.57
424;1607.26;548.112;2.57
425;1597.19;542.009;2.57
426;1574.91;548.112;2.58
427;1557.82;557.878;2.58
428;1570.02;555.925;2.58
429;1580.1;544.206;2.59
430;1584.98;534.196;2.59
431;1580.1;550.066;2.59
432;1557.82;559.832;2.59
433;1535.54;536.149;2.6
434;1545.3;553.972;2.6
435;1574.91;557.878;2.6
436;1592.3;552.019;2.6
437;1602.07;540.056;2.61
438;1607.26;550.066;2.61
439;1594.74;555.925;2.61
440;1587.42;573.748;2.62
441;1609.7;552.019;2.62
442;1641.74;542.009;2.62
443;1653.95;567.888;2.62
444;1661.58;544.206;2.63
445;1653.95;550.066;2.63
446;1624.35;552.019;2.63
447;1604.82;563.738;2.63
448;1617.02;553.972;2.64
449;1629.23;548.112;2.64
450;1631.98;530.29;2.64
451;1626.79;557.878;2.64
452;1604.82;557.878;2.65
453;1574.91;536.149;2.65
454;1584.98;563.738;2.65
455;1617.02;559.832;2.65
456;1631.98;555.925;2.66
457;1644.18;540.056;2.66
458;1649.07;563.738;2.66
459;1634.42;559.832;2.66
460;1624.35;577.654;2.67
461;1646.63;552.019;2.67
462;1673.79;548.112;2.67
463;1683.55;571.795;2.67
464;1696.07;546.159;2.67
465;1683.55;553.972;2.68
466;1653.95;553.972;2.68
467;1636.86;569.842;2.68
468;1653.95;544.206;2.68
469;1664.02;555.925;2.69
470;1666.46;532.243;2.69
471;1666.46;555.925;2.69
472;1644.18;565.935;2.69
473;1619.46;538.102;2.7
474;1631.98;563.738;2.7
475;1664.02;563.738;2.7
476;1683.55;557.878;2.7
477;1693.62;542.009;2.7
478;1696.07;559.832;2.71
479;1688.74;559.832;2.71
480;1673.79;577.654;2.71
481;1703.39;555.925;2.71
482;1730.55;552.019;2.72
483;1747.95;575.701;2.72
484;1755.27;550.066;2.72
485;1743.06;555.925;2.72
486;1713.46;557.878;2.72
487;1693.62;571.795;2.73
488;1708.27;555.925;2.73
489;1723.23;555.925;2.73
490;1728.11;536.149;2.73
491;1725.67;567.888;2.73
492;1700.95;565.935;2.74
493;1673.79;538.102;2.74
494;1688.74;571.795;2.74
495;1728.11;563.738;2.74
496;1745.51;561.785;2.74
497;1755.27;548.112;2.75
498;1757.71;571.795;2.75
499;1745.51;561.785;2.75
500;1732.99;583.514;2.75
501;1760.16;555.925;2.75
502;1789.76;546.159;2.75
503;1807.15;573.748;2.76
504;1814.48;559.832;2.76
505;1797.39;548.112;2.76
506;1770.23;559.832;2.76
507;1750.39;569.842;2.76
508;1765.04;569.842;2.77
509;1777.55;555.925;2.77
510;1784.88;546.159;2.77
511;1777.55;557.878;2.77
512;1755.27;577.654;2.77
513;1723.23;550.066;2.77
514;1740.62;563.738;2.78
515;1775.11;573.748;2.78
516;1792.2;561.785;2.78
517;1807.15;552.019;2.78
518;1807.15;559.832;2.78
519;1792.2;567.888;2.78
520;1779.99;577.654;2.79
521;1807.15;569.842;2.79
522;1836.76;552.019;2.79
523;1854.15;579.608;2.79
524;1856.59;559.832;2.79
525;1839.2;555.925;2.79
526;1809.59;563.738;2.8
527;1789.76;573.748;2.8
528;1807.15;567.888;2.8
529;1819.36;557.878;2.8
530;1824.55;544.206;2.8
531;1816.92;563.738;2.8
532;1792.2;575.701;2.81
533;1762.6;546.159;2.81
534;1777.55;569.842;2.81
535;1816.92;571.795;2.81
536;1836.76;565.935;2.81
537;1846.52;548.112;2.81
538;1846.52;563.738;2.82
539;1829.43;565.935;2.82
540;1816.92;583.514;2.82
541;1846.52;563.738;2.82
542;1876.13;555.925;2.82
543;1891.08;583.514;2.82
544;1898.4;557.878;2.82
545;1878.87;559.832;2.83
546;1846.52;561.785;2.83
547;1829.43;577.654;2.83
548;1844.08;563.738;2.83
549;1856.59;559.832;2.83
550;1859.04;542.009;2.83
551;1854.15;569.842;2.84
552;1826.99;573.748;2.84
553;1797.39;546.159;2.84
554;1814.48;575.701;2.84
555;1854.15;571.795;2.84
556;1873.68;567.888;2.84
557;1883.76;553.972;2.84
558;1881.31;579.608;2.85
559;1866.36;569.842;2.85
560;1848.96;591.571;2.85
561;1878.87;561.785;2.85
562;1913.36;561.785;2.85
563;1928.01;577.654;2.85
564;1933.2;565.935;2.85
565;1913.36;553.972;2.86
566;1878.87;565.935;2.86
567;1859.04;577.654;2.86
568;1878.87;571.795;2.86
569;1888.64;559.832;2.86
570;1895.96;553.972;2.86
571;1883.76;559.832;2.86
572;1856.59;581.561;2.87
573;1824.55;552.019;2.87
574;1839.2;569.842;2.87
575;1881.31;577.654;2.87
576;1898.4;565.935;2.87
577;1910.92;552.019;2.87
578;1908.48;563.738;2.88
579;1891.08;571.795;2.88
580;1873.68;581.561;2.88
581;1906.03;573.748;2.88
582;1935.64;552.019;2.88
583;1952.73;583.514;2.88
584;1955.17;561.785;2.88
585;1935.64;555.925;2.89
586;1898.4;569.842;2.89
587;1881.31;579.608;2.89
588;1895.96;571.795;2.89
589;1908.48;561.785;2.89
590;1913.36;548.112;2.89
591;1903.29;563.738;2.89
592;1871.24;577.654;2.9
593;1841.64;550.066;2.9
594;1859.04;573.748;2.9
595;1886.2;577.654;2.9
596;1910.92;567.888;2.9
597;1923.12;553.972;2.9
598;1928.01;565.935;2.9
599;1913.36;571.795;2.9
600;1891.08;587.42;2.91
601;1903.29;571.795;2.91
602;1942.96;557.878;2.91
603;1962.8;585.467;2.91
604;1970.12;561.785;2.91
605;1960.36;565.935;2.91
606;1930.45;565.935;2.91
607;1898.4;581.561;2.92
608;1906.03;571.795;2.92
609;1925.57;563.738;2.92
610;1930.45;544.206;2.92
611;1930.45;573.748;2.92
612;1906.03;577.654;2.92
613;1871.24;550.066;2.92
614;1863.92;579.608;2.92
615;1906.03;573.748;2.93
616;1935.64;571.795;2.93
617;1947.84;555.925;2.93
618;1950.29;577.654;2.93
619;1938.08;573.748;2.93
620;1913.36;595.477;2.93
621;1925.57;565.935;2.93
622;1970.12;561.785;2.93
623;1987.52;591.571;2.93
624;1999.73;563.738;2.94
625;1984.77;559.832;2.94
626;1955.17;569.842;2.94
627;1923.12;581.561;2.94
628;1930.45;571.795;2.94
629;1950.29;565.935;2.94
630;1955.17;548.112;2.94
631;1950.29;571.795;2.94
632;1925.57;579.608;2.95
633;1888.64;552.019;2.95
634;1886.2;573.748;2.95
635;1928.01;575.701;2.95
636;1952.73;569.842;2.95
637;1965.24;553.972;2.95
638;1970.12;571.795;2.95
639;1955.17;571.795;2.95
640;1933.2;591.571;2.95
641;1942.96;569.842;2.96
642;1984.77;561.785;2.96
643;2004.61;589.618;2.96
644;2011.93;561.785;2.96
645;1999.73;565.935;2.96
646;1967.68;567.888;2.96
647;1933.2;585.467;2.96
648;1945.4;565.935;2.96
649;1965.24;563.738;2.96
650;1970.12;544.206;2.97
651;1965.24;579.608;2.97
652;1940.52;577.654;2.97
653;1903.29;548.112;2.97
654;1898.4;581.561;2.97
655;1942.96;587.42;2.97
656;1967.68;567.888;2.97
657;1982.33;557.878;2.97
658;1982.33;563.738;2.97
659;1967.68;575.701;2.98
660;1942.96;579.608;2.98
661;1957.61;583.514;2.98
662;1999.73;552.019;2.98
663;2019.56;583.514;2.98
664;2026.89;569.842;2.98
665;2014.68;559.832;2.98
666;1979.89;569.842;2.98
667;1947.84;577.654;2.99
668;1955.17;577.654;2.99
669;1975.01;563.738;2.99
670;1977.45;555.925;2.99
671;1977.45;563.738;2.99
672;1947.84;587.42;2.99
673;1913.36;553.972;2.99
674;1908.48;571.795;2.99
675;1952.73;583.514;2.99
676;1977.45;567.888;3
677;1989.96;555.925;3
678;1997.28;569.842;3
679;1977.45;575.701;3
680;1952.73;585.467;3
681;1970.12;575.701;3
682;2009.49;557.878;3
683;2026.89;587.42;3
684;2034.21;567.888;3
685;2022;559.832;3.01
686;1987.52;569.842;3.01
687;1955.17;581.561;3.01
688;1967.68;571.795;3.01
689;1987.52;563.738;3.01
690;1989.96;553.972;3.01
691;1982.33;569.842;3.01
692;1960.36;581.561;3.01
693;1923.12;552.019;3.01
694;1920.68;579.608;3.02
695;1965.24;579.608;3.02
696;1987.52;571.795;3.02
697;2002.17;557.878;3.02
698;2002.17;571.795;3.02
699;1982.33;577.654;3.02
700;1962.8;593.524;3.02
701;1979.89;573.748;3.02
702;2019.56;561.785;3.02
703;2039.09;591.571;3.03
704;2046.72;563.738;3.03
705;2031.77;567.888;3.03
706;1999.73;569.842;3.03
707;1965.24;585.467;3.03
708;1975.01;571.795;3.03
709;1992.4;567.888;3.03
710;1997.28;546.159;3.03
711;1992.4;579.608;3.03
712;1965.24;579.608;3.04
713;1928.01;550.066;3.04
714;1928.01;581.561;3.04
715;1970.12;575.701;3.04
716;1994.84;571.795;3.04
717;2004.61;559.832;3.04
718;2007.05;563.738;3.04
719;1989.96;579.608;3.04
720;1970.12;583.514;3.04
721;1987.52;583.514;3.04
722;2029.33;552.019;3.05
723;2049.17;583.514;3.05
724;2058.93;573.748;3.05
725;2044.28;555.925;3.05
726;2009.49;571.795;3.05
727;1977.45;579.608;3.05
728;1987.52;577.654;3.05
729;1997.28;563.738;3.05
730;2004.61;557.878;3.05
731;1999.73;567.888;3.05
732;1972.56;589.618;3.06
733;1933.2;557.878;3.06
734;1928.01;571.795;3.06
735;1975.01;585.467;3.06
736;1997.28;569.842;3.06
737;2011.93;555.925;3.06
738;2009.49;569.842;3.06
739;1992.4;577.654;3.06
740;1970.12;585.467;3.06
741;1989.96;577.654;3.07
742;2031.77;557.878;3.07
743;2049.17;587.42;3.07
744;2056.49;567.888;3.07
745;2041.84;561.785;3.07
746;2004.61;571.795;3.07
747;1975.01;585.467;3.07
748;1982.33;573.748;3.07
749;1999.73;567.888;3.07
750;2002.17;555.925;3.07
751;1994.84;571.795;3.08
752;1965.24;583.514;3.08
753;1928.01;555.925;3.08
754;1920.68;577.654;3.08
755;1965.24;581.561;3.08
756;1987.52;571.795;3.08
757;1997.28;557.878;3.08
758;1997.28;569.842;3.08
759;1982.33;575.701;3.08
760;1955.17;591.571;3.08
761;1977.45;571.795;3.09
762;2019.56;561.785;3.09
763;2034.21;589.618;3.09
764;2041.84;565.935;3.09
765;2026.89;567.888;3.09
766;1989.96;569.842;3.09
767;1960.36;583.514;3.09
768;1970.12;571.795;3.09
769;1982.33;567.888;3.09
770;1984.77;548.112;3.09
771;1979.89;577.654;3.1
772;1950.29;579.608;3.1
773;1913.36;553.972;3.1
774;1910.92;581.561;3.1
775;1952.73;575.701;3.1
776;1972.56;571.795;3.1
777;1982.33;559.832;3.1
778;1984.77;569.842;3.1
779;1965.24;575.701;3.1
780;1945.4;589.618;3.1
781;1965.24;577.654;3.11
782;2004.61;559.832;3.11
783;2024.45;587.42;3.11
784;2031.77;569.842;3.11
785;2014.68;563.738;3.11
786;1979.89;571.795;3.11
787;1952.73;587.42;3.11
788;1960.36;577.654;3.11
789;1975.01;567.888;3.11
790;1979.89;552.019;3.11
791;1972.56;575.701;3.11
792;1942.96;583.514;3.12
793;1900.85;553.972;3.12
794;1903.29;579.608;3.12
795;1945.4;581.561;3.12
796;1965.24;571.795;3.12
797;1979.89;559.832;3.12
798;1979.89;573.748;3.12
799;1957.61;575.701;3.12
800;1935.64;595.477;3.12
801;1960.36;571.795;3.12
802;1999.73;563.738;3.12
803;2019.56;591.571;3.13
804;2026.89;563.738;3.13
805;2009.49;569.842;3.13
806;1975.01;567.888;3.13
807;1947.84;585.467;3.13
808;1957.61;579.608;3.13
809;1970.12;561.785;3.13
810;1972.56;561.785;3.13
811;1967.68;561.785;3.13
812;1938.08;593.524;3.13
813;1895.96;563.738;3.13
814;1898.4;571.795;3.14
815;1942.96;591.571;3.14
816;1962.8;571.795;3.14
817;1972.56;561.785;3.14
818;1975.01;565.935;3.14
819;1952.73;581.561;3.14
820;1935.64;583.514;3.14
821;1957.61;583.514;3.14
822;1994.84;555.925;3.14
823;2014.68;583.514;3.14
824;2022;573.748;3.14
825;2004.61;561.785;3.14
826;1972.56;573.748;3.15
827;1942.96;583.514;3.15
828;1955.17;579.608;3.15
829;1970.12;565.935;3.15
830;1970.12;557.878;3.15
831;1965.24;569.842;3.15
832;1935.64;589.618;3.15
833;1895.96;559.832;3.15
834;1898.4;575.701;3.15
835;1938.08;585.467;3.15
836;1962.8;571.795;3.15
837;1972.56;559.832;3.16
838;1972.56;571.795;3.16
839;1952.73;579.608;3.16
840;1935.64;589.618;3.16
841;1960.36;577.654;3.16
842;1994.84;559.832;3.16
843;2011.93;589.618;3.16
844;2019.56;569.842;3.16
845;2004.61;565.935;3.16
846;1970.12;575.701;3.16
847;1938.08;585.467;3.16
848;1952.73;577.654;3.16
849;1967.68;569.842;3.16
850;1970.12;553.972;3.17
851;1962.8;573.748;3.17
852;1930.45;583.514;3.17
853;1893.52;555.925;3.17
854;1895.96;577.654;3.17
855;1938.08;581.561;3.17
856;1960.36;571.795;3.17
857;1970.12;561.785;3.17
858;1972.56;573.748;3.17
859;1950.29;575.701;3.17
860;1930.45;597.43;3.17
861;1955.17;571.795;3.17
862;1994.84;563.738;3.17
863;2011.93;593.524;3.18
864;2019.56;567.888;3.18
865;2002.17;567.888;3.18
866;1967.68;573.748;3.18
867;1940.52;585.467;3.18
868;1952.73;573.748;3.18
869;1967.68;569.842;3.18
870;1967.68;563.738;3.18
871;1960.36;563.738;3.18
872;1928.01;597.43;3.18
873;1891.08;567.888;3.18
874;1893.52;569.842;3.18
875;1938.08;593.524;3.18
876;1957.61;571.795;3.18
877;1967.68;561.785;3.19
878;1965.24;565.935;3.19
879;1947.84;583.514;3.19
880;1928.01;583.514;3.19
881;1957.61;583.514;3.19
882;1992.4;553.972;3.19
883;2011.93;581.561;3.19
884;2017.12;575.701;3.19
885;2002.17;557.878;3.19
886;1965.24;573.748;3.19
887;1940.52;585.467;3.19
888;1952.73;581.561;3.19
889;1965.24;565.935;3.19
890;1965.24;559.832;3.19
891;1960.36;567.888;3.2
892;1930.45;589.618;3.2
893;1891.08;563.738;3.2
894;1895.96;575.701;3.2
895;1940.52;587.42;3.2
896;1957.61;573.748;3.2
897;1967.68;561.785;3.2
898;1967.68;573.748;3.2
899;1950.29;581.561;3.2
900;1930.45;589.618;3.2
901;1955.17;579.608;3.2
902;1992.4;557.878;3.2
903;2011.93;589.618;3.2
904;2017.12;569.842;3.2
905;1999.73;567.888;3.2
906;1965.24;573.748;3.21
907;1938.08;585.467;3.21
908;1950.29;579.608;3.21
909;1967.68;567.888;3.21
910;1965.24;552.019;3.21
911;1955.17;573.748;3.21
912;1928.01;587.42;3.21
913;1888.64;553.972;3.21
914;1895.96;579.608;3.21
915;1938.08;583.514;3.21
916;1955.17;573.748;3.21
917;1970.12;559.832;3.21
918;1967.68;575.701;3.21
919;1945.4;577.654;3.21
920;1928.01;595.477;3.22
921;1957.61;575.701;3.22
922;1994.84;563.738;3.22
923;2009.49;593.524;3.22
924;2019.56;567.888;3.22
925;1999.73;569.842;3.22
926;1965.24;571.795;3.22
927;1940.52;585.467;3.22
928;1955.17;577.654;3.22
929;1965.24;567.888;3.22
930;1967.68;550.066;3.22
931;1962.8;571.795;3.22
932;1928.01;589.618;3.22
933;1891.08;559.832;3.22
934;1895.96;577.654;3.22
935;1940.52;585.467;3.23
936;1962.8;571.795;3.23
937;1975.01;559.832;3.23
938;1967.68;571.795;3.23
939;1947.84;577.654;3.23
940;1933.2;593.524;3.23
941;1965.24;577.654;3.23
942;2004.61;561.785;3.23
943;2022;589.618;3.23
944;2024.45;569.842;3.23
945;2007.05;567.888;3.23
946;1975.01;575.701;3.23
947;1947.84;587.42;3.23
948;1960.36;577.654;3.23
949;1975.01;569.842;3.23
950;1972.56;550.066;3.24
951;1965.24;577.654;3.24
952;1930.45;585.467;3.24
953;1891.08;555.925;3.24
954;1900.85;579.608;3.24
955;1942.96;581.561;3.24
956;1960.36;573.748;3.24
957;1975.01;561.785;3.24
958;1972.56;573.748;3.24
959;1952.73;575.701;3.24
960;1938.08;599.384;3.24
961;1967.68;573.748;3.24
962;1994.84;550.066;3.24
963;2017.12;579.608;3.24
964;2029.33;579.608;3.24
965;2022;555.925;3.25
966;1989.96;573.748;3.25
967;1957.61;577.654;3.25
968;1950.29;583.514;3.25
969;1970.12;561.785;3.25
970;1975.01;561.785;3.25
971;1972.56;565.935;3.25
972;1945.4;597.43;3.25
973;1906.03;567.888;3.25
974;1891.08;569.842;3.25
975;1930.45;595.477;3.25
976;1957.61;573.748;3.25
977;1972.56;563.738;3.25
978;1977.45;567.888;3.25
979;1962.8;581.561;3.26
980;1940.52;585.467;3.26
981;1952.73;583.514;3.26
982;1994.84;552.019;3.26
983;2019.56;585.467;3.26
984;2031.77;573.748;3.26
985;2024.45;563.738;3.26
986;1992.4;573.748;3.26
987;1957.61;581.561;3.26
988;1960.36;581.561;3.26
989;1975.01;567.888;3.26
990;1979.89;555.925;3.26
991;1975.01;571.795;3.26
992;1952.73;591.571;3.26
993;1908.48;561.785;3.26
994;1895.96;575.701;3.27
995;1935.64;589.618;3.27
996;1962.8;573.748;3.27
997;1975.01;559.832;3.27
998;1979.89;571.795;3.27
999;1967.68;581.561;3.27
1000;1945.4;593.524;3.27
1001;1957.61;579.608;3.27
1002;2004.61;561.785;3.27
1003;2024.45;589.618;3.27
1004;2039.09;571.795;3.27
1005;2026.89;565.935;3.27
1006;1994.84;573.748;3.27
1007;1965.24;587.42;3.27
1008;1965.24;577.654;3.27
1009;1979.89;567.888;3.28
1010;1982.33;552.019;3.28
1011;1977.45;575.701;3.28
1012;1955.17;585.467;3.28
1013;1915.8;555.925;3.28
1014;1900.85;581.561;3.28
1015;1942.96;583.514;3.28
1016;1967.68;573.748;3.28
1017;1982.33;561.785;3.28
1018;1984.77;571.795;3.28
1019;1972.56;577.654;3.28
1020;1950.29;599.384;3.28
1021;1965.24;573.748;3.28
1022;2009.49;563.738;3.28
1023;2029.33;579.608;3.28
1024;2041.84;581.561;3.28
1025;2031.77;553.972;3.29
1026;1999.73;575.701;3.29
1027;1967.68;579.608;3.29
1028;1970.12;581.561;3.29
1029;1984.77;561.785;3.29
1030;1984.77;563.738;3.29
1031;1982.33;563.738;3.29
1032;1957.61;599.384;3.29
1033;1915.8;567.888;3.29
1034;1903.29;569.842;3.29
1035;1945.4;595.477;3.29
1036;1970.12;573.748;3.29
1037;1984.77;561.785;3.29
1038;1992.4;567.888;3.29
1039;1977.45;583.514;3.29
1040;1952.73;585.467;3.3
1041;1967.68;585.467;3.3
1042;2009.49;553.972;3.3
1043;2034.21;585.467;3.3
1044;2046.72;575.701;3.3
1045;2036.65;557.878;3.3
1046;2002.17;575.701;3.3
1047;1972.56;583.514;3.3
1048;1972.56;581.561;3.3
1049;1987.52;563.738;3.3
1050;1992.4;557.878;3.3
1051;1987.52;569.842;3.3
1052;1962.8;591.571;3.3
1053;1920.68;559.832;3.3
1054;1910.92;573.748;3.3
1055;1952.73;587.42;3.31
1056;1979.89;573.748;3.31
1057;1992.4;559.832;3.31
1058;1994.84;571.795;3.31
1059;1982.33;581.561;3.31
1060;1960.36;589.618;3.31
1061;1975.01;577.654;3.31
1062;2019.56;559.832;3.31
1063;2041.84;589.618;3.31
1064;2054.05;569.842;3.31
1065;2044.28;563.738;3.31
1066;2011.93;575.701;3.31
1067;1982.33;583.514;3.31
1068;1982.33;579.608;3.31
1069;1997.28;569.842;3.31
1070;2002.17;552.019;3.31
1071;1997.28;575.701;3.32
1072;1967.68;587.42;3.32
1073;1930.45;557.878;3.32
1074;1918.24;579.608;3.32
1075;1962.8;583.514;3.32
1076;1987.52;573.748;3.32
1077;1999.73;559.832;3.32
1078;2004.61;573.748;3.32
1079;1989.96;579.608;3.32
1080;1967.68;597.43;3.32
1081;1982.33;575.701;3.32
1082;2029.33;563.738;3.32
1083;2051.61;593.524;3.32
1084;2063.81;573.748;3.32
1085;2051.61;561.785;3.32
1086;2017.12;573.748;3.32
1087;1984.77;583.514;3.33
1088;1989.96;579.608;3.33
1089;2002.17;569.842;3.33
1090;2007.05;557.878;3.33
1091;2002.17;571.795;3.33
1092;1975.01;589.618;3.33
1093;1935.64;559.832;3.33
1094;1923.12;577.654;3.33
1095;1970.12;585.467;3.33
1096;1992.4;573.748;3.33
1097;2007.05;561.785;3.33
1098;2009.49;569.842;3.33
1099;1994.84;579.608;3.33
1100;1970.12;593.524;3.33
1101;1987.52;579.608;3.33
1102;2034.21;561.785;3.33
1103;2056.49;591.571;3.34
1104;2069;571.795;3.34
1105;2056.49;567.888;3.34
1106;2024.45;575.701;3.34
1107;1989.96;587.42;3.34
1108;1994.84;577.654;3.34
1109;2009.49;569.842;3.34
1110;2014.68;550.066;3.34
1111;2004.61;575.701;3.34
1112;1979.89;585.467;3.34
1113;1938.08;555.925;3.34
1114;1930.45;581.561;3.34
1115;1970.12;599.384;3.34
1116;1994.84;571.795;3.34
1117;2009.49;569.842;3.34
1118;2011.93;565.935;3.34
1119;1997.28;583.514;3.35
1120;1975.01;579.608;3.35
1121;1992.4;589.618;3.35
1122;2036.65;550.066;3.35
1123;2061.37;581.561;3.35
1124;2071.44;579.608;3.35
1125;2058.93;553.972;3.35
1126;2022;575.701;3.35
1127;1989.96;577.654;3.35
1128;1994.84;581.561;3.35
1129;2011.93;563.738;3.35
1130;2011.93;559.832;3.35
1131;2004.61;565.935;3.35
1132;1977.45;595.477;3.35
1133;1938.08;565.935;3.35
1134;1928.01;571.795;3.35
1135;1975.01;593.524;3.36
1136;1997.28;573.748;3.36
1137;2011.93;561.785;3.36
1138;2017.12;567.888;3.36
1139;1997.28;581.561;3.36
1140;1975.01;587.42;3.36
1141;1997.28;585.467;3.36
1142;2041.84;553.972;3.36
1143;2061.37;583.514;3.36
1144;2071.44;573.748;3.36
1145;2058.93;559.832;3.36
1146;2024.45;575.701;3.36
1147;1992.4;585.467;3.36
1148;1994.84;579.608;3.36
1149;2014.68;567.888;3.36
1150;2017.12;555.925;3.36
1151;2009.49;569.842;3.37
1152;1979.89;593.524;3.37
1153;1940.52;557.878;3.37
1154;1933.2;573.748;3.37
1155;1975.01;587.42;3.37
1156;2002.17;571.795;3.37
1157;2011.93;559.832;3.37
1158;2014.68;567.888;3.37
1159;1999.73;579.608;3.37
1160;1975.01;591.571;3.37
1161;1992.4;579.608;3.37
1162;2041.84;557.878;3.37
1163;2063.81;589.618;3.37
1164;2073.89;569.842;3.37
1165;2061.37;565.935;3.37
1166;2026.89;575.701;3.37
1167;1992.4;587.42;3.38
1168;1997.28;577.654;3.38
1169;2011.93;567.888;3.38
1170;2017.12;552.019;3.38
1171;2009.49;575.701;3.38
1172;1977.45;585.467;3.38
1173;1938.08;555.925;3.38
1174;1933.2;581.561;3.38
1175;1975.01;583.514;3.38
1176;1999.73;575.701;3.38
1177;2009.49;571.795;3.38
1178;2014.68;561.785;3.38
1179;1997.28;585.467;3.38
1180;1975.01;577.654;3.38
1181;1994.84;587.42;3.38
1182;2041.84;550.066;3.38
1183;2063.81;577.654;3.38
1184;2071.44;579.608;3.39
1185;2058.93;553.972;3.39
1186;2024.45;573.748;3.39
1187;1992.4;579.608;3.39
1188;1999.73;583.514;3.39
1189;2014.68;563.738;3.39
1190;2019.56;565.935;3.39
1191;2009.49;561.785;3.39
1192;1982.33;599.384;3.39
1193;1942.96;567.888;3.39
1194;1938.08;567.888;3.39
1195;1979.89;595.477;3.39
1196;2004.61;571.795;3.39
1197;2017.12;559.832;3.39
1198;2014.68;567.888;3.39
1199;1997.28;583.514;3.39
1200;1972.56;583.514;3.39
1201;1992.4;585.467;3.4
1202;2034.21;552.019;3.4
1203;2058.93;579.608;3.4
1204;2066.26;577.654;3.4
1205;2054.05;559.832;3.4
1206;2017.12;571.795;3.4
1207;1992.4;587.42;3.4
1208;2007.05;579.608;3.4
1209;2024.45;563.738;3.4
1210;2029.33;557.878;3.4
1211;2024.45;565.935;3.4
1212;1997.28;593.524;3.4
1213;1955.17;561.785;3.4
1214;1950.29;571.795;3.4
1215;1987.52;587.42;3.4
1216;2007.05;571.795;3.4
1217;2017.12;555.925;3.4
1218;2017.12;567.888;3.41
1219;1997.28;583.514;3.41
1220;1972.56;591.571;3.41
1221;1992.4;579.608;3.41
1222;2034.21;557.878;3.41
1223;2054.05;587.42;3.41
1224;2063.81;569.842;3.41
1225;2051.61;561.785;3.41
1226;2017.12;571.795;3.41
1227;1992.4;587.42;3.41
1228;2007.05;577.654;3.41
1229;2024.45;565.935;3.41
1230;2029.33;552.019;3.41
1231;2022;575.701;3.41
1232;1992.4;587.42;3.41
1233;1955.17;555.925;3.41
1234;1947.84;577.654;3.41
1235;1984.77;581.561;3.42
1236;2002.17;571.795;3.42
1237;2011.93;555.925;3.42
1238;2011.93;567.888;3.42
1239;1989.96;581.561;3.42
1240;1967.68;587.42;3.42
1241;1987.52;581.561;3.42
1242;2031.77;553.972;3.42
1243;2051.61;583.514;3.42
1244;2061.37;573.748;3.42
1245;2049.17;561.785;3.42
1246;2017.12;573.748;3.42
1247;1992.4;589.618;3.42
1248;2002.17;579.608;3.42
1249;2019.56;563.738;3.42
1250;2024.45;555.925;3.42
1251;2022;569.842;3.42
1252;1992.4;589.618;3.42
1253;1955.17;561.785;3.43
1254;1945.4;573.748;3.43
1255;1982.33;587.42;3.43
1256;2007.05;573.748;3.43
1257;2017.12;557.878;3.43
1258;2014.68;571.795;3.43
1259;1992.4;579.608;3.43
1260;1967.68;591.571;3.43
1261;1989.96;577.654;3.43
1262;2034.21;557.878;3.43
1263;2054.05;587.42;3.43
1264;2061.37;571.795;3.43
1265;2046.72;563.738;3.43
1266;2017.12;575.701;3.43
1267;1989.96;587.42;3.43
1268;2007.05;577.654;3.43
1269;2022;559.832;3.43
1270;2026.89;569.842;3.43
1271;2019.56;553.972;3.44
1272;1992.4;599.384;3.44
1273;1952.73;573.748;3.44
1274;1945.4;563.738;3.44
1275;1984.77;595.477;3.44
1276;2004.61;571.795;3.44
1277;2014.68;565.935;3.44
1278;2011.93;563.738;3.44
1279;1987.52;585.467;3.44
1280;1967.68;577.654;3.44
1281;1989.96;589.618;3.44
1282;2034.21;548.112;3.44
1283;2054.05;575.701;3.44
1284;2058.93;579.608;3.44
1285;2046.72;553.972;3.44
1286;2011.93;571.795;3.44
1287;1989.96;583.514;3.44
1288;2004.61;581.561;3.44
1289;2019.56;561.785;3.45
1290;2024.45;563.738;3.45
1291;2019.56;561.785;3.45
1292;1984.77;597.43;3.45
1293;1950.29;569.842;3.45
1294;1945.4;569.842;3.45
1295;1982.33;595.477;3.45
1296;1999.73;573.748;3.45
1297;2011.93;557.878;3.45
1298;2007.05;565.935;3.45
1299;1984.77;579.608;3.45
1300;1962.8;583.514;3.45
1301;1989.96;585.467;3.45
1302;2029.33;552.019;3.45
1303;2049.17;581.561;3.45
1304;2058.93;573.748;3.45
1305;2044.28;559.832;3.45
1306;2011.93;573.748;3.45
1307;1987.52;585.467;3.45
1308;2002.17;577.654;3.46
1309;2019.56;563.738;3.46
1310;2026.89;555.925;3.46
1311;2017.12;567.888;3.46
1312;1984.77;589.618;3.46
1313;1947.84;561.785;3.46
1314;1942.96;571.795;3.46
1315;1984.77;585.467;3.46
1316;2004.61;571.795;3.46
1317;2011.93;555.925;3.46
1318;2007.05;569.842;3.46
1319;1984.77;579.608;3.46
1320;1962.8;591.571;3.46
1321;1989.96;577.654;3.46
1322;2031.77;557.878;3.46
1323;2049.17;585.467;3.46
1324;2058.93;571.795;3.46
1325;2049.17;563.738;3.47
1326;2017.12;573.748;3.47
1327;1987.52;587.42;3.47
1328;1997.28;577.654;3.47
1329;2014.68;565.935;3.47
1330;2022;569.842;3.47
1331;2017.12;553.972;3.47
1332;1992.4;599.384;3.47
1333;1952.73;573.748;3.47
1334;1940.52;563.738;3.47
1335;1977.45;593.524;3.47
1336;1997.28;573.748;3.47
1337;2009.49;567.888;3.47
1338;2011.93;565.935;3.47
1339;1989.96;585.467;3.47
1340;1965.24;577.654;3.47
1341;1979.89;589.618;3.47
1342;2024.45;548.112;3.47
1343;2044.28;573.748;3.48
1344;2056.49;577.654;3.48
1345;2049.17;553.972;3.48
1346;2014.68;571.795;3.48
1347;1984.77;577.654;3.48
1348;1997.28;581.561;3.48
1349;2017.12;561.785;3.48
1350;2022;563.738;3.48
1351;2019.56;559.832;3.48
1352;1992.4;595.477;3.48
1353;1952.73;567.888;3.48
1354;1940.52;567.888;3.48
1355;1975.01;595.477;3.48
1356;1994.84;571.795;3.48
1357;2007.05;561.785;3.48
1358;2004.61;565.935;3.48
1359;1987.52;583.514;3.48
1360;1962.8;581.561;3.49
1361;1977.45;583.514;3.49
1362;2024.45;552.019;3.49
1363;2044.28;577.654;3.49
1364;2056.49;575.701;3.49
1365;2049.17;557.878;3.49
1366;2014.68;573.748;3.49
1367;1987.52;585.467;3.49
1368;1999.73;577.654;3.49
1369;2017.12;565.935;3.49
1370;2022;555.925;3.49
1371;2019.56;567.888;3.49
1372;1989.96;593.524;3.49
1373;1950.29;561.785;3.49
1374;1935.64;573.748;3.49
1375;1972.56;585.467;3.49
1376;1994.84;569.842;3.49
1377;2004.61;553.972;3.49
1378;2004.61;567.888;3.5
1379;1984.77;577.654;3.5
1380;1962.8;587.42;3.5
1381;1979.89;577.654;3.5
1382;2024.45;555.925;3.5
1383;2044.28;585.467;3.5
1384;2056.49;569.842;3.5
1385;2046.72;561.785;3.5
1386;2014.68;569.842;3.5
1387;1987.52;583.514;3.5
1388;1997.28;577.654;3.5
1389;2014.68;565.935;3.5
1390;2019.56;553.972;3.5
1391;2017.12;563.738;3.5
1392;1987.52;593.524;3.5
1393;1947.84;567.888;3.5
1394;1935.64;567.888;3.5
1395;1972.56;591.571;3.5
1396;1992.4;573.748;3.51
1397;2002.17;557.878;3.51
1398;2002.17;567.888;3.51
1399;1982.33;581.561;3.51
1400;1957.61;585.467;3.51
1401;1977.45;583.514;3.51
1402;2022;553.972;3.51
1403;2041.84;581.561;3.51
1404;2054.05;571.795;3.51
1405;2044.28;561.785;3.51
1406;2014.68;573.748;3.51
1407;1982.33;587.42;3.51
1408;1997.28;577.654;3.51
1409;2011.93;565.935;3.51
1410;2017.12;555.925;3.51
1411;2014.68;567.888;3.51
1412;1984.77;591.571;3.51
1413;1947.84;559.832;3.51
1414;1935.64;573.748;3.52
1415;1975.01;585.467;3.52
1416;1992.4;571.795;3.52
1417;2002.17;555.925;3.52
1418;2002.17;569.842;3.52
1419;1982.33;577.654;3.52
1420;1957.61;589.618;3.52
1421;1977.45;581.561;3.52
1422;2017.12;548.112;3.52
1423;2039.09;571.795;3.52
1424;2046.72;581.561;3.52
1425;2034.21;552.019;3.52
1426;2004.61;571.795;3.52
1427;1977.45;571.795;3.52
1428;1987.52;581.561;3.52
1429;2009.49;557.878;3.52
1430;2011.93;569.842;3.52
1431;2011.93;553.972;3.52
1432;1984.77;597.43;3.53
1433;1945.4;571.795;3.53
1434;1933.2;565.935;3.53
1435;1972.56;595.477;3.53
1436;1992.4;571.795;3.53
1437;2004.61;567.888;3.53
1438;2002.17;565.935;3.53
1439;1982.33;585.467;3.53
1440;1957.61;577.654;3.53
1441;1975.01;589.618;3.53
1442;2017.12;546.159;3.53
1443;2039.09;573.748;3.53
1444;2049.17;579.608;3.53
1445;2034.21;552.019;3.53
1446;2002.17;571.795;3.53
1447;1977.45;577.654;3.53
1448;1989.96;579.608;3.53
1449;2004.61;563.738;3.53
1450;2011.93;561.785;3.54
1451;2007.05;559.832;3.54
1452;1979.89;595.477;3.54
1453;1940.52;567.888;3.54
1454;1933.2;567.888;3.54
1455;1975.01;593.524;3.54
1456;1989.96;571.795;3.54
1457;2002.17;555.925;3.54
1458;1999.73;565.935;3.54
1459;1979.89;579.608;3.54
1460;1952.73;581.561;3.54
1461;1975.01;583.514;3.54
1462;2017.12;552.019;3.54
1463;2036.65;579.608;3.54
1464;2046.72;573.748;3.54
1465;2031.77;553.972;3.54
1466;2002.17;571.795;3.54
1467;1977.45;585.467;3.54
1468;1982.33;577.654;3.55
1469;2004.61;563.738;3.55
1470;2011.93;555.925;3.55
1471;2004.61;565.935;3.55
1472;1982.33;591.571;3.55
1473;1940.52;561.785;3.55
1474;1935.64;571.795;3.55
1475;1972.56;583.514;3.55
1476;1989.96;571.795;3.55
1477;2002.17;555.925;3.55
1478;1997.28;569.842;3.55
1479;1977.45;579.608;3.55
1480;1952.73;587.42;3.55
1481;1972.56;577.654;3.55
1482;2017.12;553.972;3.55
1483;2036.65;571.795;3.55
1484;2046.72;581.561;3.55
1485;2029.33;552.019;3.55
1486;1999.73;571.795;3.56
1487;1972.56;567.888;3.56
1488;1984.77;581.561;3.56
1489;2002.17;555.925;3.56
1490;2009.49;567.888;3.56
1491;2004.61;552.019;3.56
1492;1977.45;599.384;3.56
1493;1938.08;573.748;3.56
1494;1930.45;561.785;3.56
1495;1972.56;593.524;3.56
1496;1989.96;571.795;3.56
1497;2002.17;565.935;3.56
1498;1997.28;559.832;3.56
1499;1977.45;583.514;3.56
1500;1955.17;573.748;3.56
1501;1975.01;589.618;3.56
1502;2011.93;548.112;3.56
1503;2026.89;573.748;3.56
1504;2039.09;577.654;3.57
1505;2039.09;550.066;3.57
1506;2011.93;569.842;3.57
1507;1977.45;577.654;3.57
1508;1975.01;579.608;3.57
1509;1997.28;559.832;3.57
1510;2004.61;561.785;3.57
1511;2007.05;557.878;3.57
1512;1989.96;597.43;3.57
1513;1952.73;567.888;3.57
1514;1925.57;565.935;3.57
1515;1957.61;591.571;3.57
1516;1982.33;567.888;3.57
1517;1994.84;563.738;3.57
1518;1999.73;565.935;3.57
1519;1984.77;583.514;3.57
1520;1960.36;579.608;3.57
1521;1955.17;585.467;3.57
1522;2002.17;552.019;3.58
1523;2026.89;579.608;3.58
1524;2039.09;571.795;3.58
1525;2036.65;555.925;3.58
1526;2009.49;571.795;3.58
1527;1975.01;587.42;3.58
1528;1975.01;579.608;3.58
1529;1997.28;563.738;3.58
1530;2007.05;555.925;3.58
1531;2007.05;563.738;3.58
1532;1989.96;591.571;3.58
1533;1950.29;559.832;3.58
1534;1925.57;567.888;3.58
1535;1957.61;587.42;3.58
1536;1979.89;571.795;3.58
1537;1994.84;553.972;3.58
1538;1997.28;567.888;3.58
1539;1982.33;577.654;3.58
1540;1955.17;589.618;3.59
1541;1955.17;577.654;3.59
1542;1999.73;553.972;3.59
1543;2026.89;585.467;3.59
1544;2039.09;575.701;3.59
1545;2034.21;552.019;3.59
1546;2007.05;571.795;3.59
1547;1975.01;579.608;3.59
1548;1972.56;577.654;3.59
1549;1997.28;557.878;3.59
1550;2004.61;561.785;3.59
1551;2004.61;559.832;3.59
1552;1987.52;595.477;3.59
1553;1950.29;563.738;3.59
1554;1923.12;567.888;3.59
1555;1952.73;591.571;3.59
1556;1982.33;569.842;3.59
1557;1992.4;555.925;3.59
1558;1997.28;563.738;3.6
1559;1982.33;581.561;3.6
1560;1955.17;579.608;3.6
1561;1955.17;583.514;3.6
1562;1999.73;552.019;3.6
1563;2024.45;579.608;3.6
1564;2039.09;571.795;3.6
1565;2034.21;557.878;3.6
1566;2007.05;571.795;3.6
1567;1975.01;583.514;3.6
1568;1977.45;577.654;3.6
1569;1997.28;563.738;3.6
1570;2007.05;553.972;3.6
1571;2007.05;565.935;3.6
1572;1987.52;589.618;3.6
1573;1950.29;559.832;3.6
1574;1925.57;569.842;3.6
1575;1955.17;591.571;3.6
1576;1982.33;571.795;3.6
1577;1994.84;569.842;3.61
1578;1997.28;559.832;3.61
1579;1982.33;587.42;3.61
1580;1957.61;571.795;3.61
1581;1957.61;591.571;3.61
1582;2002.17;546.159;3.61
1583;2024.45;567.888;3.61
1584;2036.65;581.561;3.61
1585;2036.65;552.019;3.61
1586;2007.05;571.795;3.61
1587;1975.01;573.748;3.61
1588;1977.45;581.561;3.61
1589;1994.84;552.019;3.61
1590;2004.61;565.935;3.61
1591;2009.49;555.925;3.61
1592;1989.96;597.43;3.61
1593;1952.73;569.842;3.61
1594;1928.01;561.785;3.61
1595;1960.36;595.477;3.62
1596;1982.33;569.842;3.62
1597;1994.84;565.935;3.62
1598;1999.73;563.738;3.62
1599;1982.33;583.514;3.62
1600;1955.17;571.795;3.62
1601;1957.61;587.42;3.62
1602;1997.28;544.206;3.62
1603;2022;575.701;3.62
1604;2036.65;577.654;3.62
1605;2031.77;550.066;3.62
1606;2002.17;571.795;3.62
1607;1970.12;577.654;3.62
1608;1975.01;579.608;3.62
1609;1994.84;557.878;3.62
1610;2002.17;561.785;3.62
1611;2004.61;557.878;3.62
1612;1984.77;595.477;3.62
1613;1945.4;567.888;3.62
1614;1925.57;565.935;3.63
1615;1957.61;593.524;3.63
1616;1982.33;569.842;3.63
1617;1992.4;559.832;3.63
1618;1997.28;563.738;3.63
1619;1979.89;579.608;3.63
1620;1950.29;579.608;3.63
1621;1957.61;587.42;3.63
1622;1997.28;548.112;3.63
1623;2022;577.654;3.63
1624;2034.21;573.748;3.63
1625;2029.33;555.925;3.63
1626;1999.73;571.795;3.63
1627;1967.68;583.514;3.63
1628;1970.12;577.654;3.63
1629;1994.84;559.832;3.63
1630;2002.17;553.972;3.63
1631;2002.17;561.785;3.63
1632;1982.33;591.571;3.64
1633;1947.84;559.832;3.64
1634;1923.12;569.842;3.64
1635;1957.61;585.467;3.64
1636;1982.33;569.842;3.64
1637;1994.84;569.842;3.64
1638;1997.28;557.878;3.64
1639;1979.89;587.42;3.64
1640;1952.73;569.842;3.64
1641;1955.17;591.571;3.64
1642;1997.28;546.159;3.64
1643;2022;567.888;3.64
1644;2031.77;579.608;3.64
1645;2026.89;552.019;3.64
1646;1999.73;569.842;3.64
1647;1967.68;571.795;3.64
1648;1975.01;581.561;3.64
1649;1994.84;553.972;3.64
1650;2002.17;563.738;3.64
1651;2004.61;552.019;3.65
1652;1982.33;597.43;3.65
1653;1945.4;569.842;3.65
1654;1923.12;561.785;3.65
1655;1957.61;593.524;3.65
1656;1982.33;569.842;3.65
1657;1992.4;565.935;3.65
1658;1994.84;561.785;3.65
1659;1977.45;585.467;3.65
1660;1952.73;569.842;3.65
1661;1955.17;591.571;3.65
1662;1997.28;544.206;3.65
1663;2019.56;569.842;3.65
1664;2031.77;575.701;3.65
1665;2029.33;552.019;3.65
1666;1997.28;569.842;3.65
1667;1967.68;573.748;3.65
1668;1972.56;577.654;3.65
1669;1992.4;557.878;3.65
1670;1997.28;561.785;3.66
1671;1999.73;555.925;3.66
1672;1979.89;593.524;3.66
1673;1940.52;567.888;3.66
1674;1920.68;563.738;3.66
1675;1952.73;593.524;3.66
1676;1977.45;569.842;3.66
1677;1984.77;559.832;3.66
1678;1989.96;561.785;3.66
1679;1975.01;579.608;3.66
1680;1945.4;579.608;3.66
1681;1952.73;583.514;3.66
1682;1997.28;546.159;3.66
1683;2019.56;575.701;3.66
1684;2031.77;573.748;3.66
1685;2026.89;552.019;3.66
1686;1999.73;569.842;3.66
1687;1970.12;581.561;3.66
1688;1975.01;577.654;3.67
1689;1994.84;561.785;3.67
1690;2002.17;555.925;3.67
1691;2002.17;561.785;3.67
1692;1982.33;593.524;3.67
1693;1940.52;563.738;3.67
1694;1918.24;565.935;3.67
1695;1952.73;587.42;3.67
1696;1975.01;569.842;3.67
1697;1984.77;553.972;3.67
1698;1984.77;559.832;3.67
1699;1972.56;583.514;3.67
1700;1942.96;577.654;3.67
1701;1950.29;585.467;3.67
1702;1997.28;546.159;3.67
1703;2022;571.795;3.67
1704;2031.77;575.701;3.67
1705;2026.89;550.066;3.67
1706;1997.28;571.795;3.67
1707;1972.56;575.701;3.68
1708;1975.01;577.654;3.68
1709;1997.28;559.832;3.68
1710;1999.73;559.832;3.68
1711;2002.17;557.878;3.68
1712;1979.89;595.477;3.68
1713;1940.52;563.738;3.68
1714;1915.8;563.738;3.68
1715;1950.29;589.618;3.68
1716;1975.01;569.842;3.68
1717;1984.77;559.832;3.68
1718;1984.77;563.738;3.68
1719;1970.12;579.608;3.68
1720;1940.52;577.654;3.68
1721;1947.84;579.608;3.68
1722;1997.28;548.112;3.68
1723;2019.56;577.654;3.68
1724;2031.77;571.795;3.68
1725;2026.89;553.972;3.69
1726;1994.84;569.842;3.69
1727;1967.68;579.608;3.69
1728;1972.56;573.748;3.69
1729;1992.4;550.066;3.69
1730;2002.17;565.935;3.69
1731;2002.17;548.112;3.69
1732;1977.45;593.524;3.69
1733;1940.52;573.748;3.69
1734;1920.68;553.972;3.69
1735;1955.17;587.42;3.69
1736;1977.45;569.842;3.69
1737;1984.77;569.842;3.69
1738;1984.77;557.878;3.69
1739;1967.68;587.42;3.69
1740;1942.96;569.842;3.69
1741;1952.73;591.571;3.69
1742;1997.28;544.206;3.69
1743;2019.56;565.935;3.69
1744;2034.21;581.561;3.7
1745;2024.45;552.019;3.7
1746;1997.28;569.842;3.7
1747;1972.56;567.888;3.7
1748;1975.01;579.608;3.7
1749;1997.28;553.972;3.7
1750;2004.61;563.738;3.7
1751;2002.17;552.019;3.7
1752;1979.89;597.43;3.7
1753;1938.08;569.842;3.7
1754;1918.24;559.832;3.7
1755;1952.73;593.524;3.7
1756;1975.01;567.888;3.7
1757;1984.77;563.738;3.7
1758;1984.77;559.832;3.7
1759;1967.68;583.514;3.7
1760;1940.52;573.748;3.7
1761;1947.84;585.467;3.7
1762;1992.4;544.206;3.7
1763;2014.68;571.795;3.71
1764;2024.45;577.654;3.71
1765;2017.12;548.112;3.71
1766;1989.96;567.888;3.71
1767;1960.36;575.701;3.71
1768;1965.24;579.608;3.71
1769;1984.77;555.925;3.71
1770;1994.84;559.832;3.71
1771;1994.84;555.925;3.71
1772;1972.56;595.477;3.71
1773;1930.45;565.935;3.71
1774;1910.92;561.785;3.71
1775;1947.84;593.524;3.71
1776;1970.12;569.842;3.71
1777;1979.89;559.832;3.71
1778;1982.33;561.785;3.71
1779;1962.8;581.561;3.71
1780;1938.08;579.608;3.71
1781;1947.84;583.514;3.71
1782;1992.4;546.159;3.72
1783;2014.68;577.654;3.72
1784;2026.89;571.795;3.72
1785;2022;552.019;3.72
1786;1992.4;567.888;3.72
1787;1962.8;579.608;3.72
1788;1970.12;577.654;3.72
1789;1987.52;557.878;3.72
1790;1994.84;569.842;3.72
1791;1994.84;544.206;3.72
1792;1970.12;591.571;3.72
1793;1930.45;573.748;3.72
1794;1913.36;553.972;3.72
1795;1950.29;587.42;3.72
1796;1975.01;571.795;3.72
1797;1982.33;569.842;3.72
1798;1982.33;557.878;3.72
1799;1967.68;585.467;3.72
1800;1940.52;567.888;3.72
1801;1952.73;593.524;3.73
1802;1994.84;546.159;3.73
1803;2017.12;565.935;3.73
1804;2022;583.514;3.73
1805;2019.56;552.019;3.73
1806;1987.52;567.888;3.73
1807;1962.8;567.888;3.73
1808;1972.56;579.608;3.73
1809;1989.96;553.972;3.73
1810;1997.28;563.738;3.73
1811;1992.4;552.019;3.73
1812;1972.56;597.43;3.73
1813;1930.45;569.842;3.73
1814;1915.8;557.878;3.73
1815;1950.29;589.618;3.73
1816;1972.56;567.888;3.73
1817;1979.89;563.738;3.73
1818;1979.89;559.832;3.73
1819;1965.24;581.561;3.73
1820;1938.08;571.795;3.73
1821;1947.84;587.42;3.74
1822;1989.96;544.206;3.74
1823;2011.93;569.842;3.74
1824;2022;575.701;3.74
1825;2014.68;548.112;3.74
1826;1982.33;569.842;3.74
1827;1955.17;573.748;3.74
1828;1962.8;575.701;3.74
1829;1982.33;553.972;3.74
1830;1989.96;559.832;3.74
1831;1987.52;553.972;3.74
1832;1965.24;595.477;3.74
1833;1923.12;565.935;3.74
1834;1910.92;561.785;3.74
1835;1947.84;593.524;3.74
1836;1967.68;569.842;3.74
1837;1979.89;559.832;3.74
1838;1977.45;563.738;3.74
1839;1960.36;579.608;3.74
1840;1930.45;575.701;3.75
1841;1947.84;583.514;3.75
1842;1989.96;544.206;3.75
1843;2009.49;573.748;3.75
1844;2019.56;575.701;3.75
1845;2011.93;550.066;3.75
1846;1982.33;569.842;3.75
1847;1955.17;577.654;3.75
1848;1965.24;579.608;3.75
1849;1984.77;559.832;3.75
1850;1989.96;555.925;3.75
1851;1989.96;552.019;3.75
1852;1965.24;595.477;3.75
1853;1928.01;567.888;3.75
1854;1915.8;559.832;3.75
1855;1933.2;591.571;3.75
1856;1965.24;567.888;3.75
1857;1975.01;561.785;3.75
1858;1982.33;559.832;3.75
1859;1970.12;581.561;3.75
1860;1942.96;573.748;3.76
1861;1935.64;585.467;3.76
1862;1975.01;542.009;3.76
1863;2004.61;569.842;3.76
1864;2019.56;575.701;3.76
1865;2022;548.112;3.76
1866;1997.28;567.888;3.76
1867;1965.24;573.748;3.76
1868;1955.17;575.701;3.76
1869;1982.33;557.878;3.76
1870;1987.52;557.878;3.76
1871;1992.4;555.925;3.76
1872;1977.45;595.477;3.76
1873;1938.08;563.738;3.76
1874;1910.92;559.832;3.76
1875;1933.2;589.618;3.76
1876;1960.36;567.888;3.76
1877;1972.56;555.925;3.76
1878;1982.33;561.785;3.76
1879;1967.68;579.608;3.76
1880;1940.52;577.654;3.76
1881;1933.2;579.608;3.77
1882;1975.01;550.066;3.77
1883;2002.17;563.738;3.77
1884;2014.68;583.514;3.77
1885;2014.68;550.066;3.77
1886;1989.96;567.888;3.77
1887;1960.36;563.738;3.77
1888;1952.73;581.561;3.77
1889;1975.01;550.066;3.77
1890;1982.33;563.738;3.77
1891;1984.77;546.159;3.77
1892;1970.12;593.524;3.77
1893;1930.45;571.795;3.77
1894;1900.85;553.972;3.77
1895;1923.12;585.467;3.77
1896;1955.17;567.888;3.77
1897;1965.24;567.888;3.77
1898;1972.56;561.785;3.77
1899;1960.36;587.42;3.77
1900;1933.2;569.842;3.78
1901;1928.01;589.618;3.78
1902;1975.01;544.206;3.78
1903;1999.73;563.738;3.78
1904;2017.12;581.561;3.78
1905;2017.12;550.066;3.78
1906;1992.4;567.888;3.78
1907;1960.36;567.888;3.78
1908;1955.17;579.608;3.78
1909;1977.45;550.066;3.78
1910;1984.77;565.935;3.78
1911;1984.77;548.112;3.78
