<WeldAnalyseData xmlns:i="http:www.w3.org/2001/XMLSchema-instance">
<WeldParameter>
<TimeStamp>DT#2023-12-06-09:54:24</TimeStamp>
<Generator>SG-22-10000</Generator>
<GenFreq>20</GenFreq>
<MaxForce>8000</MaxForce>
<MaxPower>10000</MaxPower>
<RunupPressure>1.5</RunupPressure>
<RunupDist>10</RunupDist>
<RunPress>0.8</RunPress>
<ShakeDelay>0.03</ShakeDelay>
<ShakeTime>0.3</ShakeTime>
<RunBackPress1>6</RunBackPress1>
<RunBackPress2>2</RunBackPress2>
<RunBackDist>1</RunBackDist>
<TrigValue>500</TrigValue>
<TrigModeUnit>W</TrigModeUnit>
<WeldModeUnit>Ws</WeldModeUnit>
<PressNr>0</PressNr>
<MaxLoss>1500</MaxLoss>
</WeldParameter>
<WeldSets>
<WeldSet>
<PressRiseTime>0</PressRiseTime>
<RunPressure>1</RunPressure>
<Amplitude>86</Amplitude>
<WeldMode>3270</WeldMode>
</WeldSet>
</WeldSets>
<WeldValue>
<WeldNr>2449</WeldNr>
<RecipeName>RickStyle</RecipeName>
<WeldTime>1918</WeldTime>
<DistDiff>3.7</DistDiff>
<DistAbs>78.24</DistAbs>
<Energy>3271.35</Energy>
<MaxPower>2063.36</MaxPower>
<CycleTime>6190</CycleTime>
<TrigForce>506.607</TrigForce>
<TrigDist>74.54</TrigDist>
<RunSpeed>69.2108</RunSpeed>
<MaxForce>595.477</MaxForce>
<LossPower>257.576</LossPower>
</WeldValue>
</WeldAnalyseData>
#CSV-START#
ms;Power[W];Force[N];Distance[mm]
1;0;0;0
2;0;502.701;0
3;0;504.654;0
4;0;504.654;0
5;0;504.654;0
6;0;504.654;0
7;0;504.654;0
8;0;498.795;0
9;0;480.972;0.0100021
10;0;461.196;0.0199966
11;18.9215;449.232;0.0299988
12;31.1289;445.326;0.0499954
13;46.083;435.56;0.0599976
14;68.0563;429.456;0.0800018
15;100.406;419.691;0.0899963
16;137.333;425.55;0.110001
17;166.936;415.784;0.120003
18;196.539;423.597;0.139999
19;226.142;407.971;0.150002
20;255.745;411.878;0.159996
21;282.907;419.691;0.18
22;310.068;405.774;0.190002
23;337.23;411.878;0.199997
24;352.184;413.831;0.220001
25;369.579;415.784;0.229996
26;389.111;407.971;0.239998
27;406.507;415.784;0.260002
28;423.597;401.868;0.269997
29;436.11;431.654;0.279999
30;445.875;425.55;0.290001
31;448.317;415.784;0.299995
32;453.505;435.56;0.309998
33;470.595;423.597;0.32
34;483.108;423.597;0.330002
35;487.991;415.784;0.339996
36;492.874;431.654;0.360001
37;497.757;427.503;0.370003
38;500.198;441.42;0.379997
39;515.152;417.737;0.389999
40;532.243;427.503;0.400002
41;542.314;441.42;0.409996
42;547.197;421.644;0.419998
43;552.08;431.654;0.43
44;547.197;435.56;0.440002
45;542.314;443.373;0.449997
46;544.755;429.456;0.459999
47;547.197;435.56;0.459999
48;547.197;421.644;0.470001
49;547.197;453.383;0.479996
50;542.314;441.42;0.489998
51;532.243;429.456;0.5
52;529.801;451.186;0.510002
53;539.872;441.42;0.519997
54;542.314;441.42;0.529999
55;544.755;435.56;0.540001
56;547.197;453.383;0.549995
57;544.755;447.279;0.559998
58;544.755;455.336;0.57
59;552.08;457.289;0.580002
60;569.475;445.326;0.589996
61;576.8;457.289;0.599998
62;579.241;453.383;0.610001
63;576.8;453.383;0.620003
64;571.917;455.336;0.620003
65;562.151;457.289;0.629997
66;562.151;453.383;0.639999
67;567.034;457.289;0.650002
68;567.034;453.383;0.659996
69;567.034;461.196;0.669998
70;559.404;467.055;0.669998
71;549.638;459.243;0.68
72;549.638;467.055;0.690002
73;556.963;469.008;0.699997
74;556.963;465.102;0.709999
75;556.963;463.149;0.709999
76;559.404;477.065;0.720001
77;554.521;470.962;0.729996
78;552.08;480.972;0.729996
79;564.592;475.112;0.739998
80;576.8;470.962;0.75
81;581.683;484.878;0.75
82;584.124;475.112;0.760002
83;581.683;477.065;0.769997
84;576.8;477.065;0.779999
85;567.034;484.878;0.779999
86;569.475;472.915;0.790001
87;569.475;479.019;0.799995
88;567.034;470.962;0.799995
89;567.034;484.878;0.809998
90;559.404;486.831;0.82
91;549.638;480.972;0.82
92;544.755;488.784;0.830002
93;556.963;488.784;0.830002
94;559.404;486.831;0.839996
95;562.151;480.972;0.849998
96;562.151;496.597;0.849998
97;559.404;494.644;0.860001
98;559.404;504.654;0.860001
99;567.034;492.691;0.870003
100;579.241;492.691;0.879997
101;589.312;502.701;0.879997
102;591.754;490.738;0.889999
103;591.754;492.691;0.889999
104;584.124;494.644;0.900002
105;576.8;500.748;0.900002
106;576.8;488.784;0.909996
107;579.241;498.795;0.909996
108;581.683;484.878;0.919998
109;576.8;506.607;0.919998
110;571.917;504.654;0.93
111;562.151;490.738;0.93
112;562.151;506.607;0.940002
113;571.917;504.654;0.940002
114;579.241;502.701;0.949997
115;579.241;492.691;0.949997
116;576.8;512.467;0.959999
117;576.8;502.701;0.959999
118;571.917;516.373;0.970001
119;584.124;498.795;0.970001
120;596.637;504.654;0.979996
121;603.961;516.373;0.979996
122;608.844;498.795;0.989998
123;603.961;504.654;0.989998
124;599.078;506.607;1
125;589.312;514.42;1
126;589.312;500.748;1.01
127;594.195;506.607;1.01
128;594.195;492.691;1.02
129;594.195;520.524;1.02
130;589.312;514.42;1.02
131;579.241;500.748;1.03
132;579.241;518.326;1.03
133;586.566;510.514;1.04
134;596.637;508.56;1.04
135;601.52;500.748;1.05
136;599.078;516.373;1.05
137;599.078;512.467;1.06
138;601.52;526.383;1.06
139;616.474;498.795;1.07
140;631.123;508.56;1.07
141;636.006;522.477;1.08
142;638.447;502.701;1.08
143;636.006;508.56;1.09
144;631.123;510.514;1.09
145;623.798;516.373;1.1
146;631.123;504.654;1.1
147;631.123;510.514;1.1
148;633.564;496.597;1.11
149;628.681;526.383;1.11
150;623.798;516.373;1.12
151;613.727;504.654;1.12
152;618.915;522.477;1.13
153;633.564;512.467;1.13
154;636.006;512.467;1.13
155;640.889;506.607;1.14
156;638.447;522.477;1.14
157;640.889;516.373;1.15
158;638.447;526.383;1.15
159;655.843;512.467;1.16
160;670.797;512.467;1.16
161;678.121;522.477;1.16
162;678.121;508.56;1.17
163;675.68;512.467;1.17
164;665.609;514.42;1.18
165;663.167;522.477;1.18
166;665.609;506.607;1.18
167;665.609;514.42;1.19
168;665.609;500.748;1.19
169;665.609;524.43;1.2
170;655.843;520.524;1.2
171;643.635;504.654;1.2
172;650.96;522.477;1.21
173;665.609;518.326;1.21
174;665.609;518.326;1.22
175;670.797;508.56;1.22
176;670.797;526.383;1.23
177;670.797;520.524;1.23
178;668.05;534.196;1.24
179;690.329;508.56;1.24
180;702.841;516.373;1.24
181;710.166;526.383;1.25
182;712.607;506.607;1.25
183;712.607;516.373;1.26
184;707.724;516.373;1.26
185;705.283;524.43;1.27
186;710.166;506.607;1.27
187;715.049;518.326;1.28
188;715.049;502.701;1.28
189;717.49;532.243;1.28
190;705.283;520.524;1.29
191;695.212;508.56;1.29
192;705.283;528.336;1.3
193;715.049;520.524;1.3
194;719.932;520.524;1.31
195;722.373;510.514;1.31
196;722.373;524.43;1.32
197;717.49;518.326;1.32
198;719.932;534.196;1.33
199;734.886;504.654;1.33
200;752.281;514.42;1.34
201;757.164;530.29;1.34
202;762.047;508.56;1.34
203;759.606;518.326;1.35
204;749.535;518.326;1.35
205;744.652;520.524;1.36
206;749.535;520.524;1.36
207;754.723;514.42;1.37
208;757.164;510.514;1.37
209;757.164;516.373;1.38
210;747.093;526.383;1.38
211;730.003;510.514;1.38
212;737.327;520.524;1.39
213;749.535;522.477;1.39
214;754.723;520.524;1.4
215;759.606;514.42;1.4
216;759.606;522.477;1.41
217;757.164;522.477;1.41
218;757.164;530.29;1.42
219;774.255;522.477;1.42
220;791.65;512.467;1.43
221;796.533;528.336;1.43
222;801.416;516.373;1.44
223;798.975;516.373;1.44
224;791.65;514.42;1.45
225;784.326;524.43;1.45
226;791.65;514.42;1.45
227;794.092;518.326;1.46
228;798.975;506.607;1.46
229;794.092;518.326;1.47
230;784.326;526.383;1.47
231;769.372;512.467;1.48
232;771.813;524.43;1.48
233;786.767;522.477;1.49
234;791.65;520.524;1.49
235;794.092;514.42;1.5
236;794.092;530.29;1.51
237;789.209;522.477;1.51
238;789.209;532.243;1.52
239;803.858;522.477;1.52
240;821.253;518.326;1.53
241;828.578;532.243;1.53
242;831.019;516.373;1.54
243;828.578;520.524;1.54
244;818.812;522.477;1.55
245;811.487;528.336;1.55
246;816.37;514.42;1.56
247;821.253;522.477;1.56
248;823.695;508.56;1.57
249;826.136;526.383;1.57
250;813.929;526.383;1.58
251;801.416;514.42;1.58
252;809.046;530.29;1.59
253;823.695;524.43;1.59
254;831.019;522.477;1.6
255;836.207;516.373;1.6
256;838.649;534.196;1.61
257;836.207;526.383;1.61
258;833.766;538.102;1.62
259;853.298;522.477;1.62
260;868.252;522.477;1.63
261;878.018;536.149;1.63
262;878.018;518.326;1.64
263;875.576;526.383;1.64
264;863.369;524.43;1.65
265;855.739;534.196;1.65
266;860.927;516.373;1.66
267;865.81;524.43;1.66
268;870.693;508.56;1.67
269;865.81;536.149;1.67
270;855.739;530.29;1.68
271;841.09;514.42;1.68
272;845.973;538.102;1.69
273;858.181;528.336;1.69
274;865.81;528.336;1.7
275;868.252;518.326;1.7
276;870.693;538.102;1.71
277;868.252;530.29;1.71
278;863.369;544.206;1.71
279;888.089;516.373;1.72
280;902.738;524.43;1.72
281;912.503;538.102;1.73
282;920.133;516.373;1.73
283;917.692;524.43;1.74
284;907.62;524.43;1.74
285;902.738;536.149;1.75
286;912.503;516.373;1.75
287;920.133;524.43;1.76
288;922.575;506.607;1.76
289;925.016;544.206;1.77
290;912.503;528.336;1.77
291;897.855;514.42;1.78
292;905.179;538.102;1.78
293;922.575;528.336;1.79
294;932.34;532.243;1.79
295;937.224;516.373;1.8
296;944.853;538.102;1.8
297;937.224;528.336;1.8
298;939.665;548.112;1.81
299;964.385;512.467;1.81
300;984.222;526.383;1.82
301;993.988;544.206;1.82
302;1004.06;516.373;1.83
303;999.176;524.43;1.83
304;989.105;526.383;1.84
305;984.222;534.196;1.84
306;993.988;530.29;1.85
307;1001.62;524.43;1.85
308;1006.5;518.326;1.85
309;1006.5;526.383;1.86
310;993.988;534.196;1.86
311;979.339;522.477;1.87
312;984.222;528.336;1.87
313;1004.06;534.196;1.88
314;1011.38;528.336;1.88
315;1021.15;520.524;1.89
316;1023.9;530.29;1.89
317;1018.71;528.336;1.89
318;1018.71;540.056;1.9
319;1038.54;530.29;1.9
320;1060.82;522.477;1.91
321;1070.59;538.102;1.91
322;1078.22;524.43;1.92
323;1075.47;524.43;1.92
324;1060.82;528.336;1.92
325;1053.5;534.196;1.93
326;1065.71;522.477;1.93
327;1073.03;524.43;1.94
328;1073.03;514.42;1.94
329;1075.47;530.29;1.95
330;1060.82;534.196;1.95
331;1043.43;520.524;1.96
332;1051.06;530.29;1.96
333;1068.15;530.29;1.96
334;1075.47;528.336;1.97
335;1083.1;518.326;1.97
336;1087.98;536.149;1.98
337;1083.1;530.29;1.98
338;1073.03;542.009;1.99
339;1095.31;524.43;1.99
340;1115.15;522.477;2
341;1124.91;540.056;2
342;1132.24;522.477;2
343;1124.91;524.43;2.01
344;1115.15;526.383;2.01
345;1105.08;536.149;2.02
346;1115.15;518.326;2.02
347;1122.47;526.383;2.03
348;1124.91;510.514;2.03
349;1127.35;534.196;2.04
350;1112.7;536.149;2.04
351;1092.87;514.42;2.04
352;1100.19;536.149;2.05
353;1120.03;530.29;2.05
354;1127.35;528.336;2.06
355;1132.24;518.326;2.06
356;1137.42;542.009;2.07
357;1134.98;532.243;2.07
358;1127.35;546.159;2.07
359;1149.63;522.477;2.08
360;1171.91;524.43;2.08
361;1184.12;544.206;2.09
362;1194.19;522.477;2.09
363;1189.31;526.383;2.1
364;1176.79;524.43;2.1
365;1169.47;538.102;2.1
366;1181.68;516.373;2.11
367;1189.31;528.336;2.11
368;1196.63;510.514;2.12
369;1199.07;538.102;2.12
370;1184.12;532.243;2.12
371;1167.03;514.42;2.13
372;1174.35;538.102;2.13
373;1196.63;532.243;2.14
374;1206.4;532.243;2.14
375;1216.47;516.373;2.14
376;1221.35;544.206;2.15
377;1213.72;532.243;2.15
378;1208.84;550.066;2.15
379;1240.88;520.524;2.16
380;1260.72;526.383;2.16
381;1275.67;544.206;2.17
382;1287.88;520.524;2.17
383;1287.88;528.336;2.17
384;1273.23;526.383;2.18
385;1265.6;544.206;2.18
386;1285.44;514.42;2.19
387;1297.95;530.29;2.19
388;1302.84;510.514;2.19
389;1307.72;546.159;2.2
390;1295.21;534.196;2.2
391;1275.67;518.326;2.21
392;1285.44;544.206;2.21
393;1315.04;534.196;2.21
394;1330;534.196;2.22
395;1339.76;518.326;2.22
396;1347.09;548.112;2.23
397;1342.2;532.243;2.23
398;1337.32;553.972;2.23
399;1369.37;518.326;2.24
400;1398.97;530.29;2.24
401;1416.36;550.066;2.25
402;1431.01;528.336;2.25
403;1431.01;532.243;2.25
404;1416.36;532.243;2.26
405;1406.6;544.206;2.26
406;1431.01;522.477;2.27
407;1448.41;532.243;2.27
408;1455.73;512.467;2.27
409;1463.36;544.206;2.28
410;1448.41;542.009;2.28
411;1431.01;520.524;2.29
412;1441.08;546.159;2.29
413;1473.13;538.102;2.29
414;1488.08;538.102;2.3
415;1500.29;522.477;2.3
416;1512.5;552.019;2.31
417;1505.17;538.102;2.31
418;1500.29;559.832;2.31
419;1532.33;530.29;2.32
420;1569.57;534.196;2.32
421;1584.22;553.972;2.32
422;1601.61;526.383;2.33
423;1599.17;534.196;2.33
424;1579.33;534.196;2.34
425;1569.57;550.066;2.34
426;1596.73;522.477;2.34
427;1613.82;536.149;2.35
428;1623.89;514.42;2.35
429;1626.33;553.972;2.35
430;1608.94;544.206;2.36
431;1584.22;522.477;2.36
432;1593.98;552.019;2.36
433;1628.77;542.009;2.37
434;1645.86;544.206;2.37
435;1658.38;526.383;2.37
436;1663.26;557.878;2.38
437;1653.49;542.009;2.38
438;1643.42;567.888;2.38
439;1675.47;526.383;2.39
440;1710.26;538.102;2.39
441;1727.35;557.878;2.39
442;1742.3;526.383;2.4
443;1732.54;540.056;2.4
444;1710.26;538.102;2.4
445;1697.74;555.925;2.41
446;1715.14;522.477;2.41
447;1734.98;540.056;2.41
448;1739.86;516.373;2.42
449;1739.86;565.935;2.42
450;1717.58;555.925;2.42
451;1685.54;532.243;2.43
452;1692.86;546.159;2.43
453;1727.35;552.019;2.43
454;1739.86;542.009;2.44
455;1752.07;530.29;2.44
456;1754.51;542.009;2.44
457;1739.86;548.112;2.44
458;1727.35;561.785;2.45
459;1759.7;550.066;2.45
460;1796.62;534.196;2.45
461;1816.46;559.832;2.46
462;1826.23;544.206;2.46
463;1816.46;538.102;2.46
464;1789.3;546.159;2.47
465;1774.35;555.925;2.47
466;1799.07;548.112;2.47
467;1813.72;542.009;2.47
468;1821.34;524.43;2.48
469;1821.34;550.066;2.48
470;1794.18;557.878;2.48
471;1762.14;534.196;2.49
472;1767.02;553.972;2.49
473;1806.39;553.972;2.49
474;1821.34;550.066;2.5
475;1831.11;532.243;2.5
476;1831.11;552.019;2.5
477;1816.46;552.019;2.5
478;1799.07;573.748;2.51
479;1831.11;546.159;2.51
480;1865.6;540.056;2.51
481;1885.43;565.935;2.51
482;1897.95;544.206;2.52
483;1885.43;546.159;2.52
484;1858.27;548.112;2.52
485;1840.88;563.738;2.53
486;1860.71;544.206;2.53
487;1878.11;548.112;2.53
488;1882.99;526.383;2.53
489;1880.55;557.878;2.54
490;1853.39;559.832;2.54
491;1816.46;532.243;2.54
492;1821.34;557.878;2.54
493;1855.83;555.925;2.55
494;1875.67;555.925;2.55
495;1882.99;538.102;2.55
496;1880.55;563.738;2.55
497;1863.16;553.972;2.56
498;1846.06;575.701;2.56
499;1878.11;546.159;2.56
500;1917.48;546.159;2.56
501;1937.31;569.842;2.57
502;1947.08;542.009;2.57
503;1934.87;550.066;2.57
504;1905.27;548.112;2.57
505;1885.43;567.888;2.58
506;1907.71;540.056;2.58
507;1925.11;550.066;2.58
508;1929.99;528.336;2.58
509;1925.11;565.935;2.59
510;1897.95;559.832;2.59
511;1860.71;536.149;2.59
512;1860.71;565.935;2.59
513;1900.39;557.878;2.59
514;1919.92;559.832;2.6
515;1925.11;536.149;2.6
516;1927.55;575.701;2.6
517;1905.27;557.878;2.6
518;1887.88;583.514;2.61
519;1915.04;548.112;2.61
520;1957.15;552.019;2.61
521;1979.43;573.748;2.61
522;1986.75;546.159;2.61
523;1974.24;553.972;2.62
524;1944.64;552.019;2.62
525;1919.92;569.842;2.62
526;1942.2;538.102;2.62
527;1962.03;555.925;2.62
528;1966.92;530.29;2.63
529;1959.59;573.748;2.63
530;1932.43;561.785;2.63
531;1895.2;540.056;2.63
532;1892.76;573.748;2.63
533;1934.87;559.832;2.64
534;1952.27;563.738;2.64
535;1962.03;542.009;2.64
536;1957.15;577.654;2.64
537;1937.31;559.832;2.64
538;1917.48;585.467;2.65
539;1947.08;544.206;2.65
540;1986.75;555.925;2.65
541;2006.59;575.701;2.65
542;2016.36;544.206;2.65
543;2003.85;557.878;2.65
544;1971.8;553.972;2.66
545;1949.52;573.748;2.66
546;1966.92;542.009;2.66
547;1981.87;557.878;2.66
548;1989.2;534.196;2.66
549;1986.75;559.832;2.67
550;1954.71;573.748;2.67
551;1915.04;546.159;2.67
552;1915.04;563.738;2.67
553;1952.27;569.842;2.67
554;1971.8;561.785;2.67
555;1979.43;542.009;2.68
556;1976.68;559.832;2.68
557;1957.15;565.935;2.68
558;1934.87;581.561;2.68
559;1962.03;563.738;2.68
560;2003.85;550.066;2.68
561;2023.68;577.654;2.69
562;2031.01;555.925;2.69
563;2016.36;553.972;2.69
564;1981.87;559.832;2.69
565;1962.03;573.748;2.69
566;1979.43;561.785;2.69
567;1996.52;557.878;2.7
568;2001.4;538.102;2.7
569;1994.08;561.785;2.7
570;1966.92;573.748;2.7
571;1929.99;546.159;2.7
572;1925.11;569.842;2.7
573;1964.48;569.842;2.7
574;1979.43;563.738;2.71
575;1989.2;546.159;2.71
576;1984.31;563.738;2.71
577;1964.48;563.738;2.71
578;1942.2;587.42;2.71
579;1969.36;561.785;2.71
580;2011.48;552.019;2.71
581;2031.01;579.608;2.72
582;2038.64;555.925;2.72
583;2026.12;559.832;2.72
584;1991.64;559.832;2.72
585;1966.92;575.701;2.72
586;1986.75;557.878;2.72
587;2003.85;557.878;2.72
588;2009.03;540.056;2.73
589;2001.4;569.842;2.73
590;1974.24;573.748;2.73
591;1937.31;548.112;2.73
592;1927.55;573.748;2.73
593;1966.92;567.888;2.73
594;1984.31;565.935;2.73
595;1994.08;548.112;2.74
596;1989.2;575.701;2.74
597;1971.8;567.888;2.74
598;1944.64;589.618;2.74
599;1971.8;559.832;2.74
600;2013.92;559.832;2.74
601;2036.2;583.514;2.74
602;2043.52;553.972;2.74
603;2031.01;561.785;2.75
604;1998.96;561.785;2.75
605;1974.24;579.608;2.75
606;1989.2;552.019;2.75
607;2006.59;559.832;2.75
608;2011.48;538.102;2.75
609;2006.59;577.654;2.75
610;1976.68;571.795;2.76
611;1939.76;546.159;2.76
612;1932.43;577.654;2.76
613;1969.36;567.888;2.76
614;1989.2;569.842;2.76
615;1996.52;548.112;2.76
616;1984.31;583.514;2.76
617;1959.59;567.888;2.76
618;1949.52;591.571;2.77
619;1991.64;555.925;2.77
620;2023.68;559.832;2.77
621;2038.64;583.514;2.77
622;2038.64;553.972;2.77
623;2013.92;563.738;2.77
624;1981.87;559.832;2.77
625;1971.8;581.561;2.77
626;1996.52;548.112;2.78
627;2011.48;563.738;2.78
628;2009.03;538.102;2.78
629;1996.52;583.514;2.78
630;1959.59;569.842;2.78
631;1925.11;548.112;2.78
632;1942.2;581.561;2.78
633;1976.68;567.888;2.78
634;1986.75;567.888;2.79
635;1991.64;550.066;2.79
636;1981.87;587.42;2.79
637;1954.71;567.888;2.79
638;1944.64;593.524;2.79
639;1986.75;552.019;2.79
640;2018.8;561.785;2.79
641;2033.75;585.467;2.79
642;2036.2;553.972;2.8
643;2016.36;565.935;2.8
644;1979.43;563.738;2.8
645;1969.36;581.561;2.8
646;1996.52;557.878;2.8
647;2006.59;563.738;2.8
648;2009.03;538.102;2.8
649;1996.52;577.654;2.8
650;1962.03;575.701;2.81
651;1925.11;550.066;2.81
652;1942.2;575.701;2.81
653;1979.43;571.795;2.81
654;1991.64;571.795;2.81
655;1996.52;550.066;2.81
656;1991.64;583.514;2.81
657;1964.48;567.888;2.81
658;1949.52;593.524;2.81
659;1991.64;559.832;2.82
660;2023.68;561.785;2.82
661;2041.08;587.42;2.82
662;2043.52;555.925;2.82
663;2018.8;563.738;2.82
664;1986.75;565.935;2.82
665;1974.24;583.514;2.82
666;1998.96;550.066;2.82
667;2013.92;563.738;2.82
668;2016.36;540.056;2.83
669;2003.85;581.561;2.83
670;1966.92;577.654;2.83
671;1932.43;550.066;2.83
672;1947.08;581.561;2.83
673;1981.87;569.842;2.83
674;1994.08;569.842;2.83
675;2001.4;552.019;2.83
676;1989.2;587.42;2.84
677;1966.92;569.842;2.84
678;1952.27;593.524;2.84
679;1994.08;553.972;2.84
680;2028.57;561.785;2.84
681;2043.52;585.467;2.84
682;2048.4;555.925;2.84
683;2023.68;567.888;2.84
684;1989.2;561.785;2.84
685;1976.68;581.561;2.85
686;2003.85;548.112;2.85
687;2016.36;565.935;2.85
688;2018.8;542.009;2.85
689;2003.85;587.42;2.85
690;1969.36;573.748;2.85
691;1934.87;550.066;2.85
692;1947.08;585.467;2.85
693;1984.31;569.842;2.85
694;1998.96;573.748;2.85
695;2006.59;553.972;2.86
696;1996.52;567.888;2.86
697;1974.24;571.795;2.86
698;1957.15;591.571;2.86
699;1998.96;573.748;2.86
700;2033.75;553.972;2.86
701;2048.4;581.561;2.86
702;2053.29;569.842;2.86
703;2031.01;559.832;2.86
704;1996.52;567.888;2.86
705;1986.75;581.561;2.87
706;2009.03;571.795;2.87
707;2021.24;563.738;2.87
708;2026.12;548.112;2.87
709;2013.92;569.842;2.87
710;1976.68;581.561;2.87
711;1942.2;553.972;2.87
712;1957.15;571.795;2.87
713;1989.2;577.654;2.87
714;2006.59;567.888;2.87
715;2013.92;552.019;2.88
716;2001.4;569.842;2.88
717;1976.68;573.748;2.88
718;1962.03;591.571;2.88
719;2003.85;567.888;2.88
720;2036.2;557.878;2.88
721;2053.29;585.467;2.88
722;2058.17;565.935;2.88
723;2036.2;563.738;2.88
724;2003.85;567.888;2.88
725;1986.75;583.514;2.89
726;2011.48;569.842;2.89
727;2026.12;563.738;2.89
728;2031.01;544.206;2.89
729;2018.8;573.748;2.89
730;1981.87;581.561;2.89
731;1944.64;550.066;2.89
732;1959.59;577.654;2.89
733;1994.08;575.701;2.89
734;2009.03;569.842;2.89
735;2018.8;553.972;2.9
736;2006.59;577.654;2.9
737;1976.68;571.795;2.9
738;1966.92;593.524;2.9
739;2003.85;565.935;2.9
740;2038.64;559.832;2.9
741;2053.29;585.467;2.9
742;2060.92;557.878;2.9
743;2041.08;567.888;2.9
744;2003.85;565.935;2.9
745;1991.64;581.561;2.9
746;2013.92;561.785;2.91
747;2031.01;565.935;2.91
748;2033.75;544.206;2.91
749;2021.24;577.654;2.91
750;1981.87;575.701;2.91
751;1947.08;550.066;2.91
752;1957.15;579.608;2.91
753;1994.08;573.748;2.91
754;2011.48;571.795;2.91
755;2018.8;552.019;2.91
756;2006.59;583.514;2.91
757;1984.31;575.701;2.92
758;1966.92;593.524;2.92
759;2009.03;563.738;2.92
760;2043.52;561.785;2.92
761;2058.17;587.42;2.92
762;2063.36;557.878;2.92
763;2043.52;567.888;2.92
764;2006.59;563.738;2.92
765;1991.64;583.514;2.92
766;2013.92;555.925;2.92
767;2031.01;567.888;2.93
768;2031.01;542.009;2.93
769;2021.24;581.561;2.93
770;1984.31;573.748;2.93
771;1947.08;552.019;2.93
772;1959.59;581.561;2.93
773;1994.08;571.795;2.93
774;2009.03;573.748;2.93
775;2016.36;553.972;2.93
776;2006.59;589.618;2.93
777;1981.87;569.842;2.93
778;1964.48;595.477;2.94
779;2003.85;555.925;2.94
780;2041.08;563.738;2.94
781;2055.73;587.42;2.94
782;2063.36;557.878;2.94
783;2043.52;567.888;2.94
784;2009.03;565.935;2.94
785;1991.64;583.514;2.94
786;2013.92;550.066;2.94
787;2028.57;567.888;2.94
788;2028.57;542.009;2.95
789;2021.24;585.467;2.95
790;1984.31;573.748;2.95
791;1947.08;550.066;2.95
792;1957.15;583.514;2.95
793;1994.08;569.842;2.95
794;2009.03;567.888;2.95
795;2016.36;555.925;2.95
796;2006.59;567.888;2.95
797;1979.43;573.748;2.95
798;1964.48;587.42;2.95
799;2001.4;575.701;2.96
800;2036.2;553.972;2.96
801;2053.29;581.561;2.96
802;2060.92;565.935;2.96
803;2036.2;561.785;2.96
804;2003.85;569.842;2.96
805;1984.31;581.561;2.96
806;2009.03;571.795;2.96
807;2021.24;563.738;2.96
808;2026.12;548.112;2.96
809;2016.36;569.842;2.97
810;1976.68;581.561;2.97
811;1942.2;553.972;2.97
812;1949.52;573.748;2.97
813;1984.31;579.608;2.97
814;1996.52;567.888;2.97
815;2003.85;553.972;2.97
816;1996.52;571.795;2.97
817;1971.8;573.748;2.97
818;1952.27;589.618;2.97
819;1989.2;569.842;2.97
820;2023.68;557.878;2.98
821;2041.08;583.514;2.98
822;2045.96;563.738;2.98
823;2028.57;561.785;2.98
824;1991.64;567.888;2.98
825;1974.24;583.514;2.98
826;1994.08;569.842;2.98
827;2011.48;563.738;2.98
828;2011.48;544.206;2.98
829;2001.4;573.748;2.98
830;1969.36;577.654;2.98
831;1932.43;550.066;2.99
832;1937.31;575.701;2.99
833;1974.24;575.701;2.99
834;1986.75;571.795;2.99
835;1994.08;552.019;2.99
836;1984.31;575.701;2.99
837;1962.03;571.795;2.99
838;1942.2;589.618;2.99
839;1974.24;565.935;2.99
840;2011.48;561.785;2.99
841;2028.57;585.467;3
842;2033.75;563.738;3
843;2013.92;563.738;3
844;1981.87;565.935;3
845;1962.03;583.514;3
846;1979.43;559.832;3
847;1994.08;563.738;3
848;1996.52;542.009;3
849;1989.2;575.701;3
850;1957.15;575.701;3
851;1917.48;552.019;3
852;1922.36;577.654;3.01
853;1962.03;571.795;3.01
854;1974.24;571.795;3.01
855;1979.43;552.019;3.01
856;1966.92;583.514;3.01
857;1942.2;571.795;3.01
858;1929.99;595.477;3.01
859;1969.36;561.785;3.01
860;1998.96;563.738;3.01
861;2013.92;587.42;3.01
862;2013.92;557.878;3.02
863;1991.64;565.935;3.02
864;1959.59;563.738;3.02
865;1947.08;583.514;3.02
866;1971.8;555.925;3.02
867;1979.43;565.935;3.02
868;1984.31;542.009;3.02
869;1969.36;579.608;3.02
870;1932.43;573.748;3.02
871;1897.95;552.019;3.02
872;1910.15;581.561;3.02
873;1944.64;569.842;3.03
874;1957.15;571.795;3.03
875;1959.59;552.019;3.03
876;1949.52;589.618;3.03
877;1925.11;571.795;3.03
878;1910.15;593.524;3.03
879;1952.27;557.878;3.03
880;1979.43;563.738;3.03
881;1996.52;587.42;3.03
882;1998.96;553.972;3.03
883;1974.24;567.888;3.03
884;1944.64;563.738;3.04
885;1929.99;583.514;3.04
886;1954.71;550.066;3.04
887;1964.48;567.888;3.04
888;1966.92;540.056;3.04
889;1954.71;585.467;3.04
890;1917.48;573.748;3.04
891;1885.43;552.019;3.04
892;1897.95;577.654;3.04
893;1932.43;573.748;3.04
894;1944.64;569.842;3.04
895;1952.27;552.019;3.05
896;1942.2;577.654;3.05
897;1915.04;571.795;3.05
898;1902.83;593.524;3.05
899;1942.2;565.935;3.05
900;1974.24;559.832;3.05
901;1989.2;583.514;3.05
902;1994.08;561.785;3.05
903;1971.8;565.935;3.05
904;1939.76;565.935;3.05
905;1927.55;583.514;3.05
906;1949.52;557.878;3.06
907;1962.03;565.935;3.06
908;1962.03;542.009;3.06
909;1952.27;579.608;3.06
910;1915.04;575.701;3.06
911;1880.55;552.019;3.06
912;1895.2;579.608;3.06
913;1925.11;573.748;3.06
914;1939.76;571.795;3.06
915;1944.64;552.019;3.06
916;1937.31;585.467;3.06
917;1912.59;571.795;3.07
918;1897.95;595.477;3.07
919;1937.31;559.832;3.07
920;1969.36;561.785;3.07
921;1986.75;585.467;3.07
922;1986.75;555.925;3.07
923;1969.36;569.842;3.07
924;1937.31;563.738;3.07
925;1922.36;583.514;3.07
926;1944.64;553.972;3.07
927;1957.15;565.935;3.07
928;1959.59;542.009;3.08
929;1949.52;583.514;3.08
930;1915.04;573.748;3.08
931;1878.11;550.066;3.08
932;1890.32;583.514;3.08
933;1925.11;571.795;3.08
934;1937.31;573.748;3.08
935;1942.2;553.972;3.08
936;1934.87;589.618;3.08
937;1910.15;567.888;3.08
938;1895.2;595.477;3.08
939;1932.43;555.925;3.08
940;1964.48;565.935;3.09
941;1979.43;587.42;3.09
942;1984.31;567.888;3.09
943;1966.92;557.878;3.09
944;1934.87;569.842;3.09
945;1919.92;579.608;3.09
946;1942.2;573.748;3.09
947;1952.27;561.785;3.09
948;1959.59;548.112;3.09
949;1947.08;565.935;3.09
950;1915.04;583.514;3.09
951;1878.11;555.925;3.09
952;1887.88;571.795;3.1
953;1922.36;577.654;3.1
954;1937.31;567.888;3.1
955;1944.64;555.925;3.1
956;1934.87;565.935;3.1
957;1912.59;573.748;3.1
958;1895.2;591.571;3.1
959;1934.87;573.748;3.1
960;1966.92;557.878;3.1
961;1981.87;583.514;3.1
962;1986.75;567.888;3.1
963;1966.92;561.785;3.1
964;1934.87;567.888;3.11
965;1919.92;581.561;3.11
966;1944.64;569.842;3.11
967;1954.71;565.935;3.11
968;1959.59;546.159;3.11
969;1947.08;573.748;3.11
970;1917.48;581.561;3.11
971;1878.11;555.925;3.11
972;1890.32;573.748;3.11
973;1922.36;577.654;3.11
974;1937.31;569.842;3.11
975;1944.64;553.972;3.11
976;1939.76;571.795;3.11
977;1912.59;571.795;3.12
978;1897.95;591.571;3.12
979;1932.43;569.842;3.12
980;1969.36;559.832;3.12
981;1984.31;585.467;3.12
982;1989.2;563.738;3.12
983;1971.8;563.738;3.12
984;1939.76;565.935;3.12
985;1922.36;583.514;3.12
986;1944.64;567.888;3.12
987;1957.15;563.738;3.12
988;1962.03;544.206;3.12
989;1949.52;575.701;3.12
990;1917.48;579.608;3.12
991;1880.55;552.019;3.13
992;1890.32;577.654;3.13
993;1925.11;575.701;3.13
994;1942.2;571.795;3.13
995;1947.08;553.972;3.13
996;1939.76;579.608;3.13
997;1915.04;573.748;3.13
998;1897.95;593.524;3.13
999;1937.31;563.738;3.13
1000;1969.36;559.832;3.13
1001;1986.75;585.467;3.13
1002;1989.2;561.785;3.13
1003;1971.8;563.738;3.13
1004;1939.76;565.935;3.13
1005;1925.11;585.467;3.13
1006;1944.64;557.878;3.14
1007;1957.15;565.935;3.14
1008;1962.03;544.206;3.14
1009;1952.27;579.608;3.14
1010;1917.48;579.608;3.14
1011;1885.43;552.019;3.14
1012;1892.76;581.561;3.14
1013;1925.11;573.748;3.14
1014;1939.76;571.795;3.14
1015;1947.08;552.019;3.14
1016;1939.76;585.467;3.14
1017;1915.04;573.748;3.14
1018;1902.83;595.477;3.14
1019;1934.87;563.738;3.14
1020;1969.36;561.785;3.15
1021;1984.31;585.467;3.15
1022;1991.64;561.785;3.15
1023;1974.24;567.888;3.15
1024;1942.2;565.935;3.15
1025;1922.36;583.514;3.15
1026;1944.64;553.972;3.15
1027;1957.15;567.888;3.15
1028;1962.03;540.056;3.15
1029;1952.27;583.514;3.15
1030;1917.48;573.748;3.15
1031;1880.55;552.019;3.15
1032;1887.88;583.514;3.15
1033;1922.36;571.795;3.15
1034;1937.31;571.795;3.15
1035;1944.64;553.972;3.16
1036;1937.31;591.571;3.16
1037;1912.59;573.748;3.16
1038;1895.2;595.477;3.16
1039;1929.99;557.878;3.16
1040;1966.92;553.972;3.16
1041;1981.87;579.608;3.16
1042;1986.75;569.842;3.16
1043;1974.24;559.832;3.16
1044;1939.76;567.888;3.16
1045;1922.36;579.608;3.16
1046;1944.64;575.701;3.16
1047;1954.71;561.785;3.16
1048;1959.59;550.066;3.16
1049;1949.52;567.888;3.17
1050;1919.92;585.467;3.17
1051;1882.99;555.925;3.17
1052;1890.32;569.842;3.17
1053;1922.36;581.561;3.17
1054;1937.31;567.888;3.17
1055;1944.64;553.972;3.17
1056;1939.76;567.888;3.17
1057;1915.04;573.748;3.17
1058;1895.2;589.618;3.17
1059;1929.99;571.795;3.17
1060;1969.36;555.925;3.17
1061;1984.31;583.514;3.17
1062;1989.2;567.888;3.17
1063;1974.24;557.878;3.18
1064;1942.2;567.888;3.18
1065;1922.36;583.514;3.18
1066;1944.64;571.795;3.18
1067;1959.59;563.738;3.18
1068;1959.59;548.112;3.18
1069;1954.71;569.842;3.18
1070;1919.92;583.514;3.18
1071;1885.43;553.972;3.18
1072;1890.32;573.748;3.18
1073;1922.36;579.608;3.18
1074;1942.2;571.795;3.18
1075;1947.08;552.019;3.18
1076;1942.2;571.795;3.18
1077;1917.48;573.748;3.19
1078;1897.95;591.571;3.19
1079;1929.99;569.842;3.19
1080;1966.92;559.832;3.19
1081;1986.75;583.514;3.19
1082;1991.64;563.738;3.19
1083;1974.24;561.785;3.19
1084;1944.64;569.842;3.19
1085;1922.36;581.561;3.19
1086;1944.64;569.842;3.19
1087;1959.59;565.935;3.19
1088;1964.48;544.206;3.19
1089;1954.71;575.701;3.19
1090;1925.11;577.654;3.19
1091;1887.88;552.019;3.19
1092;1887.88;577.654;3.2
1093;1925.11;575.701;3.2
1094;1939.76;569.842;3.2
1095;1947.08;552.019;3.2
1096;1944.64;577.654;3.2
1097;1922.36;571.795;3.2
1098;1900.39;593.524;3.2
1099;1932.43;567.888;3.2
1100;1971.8;559.832;3.2
1101;1986.75;587.42;3.2
1102;1994.08;561.785;3.2
1103;1979.43;563.738;3.2
1104;1944.64;565.935;3.2
1105;1927.55;585.467;3.2
1106;1947.08;559.832;3.21
1107;1962.03;565.935;3.21
1108;1964.48;542.009;3.21
1109;1957.15;577.654;3.21
1110;1925.11;577.654;3.21
1111;1887.88;550.066;3.21
1112;1890.32;577.654;3.21
1113;1927.55;573.748;3.21
1114;1942.2;571.795;3.21
1115;1952.27;553.972;3.21
1116;1944.64;585.467;3.21
1117;1922.36;571.795;3.21
1118;1897.95;593.524;3.21
1119;1932.43;559.832;3.21
1120;1971.8;561.785;3.22
1121;1986.75;589.618;3.22
1122;1996.52;559.832;3.22
1123;1976.68;567.888;3.22
1124;1949.52;563.738;3.22
1125;1929.99;583.514;3.22
1126;1947.08;552.019;3.22
1127;1964.48;565.935;3.22
1128;1966.92;540.056;3.22
1129;1957.15;583.514;3.22
1130;1927.55;575.701;3.22
1131;1890.32;552.019;3.22
1132;1890.32;581.561;3.22
1133;1927.55;571.795;3.22
1134;1944.64;571.795;3.23
1135;1952.27;553.972;3.23
1136;1944.64;589.618;3.23
1137;1925.11;571.795;3.23
1138;1902.83;591.571;3.23
1139;1934.87;567.888;3.23
1140;1969.36;559.832;3.23
1141;1989.2;587.42;3.23
1142;1996.52;559.832;3.23
1143;1979.43;563.738;3.23
1144;1949.52;565.935;3.23
1145;1927.55;583.514;3.23
1146;1949.52;563.738;3.23
1147;1964.48;565.935;3.23
1148;1966.92;544.206;3.24
1149;1959.59;575.701;3.24
1150;1932.43;577.654;3.24
1151;1890.32;552.019;3.24
1152;1892.76;575.701;3.24
1153;1925.11;573.748;3.24
1154;1944.64;571.795;3.24
1155;1952.27;552.019;3.24
1156;1947.08;579.608;3.24
1157;1927.55;573.748;3.24
1158;1902.83;591.571;3.24
1159;1934.87;561.785;3.24
1160;1971.8;563.738;3.24
1161;1989.2;585.467;3.25
1162;1996.52;559.832;3.25
1163;1984.31;565.935;3.25
1164;1949.52;563.738;3.25
1165;1927.55;583.514;3.25
1166;1947.08;555.925;3.25
1167;1964.48;563.738;3.25
1168;1966.92;542.009;3.25
1169;1962.03;581.561;3.25
1170;1932.43;575.701;3.25
1171;1895.2;552.019;3.25
1172;1892.76;579.608;3.25
1173;1929.99;571.795;3.25
1174;1944.64;571.795;3.25
1175;1954.71;552.019;3.26
1176;1952.27;587.42;3.26
1177;1927.55;571.795;3.26
1178;1905.27;595.477;3.26
1179;1932.43;559.832;3.26
1180;1971.8;563.738;3.26
1181;1991.64;587.42;3.26
1182;1998.96;557.878;3.26
1183;1986.75;567.888;3.26
1184;1952.27;565.935;3.26
1185;1932.43;585.467;3.26
1186;1949.52;573.748;3.26
1187;1964.48;561.785;3.26
1188;1969.36;552.019;3.26
1189;1964.48;565.935;3.27
1190;1934.87;585.467;3.27
1191;1895.2;561.785;3.27
1192;1895.2;567.888;3.27
1193;1932.43;581.561;3.27
1194;1949.52;567.888;3.27
1195;1959.59;555.925;3.27
1196;1954.71;565.935;3.27
1197;1932.43;575.701;3.27
1198;1910.15;587.42;3.27
1199;1939.76;575.701;3.27
1200;1979.43;555.925;3.27
1201;1994.08;579.608;3.27
1202;2001.4;567.888;3.27
1203;1991.64;559.832;3.28
1204;1962.03;569.842;3.28
1205;1934.87;581.561;3.28
1206;1954.71;571.795;3.28
1207;1969.36;561.785;3.28
1208;1974.24;548.112;3.28
1209;1969.36;567.888;3.28
1210;1942.2;581.561;3.28
1211;1905.27;555.925;3.28
1212;1897.95;569.842;3.28
1213;1934.87;577.654;3.28
1214;1954.71;569.842;3.28
1215;1964.48;553.972;3.28
1216;1959.59;569.842;3.28
1217;1937.31;575.701;3.28
1218;1915.04;589.618;3.29
1219;1939.76;571.795;3.29
1220;1979.43;557.878;3.29
1221;1996.52;581.561;3.29
1222;2009.03;563.738;3.29
1223;1994.08;561.785;3.29
1224;1962.03;567.888;3.29
1225;1937.31;583.514;3.29
1226;1954.71;569.842;3.29
1227;1974.24;565.935;3.29
1228;1974.24;546.159;3.29
1229;1971.8;573.748;3.29
1230;1944.64;581.561;3.29
1231;1902.83;552.019;3.29
1232;1897.95;575.701;3.29
1233;1937.31;575.701;3.3
1234;1954.71;569.842;3.3
1235;1964.48;552.019;3.3
1236;1959.59;573.748;3.3
1237;1937.31;573.748;3.3
1238;1917.48;593.524;3.3
1239;1939.76;567.888;3.3
1240;1979.43;559.832;3.3
1241;1996.52;585.467;3.3
1242;2009.03;561.785;3.3
1243;1994.08;565.935;3.3
1244;1964.48;567.888;3.3
1245;1939.76;583.514;3.3
1246;1957.15;565.935;3.3
1247;1971.8;567.888;3.3
1248;1976.68;544.206;3.31
1249;1971.8;577.654;3.31
1250;1942.2;577.654;3.31
1251;1907.71;552.019;3.31
1252;1897.95;577.654;3.31
1253;1937.31;573.748;3.31
1254;1954.71;573.748;3.31
1255;1964.48;553.972;3.31
1256;1959.59;583.514;3.31
1257;1939.76;571.795;3.31
1258;1917.48;593.524;3.31
1259;1939.76;563.738;3.31
1260;1981.87;561.785;3.31
1261;1998.96;587.42;3.31
1262;2011.48;559.832;3.31
1263;1996.52;563.738;3.32
1264;1964.48;563.738;3.32
1265;1939.76;583.514;3.32
1266;1957.15;555.925;3.32
1267;1974.24;563.738;3.32
1268;1976.68;544.206;3.32
1269;1974.24;577.654;3.32
1270;1944.64;573.748;3.32
1271;1905.27;550.066;3.32
1272;1897.95;579.608;3.32
1273;1937.31;571.795;3.32
1274;1954.71;573.748;3.32
1275;1964.48;552.019;3.32
1276;1962.03;587.42;3.32
1277;1939.76;573.748;3.32
1278;1917.48;595.477;3.33
1279;1939.76;561.785;3.33
1280;1981.87;561.785;3.33
1281;2001.4;585.467;3.33
1282;2011.48;555.925;3.33
1283;1996.52;567.888;3.33
1284;1969.36;563.738;3.33
1285;1942.2;579.608;3.33
1286;1957.15;575.701;3.33
1287;1974.24;561.785;3.33
1288;1976.68;553.972;3.33
1289;1974.24;563.738;3.33
1290;1944.64;587.42;3.33
1291;1907.71;555.925;3.33
1292;1900.39;567.888;3.33
1293;1939.76;581.561;3.33
1294;1957.15;569.842;3.34
1295;1964.48;553.972;3.34
1296;1964.48;567.888;3.34
1297;1944.64;575.701;3.34
1298;1917.48;585.467;3.34
1299;1939.76;575.701;3.34
1300;1981.87;552.019;3.34
1301;2001.4;581.561;3.34
1302;2011.48;567.888;3.34
1303;1998.96;559.832;3.34
1304;1969.36;569.842;3.34
1305;1942.2;581.561;3.34
1306;1957.15;569.842;3.34
1307;1974.24;561.785;3.34
1308;1981.87;548.112;3.34
1309;1974.24;569.842;3.34
1310;1949.52;583.514;3.35
1311;1910.15;555.925;3.35
1312;1902.83;569.842;3.35
1313;1937.31;579.608;3.35
1314;1957.15;569.842;3.35
1315;1966.92;550.066;3.35
1316;1966.92;567.888;3.35
1317;1944.64;575.701;3.35
1318;1919.92;589.618;3.35
1319;1942.2;573.748;3.35
1320;1984.31;557.878;3.35
1321;2003.85;583.514;3.35
1322;2013.92;565.935;3.35
1323;2001.4;561.785;3.35
1324;1969.36;565.935;3.35
1325;1944.64;581.561;3.35
1326;1957.15;569.842;3.36
1327;1974.24;563.738;3.36
1328;1979.43;546.159;3.36
1329;1979.43;571.795;3.36
1330;1952.27;579.608;3.36
1331;1912.59;552.019;3.36
1332;1900.39;571.795;3.36
1333;1939.76;575.701;3.36
1334;1957.15;569.842;3.36
1335;1969.36;553.972;3.36
1336;1966.92;573.748;3.36
1337;1947.08;573.748;3.36
1338;1919.92;589.618;3.36
1339;1962.03;569.842;3.36
1340;1994.08;557.878;3.36
1341;2011.48;587.42;3.36
1342;2016.36;565.935;3.36
1343;1991.64;563.738;3.37
1344;1959.59;563.738;3.37
1345;1944.64;581.561;3.37
1346;1969.36;563.738;3.37
1347;1979.43;563.738;3.37
1348;1984.31;546.159;3.37
1349;1974.24;577.654;3.37
1350;1939.76;577.654;3.37
1351;1900.39;550.066;3.37
1352;1917.48;577.654;3.37
1353;1952.27;571.795;3.37
1354;1966.92;569.842;3.37
1355;1974.24;552.019;3.37
1356;1964.48;581.561;3.37
1357;1939.76;573.748;3.37
1358;1922.36;591.571;3.37
1359;1962.03;563.738;3.37
1360;1994.08;561.785;3.38
1361;2009.03;583.514;3.38
1362;2013.92;557.878;3.38
1363;1991.64;565.935;3.38
1364;1962.03;563.738;3.38
1365;1947.08;583.514;3.38
1366;1969.36;557.878;3.38
1367;1981.87;563.738;3.38
1368;1986.75;542.009;3.38
1369;1974.24;579.608;3.38
1370;1942.2;575.701;3.38
1371;1905.27;552.019;3.38
1372;1915.04;577.654;3.38
1373;1952.27;569.842;3.38
1374;1966.92;571.795;3.38
1375;1974.24;552.019;3.38
1376;1966.92;585.467;3.38
1377;1937.31;569.842;3.38
1378;1925.11;595.477;3.39
1379;1962.03;559.832;3.39
1380;1994.08;561.785;3.39
1381;2013.92;585.467;3.39
1382;2018.8;555.925;3.39
1383;1994.08;561.785;3.39
1384;1964.48;563.738;3.39
1385;1949.52;583.514;3.39
1386;1971.8;567.888;3.39
1387;1984.31;561.785;3.39
1388;1984.31;544.206;3.39
1389;1974.24;571.795;3.39
1390;1944.64;577.654;3.39
1391;1907.71;550.066;3.39
1392;1917.48;575.701;3.39
1393;1954.71;573.748;3.39
1394;1964.48;567.888;3.39
1395;1974.24;552.019;3.4
1396;1966.92;575.701;3.4
1397;1939.76;573.748;3.4
1398;1925.11;593.524;3.4
1399;1962.03;565.935;3.4
1400;1994.08;561.785;3.4
1401;2013.92;583.514;3.4
1402;2021.24;561.785;3.4
1403;1996.52;565.935;3.4
1404;1964.48;567.888;3.4
1405;1949.52;583.514;3.4
1406;1969.36;561.785;3.4
1407;1984.31;563.738;3.4
1408;1984.31;542.009;3.4
1409;1974.24;577.654;3.4
1410;1944.64;575.701;3.4
1411;1907.71;550.066;3.4
1412;1915.04;577.654;3.4
1413;1952.27;571.795;3.41
1414;1966.92;571.795;3.41
1415;1974.24;552.019;3.41
1416;1966.92;581.561;3.41
1417;1942.2;569.842;3.41
1418;1925.11;593.524;3.41
1419;1962.03;559.832;3.41
1420;1996.52;561.785;3.41
1421;2013.92;585.467;3.41
1422;2018.8;557.878;3.41
1423;1998.96;565.935;3.41
1424;1966.92;563.738;3.41
1425;1952.27;579.608;3.41
1426;1971.8;552.019;3.41
1427;1984.31;563.738;3.41
1428;1991.64;542.009;3.41
1429;1979.43;581.561;3.41
1430;1944.64;573.748;3.42
1431;1910.15;552.019;3.42
1432;1919.92;565.935;3.42
1433;1954.71;581.561;3.42
1434;1969.36;567.888;3.42
1435;1974.24;553.972;3.42
1436;1969.36;563.738;3.42
1437;1944.64;575.701;3.42
1438;1929.99;583.514;3.42
1439;1962.03;577.654;3.42
1440;1996.52;550.066;3.42
1441;2013.92;575.701;3.42
1442;2021.24;567.888;3.42
1443;2003.85;555.925;3.42
1444;1971.8;567.888;3.42
1445;1952.27;579.608;3.42
1446;1974.24;575.701;3.42
1447;1986.75;561.785;3.42
1448;1989.2;550.066;3.43
1449;1984.31;561.785;3.43
1450;1949.52;583.514;3.43
1451;1912.59;553.972;3.43
1452;1917.48;567.888;3.43
1453;1954.71;581.561;3.43
1454;1969.36;567.888;3.43
1455;1976.68;552.019;3.43
1456;1971.8;565.935;3.43
1457;1947.08;573.748;3.43
1458;1927.55;587.42;3.43
1459;1964.48;573.748;3.43
1460;1998.96;555.925;3.43
1461;2016.36;581.561;3.43
1462;2021.24;565.935;3.43
1463;2001.4;559.832;3.43
1464;1971.8;565.935;3.43
1465;1952.27;581.561;3.44
1466;1974.24;571.795;3.44
1467;1986.75;563.738;3.44
1468;1991.64;548.112;3.44
1469;1981.87;567.888;3.44
1470;1952.27;581.561;3.44
1471;1912.59;555.925;3.44
1472;1919.92;571.795;3.44
1473;1959.59;577.654;3.44
1474;1971.8;567.888;3.44
1475;1979.43;552.019;3.44
1476;1971.8;569.842;3.44
1477;1949.52;571.795;3.44
1478;1929.99;589.618;3.44
1479;1964.48;569.842;3.44
1480;1998.96;555.925;3.44
1481;2016.36;583.514;3.44
1482;2021.24;559.832;3.45
1483;2003.85;561.785;3.45
1484;1974.24;565.935;3.45
1485;1952.27;581.561;3.45
1486;1974.24;569.842;3.45
1487;1986.75;561.785;3.45
1488;1989.2;546.159;3.45
1489;1984.31;569.842;3.45
1490;1952.27;577.654;3.45
1491;1915.04;552.019;3.45
1492;1917.48;573.748;3.45
1493;1957.15;573.748;3.45
1494;1969.36;569.842;3.45
1495;1976.68;550.066;3.45
1496;1971.8;571.795;3.45
1497;1949.52;571.795;3.45
1498;1929.99;591.571;3.45
1499;1962.03;565.935;3.46
1500;1998.96;559.832;3.46
1501;2018.8;585.467;3.46
1502;2026.12;561.785;3.46
1503;2006.59;563.738;3.46
1504;1974.24;563.738;3.46
1505;1954.71;581.561;3.46
1506;1976.68;561.785;3.46
1507;1989.2;561.785;3.46
1508;1994.08;544.206;3.46
1509;1984.31;575.701;3.46
1510;1954.71;575.701;3.46
1511;1915.04;550.066;3.46
1512;1919.92;577.654;3.46
1513;1957.15;571.795;3.46
1514;1971.8;567.888;3.46
1515;1979.43;552.019;3.46
1516;1974.24;581.561;3.47
1517;1949.52;571.795;3.47
1518;1929.99;593.524;3.47
1519;1962.03;559.832;3.47
1520;2001.4;559.832;3.47
1521;2018.8;585.467;3.47
1522;2023.68;557.878;3.47
1523;2006.59;563.738;3.47
1524;1974.24;561.785;3.47
1525;1954.71;583.514;3.47
1526;1974.24;553.972;3.47
1527;1989.2;565.935;3.47
1528;1991.64;540.056;3.47
1529;1986.75;581.561;3.47
1530;1954.71;587.42;3.47
1531;1915.04;561.785;3.47
1532;1917.48;563.738;3.47
1533;1954.71;581.561;3.48
1534;1969.36;565.935;3.48
1535;1976.68;553.972;3.48
1536;1974.24;563.738;3.48
1537;1949.52;575.701;3.48
1538;1929.99;581.561;3.48
1539;1962.03;577.654;3.48
1540;1998.96;550.066;3.48
1541;2016.36;575.701;3.48
1542;2023.68;567.888;3.48
1543;2009.03;557.878;3.48
1544;1976.68;565.935;3.48
1545;1957.15;577.654;3.48
1546;1974.24;573.748;3.48
1547;1989.2;561.785;3.48
1548;1994.08;548.112;3.48
1549;1986.75;559.832;3.48
1550;1957.15;581.561;3.49
1551;1917.48;555.925;3.49
1552;1919.92;567.888;3.49
1553;1954.71;579.608;3.49
1554;1974.24;565.935;3.49
1555;1981.87;552.019;3.49
1556;1974.24;565.935;3.49
1557;1954.71;571.795;3.49
1558;1937.31;585.467;3.49
1559;1964.48;571.795;3.49
1560;1998.96;553.972;3.49
1561;2018.8;579.608;3.49
1562;2031.01;567.888;3.49
1563;2013.92;559.832;3.49
1564;1981.87;563.738;3.49
1565;1957.15;577.654;3.49
1566;1979.43;569.842;3.49
1567;1994.08;561.785;3.5
1568;1998.96;546.159;3.5
1569;1991.64;565.935;3.5
1570;1959.59;579.608;3.5
1571;1922.36;553.972;3.5
1572;1925.11;569.842;3.5
1573;1957.15;575.701;3.5
1574;1976.68;567.888;3.5
1575;1984.31;552.019;3.5
1576;1976.68;565.935;3.5
1577;1957.15;571.795;3.5
1578;1934.87;587.42;3.5
1579;1966.92;565.935;3.5
1580;2003.85;555.925;3.5
1581;2021.24;577.654;3.5
1582;2031.01;561.785;3.5
1583;2016.36;559.832;3.5
1584;1981.87;565.935;3.51
1585;1959.59;579.608;3.51
1586;1979.43;567.888;3.51
1587;1994.08;561.785;3.51
1588;1998.96;542.009;3.51
1589;1991.64;569.842;3.51
1590;1962.03;579.608;3.51
1591;1919.92;550.066;3.51
1592;1922.36;571.795;3.51
1593;1959.59;575.701;3.51
1594;1976.68;565.935;3.51
1595;1984.31;550.066;3.51
1596;1979.43;569.842;3.51
1597;1957.15;569.842;3.51
1598;1937.31;589.618;3.51
1599;1964.48;565.935;3.51
1600;2003.85;555.925;3.51
1601;2018.8;583.514;3.52
1602;2033.75;559.832;3.52
1603;2016.36;563.738;3.52
1604;1984.31;563.738;3.52
1605;1964.48;579.608;3.52
1606;1979.43;561.785;3.52
1607;1998.96;557.878;3.52
1608;2001.4;542.009;3.52
1609;1991.64;575.701;3.52
1610;1964.48;575.701;3.52
1611;1925.11;548.112;3.52
1612;1922.36;575.701;3.52
1613;1959.59;571.795;3.52
1614;1976.68;571.795;3.52
1615;1986.75;550.066;3.52
1616;1979.43;579.608;3.52
1617;1962.03;569.842;3.52
1618;1937.31;591.571;3.53
1619;1966.92;559.832;3.53
1620;2003.85;559.832;3.53
1621;2026.12;585.467;3.53
1622;2033.75;555.925;3.53
1623;2018.8;563.738;3.53
1624;1986.75;559.832;3.53
1625;1964.48;581.561;3.53
1626;1981.87;552.019;3.53
1627;1996.52;561.785;3.53
1628;2001.4;540.056;3.53
1629;1996.52;569.842;3.53
1630;1969.36;577.654;3.53
1631;1927.55;552.019;3.53
1632;1925.11;571.795;3.53
1633;1964.48;573.748;3.53
1634;1979.43;565.935;3.53
1635;1989.2;552.019;3.54
1636;1984.31;569.842;3.54
1637;1964.48;569.842;3.54
1638;1939.76;587.42;3.54
1639;1964.48;567.888;3.54
1640;2006.59;553.972;3.54
1641;2026.12;581.561;3.54
1642;2033.75;559.832;3.54
1643;2021.24;561.785;3.54
1644;1989.2;565.935;3.54
1645;1966.92;581.561;3.54
1646;1981.87;565.935;3.54
1647;1998.96;561.785;3.54
1648;2003.85;540.056;3.54
1649;1998.96;571.795;3.54
1650;1969.36;573.748;3.54
1651;1929.99;550.066;3.54
1652;1925.11;573.748;3.54
1653;1964.48;571.795;3.55
1654;1979.43;567.888;3.55
1655;1989.2;552.019;3.55
1656;1986.75;577.654;3.55
1657;1966.92;569.842;3.55
1658;1942.2;591.571;3.55
1659;1966.92;563.738;3.55
1660;2006.59;557.878;3.55
1661;2026.12;583.514;3.55
1662;2036.2;557.878;3.55
1663;2021.24;561.785;3.55
1664;1989.2;559.832;3.55
1665;1969.36;581.561;3.55
1666;1984.31;557.878;3.55
1667;2001.4;561.785;3.55
1668;2006.59;538.102;3.55
1669;2001.4;579.608;3.55
1670;1971.8;573.748;3.56
1671;1929.99;548.112;3.56
1672;1925.11;575.701;3.56
1673;1962.03;567.888;3.56
1674;1981.87;569.842;3.56
1675;1989.2;550.066;3.56
1676;1986.75;583.514;3.56
1677;1969.36;571.795;3.56
1678;1944.64;577.654;3.56
1679;1969.36;575.701;3.56
1680;2009.03;546.159;3.56
1681;2028.57;571.795;3.56
1682;2038.64;569.842;3.56
1683;2023.68;552.019;3.56
1684;1994.08;565.935;3.56
1685;1969.36;577.654;3.56
1686;1984.31;569.842;3.56
1687;2001.4;557.878;3.57
1688;2006.59;548.112;3.57
1689;2001.4;559.832;3.57
1690;1974.24;581.561;3.57
1691;1934.87;555.925;3.57
1692;1929.99;563.738;3.57
1693;1966.92;577.654;3.57
1694;1981.87;563.738;3.57
1695;1994.08;553.972;3.57
1696;1991.64;561.785;3.57
1697;1969.36;573.748;3.57
1698;1944.64;579.608;3.57
1699;1969.36;571.795;3.57
1700;2011.48;550.066;3.57
1701;2031.01;577.654;3.57
1702;2041.08;565.935;3.57
1703;2028.57;555.925;3.57
1704;1996.52;565.935;3.58
1705;1971.8;575.701;3.58
1706;1984.31;569.842;3.58
1707;2003.85;561.785;3.58
1708;2006.59;544.206;3.58
1709;2003.85;561.785;3.58
1710;1971.8;579.608;3.58
1711;1934.87;553.972;3.58
1712;1927.55;567.888;3.58
1713;1969.36;577.654;3.58
1714;1984.31;565.935;3.58
1715;1994.08;550.066;3.58
1716;1991.64;565.935;3.58
1717;1969.36;569.842;3.58
1718;1944.64;583.514;3.58
1719;1966.92;571.795;3.58
1720;2011.48;552.019;3.58
1721;2031.01;579.608;3.58
1722;2043.52;561.785;3.59
1723;2031.01;557.878;3.59
1724;1996.52;561.785;3.59
1725;1974.24;577.654;3.59
1726;1984.31;567.888;3.59
1727;2003.85;559.832;3.59
1728;2009.03;544.206;3.59
1729;2003.85;565.935;3.59
1730;1974.24;575.701;3.59
1731;1937.31;550.066;3.59
1732;1929.99;569.842;3.59
1733;1964.48;571.795;3.59
1734;1984.31;565.935;3.59
1735;1994.08;550.066;3.59
1736;1991.64;567.888;3.59
1737;1971.8;569.842;3.59
1738;1944.64;585.467;3.59
1739;1966.92;565.935;3.6
1740;2011.48;553.972;3.6
1741;2031.01;581.561;3.6
1742;2043.52;559.832;3.6
1743;2031.01;559.832;3.6
1744;1998.96;561.785;3.6
1745;1974.24;581.561;3.6
1746;1986.75;563.738;3.6
1747;2003.85;559.832;3.6
1748;2011.48;540.056;3.6
1749;2006.59;571.795;3.6
1750;1979.43;575.701;3.6
1751;1937.31;548.112;3.6
1752;1929.99;573.748;3.6
1753;1966.92;569.842;3.6
1754;1984.31;567.888;3.6
1755;1994.08;548.112;3.6
1756;1991.64;573.748;3.61
1757;1974.24;567.888;3.61
1758;1947.08;591.571;3.61
1759;1969.36;559.832;3.61
1760;2011.48;555.925;3.61
1761;2033.75;583.514;3.61
1762;2043.52;555.925;3.61
1763;2033.75;561.785;3.61
1764;2001.4;559.832;3.61
1765;1974.24;579.608;3.61
1766;1986.75;555.925;3.61
1767;2006.59;561.785;3.61
1768;2011.48;538.102;3.61
1769;2006.59;573.748;3.61
1770;1981.87;573.748;3.61
1771;1939.76;546.159;3.61
1772;1927.55;577.654;3.61
1773;1966.92;569.842;3.62
1774;1986.75;569.842;3.62
1775;1998.96;553.972;3.62
1776;1996.52;559.832;3.62
1777;1979.43;571.795;3.62
1778;1952.27;575.701;3.62
1779;1969.36;577.654;3.62
1780;2011.48;546.159;3.62
1781;2036.2;573.748;3.62
1782;2045.96;569.842;3.62
1783;2033.75;552.019;3.62
1784;2003.85;563.738;3.62
1785;1974.24;575.701;3.62
1786;1986.75;571.795;3.62
1787;2006.59;555.925;3.62
1788;2011.48;548.112;3.62
1789;2009.03;559.832;3.62
1790;1984.31;583.514;3.63
1791;1944.64;553.972;3.63
1792;1929.99;559.832;3.63
1793;1966.92;579.608;3.63
1794;1986.75;563.738;3.63
1795;1996.52;550.066;3.63
1796;1996.52;563.738;3.63
1797;1976.68;573.748;3.63
1798;1949.52;579.608;3.63
1799;1969.36;571.795;3.63
1800;2016.36;550.066;3.63
1801;2036.2;575.701;3.63
1802;2048.4;567.888;3.63
1803;2036.2;553.972;3.63
1804;2006.59;565.935;3.63
1805;1979.43;575.701;3.63
1806;1989.2;569.842;3.63
1807;2009.03;555.925;3.63
1808;2013.92;544.206;3.64
1809;2013.92;561.785;3.64
1810;1984.31;579.608;3.64
1811;1944.64;550.066;3.64
1812;1934.87;565.935;3.64
1813;1969.36;575.701;3.64
1814;1989.2;563.738;3.64
1815;2001.4;548.112;3.64
1816;2001.4;561.785;3.64
1817;1981.87;569.842;3.64
1818;1957.15;585.467;3.64
1819;1974.24;567.888;3.64
1820;2018.8;550.066;3.64
1821;2036.2;579.608;3.64
1822;2048.4;563.738;3.64
1823;2038.64;557.878;3.64
1824;2009.03;561.785;3.64
1825;1979.43;579.608;3.65
1826;1991.64;565.935;3.65
1827;2011.48;559.832;3.65
1828;2018.8;542.009;3.65
1829;2006.59;565.935;3.65
1830;1974.24;575.701;3.65
1831;1937.31;548.112;3.65
1832;1947.08;567.888;3.65
1833;1981.87;573.748;3.65
1834;1994.08;565.935;3.65
1835;2003.85;546.159;3.65
1836;1994.08;565.935;3.65
1837;1971.8;569.842;3.65
1838;1954.71;587.42;3.65
1839;1994.08;563.738;3.65
1840;2028.57;553.972;3.65
1841;2045.96;581.561;3.65
1842;2050.84;557.878;3.66
1843;2028.57;557.878;3.66
1844;1994.08;559.832;3.66
1845;1979.43;579.608;3.66
1846;2001.4;563.738;3.66
1847;2016.36;557.878;3.66
1848;2018.8;540.056;3.66
1849;2006.59;567.888;3.66
1850;1974.24;573.748;3.66
1851;1937.31;548.112;3.66
1852;1947.08;571.795;3.66
1853;1984.31;569.842;3.66
1854;1998.96;567.888;3.66
1855;2009.03;546.159;3.66
1856;1996.52;571.795;3.66
1857;1974.24;567.888;3.66
1858;1957.15;589.618;3.66
1859;1994.08;557.878;3.67
1860;2028.57;557.878;3.67
1861;2048.4;583.514;3.67
1862;2053.29;555.925;3.67
1863;2031.01;561.785;3.67
1864;2001.4;561.785;3.67
1865;1981.87;577.654;3.67
1866;2001.4;553.972;3.67
1867;2018.8;559.832;3.67
1868;2021.24;538.102;3.67
1869;2011.48;573.748;3.67
1870;1976.68;571.795;3.67
1871;1937.31;546.159;3.67
1872;1949.52;573.748;3.67
1873;1984.31;573.748;3.67
1874;2001.4;565.935;3.67
1875;2009.03;550.066;3.67
1876;2001.4;565.935;3.68
1877;1974.24;569.842;3.68
1878;1959.59;585.467;3.68
1879;1991.64;563.738;3.68
1880;2031.01;552.019;3.68
1881;2048.4;579.608;3.68
1882;2053.29;559.832;3.68
1883;2036.2;555.925;3.68
1884;2001.4;561.785;3.68
1885;1981.87;577.654;3.68
1886;2003.85;565.935;3.68
1887;2018.8;557.878;3.68
1888;2026.12;538.102;3.68
1889;2016.36;567.888;3.68
1890;1981.87;577.654;3.68
1891;1947.08;548.112;3.68
1892;1949.52;569.842;3.68
1893;1986.75;571.795;3.69
1894;2001.4;565.935;3.69
1895;2011.48;548.112;3.69
1896;2006.59;567.888;3.69
1897;1979.43;567.888;3.69
1898;1962.03;589.618;3.69
1899;1994.08;563.738;3.69
1900;2033.75;553.972;3.69
1901;2053.29;581.561;3.69
1902;2058.17;555.925;3.69
1903;2041.08;559.832;3.69
1904;2006.59;559.832;3.69
1905;1986.75;577.654;3.69
1906;2006.59;559.832;3.69
1907;2023.68;557.878;3.69
1908;2026.12;538.102;3.69
1909;2018.8;573.748;3.69
1910;1984.31;571.795;3.69
1911;1947.08;546.159;3.7
1912;1954.71;573.748;3.7
1913;1989.2;567.888;3.7
1914;2003.85;565.935;3.7
1915;2013.92;550.066;3.7
1916;2006.59;575.701;3.7
1917;1981.87;567.888;3.7
1918;1964.48;589.618;3.7
