<WeldAnalyseData xmlns:i="http:www.w3.org/2001/XMLSchema-instance">
<WeldParameter>
<TimeStamp>DT#2023-12-06-10:50:04</TimeStamp>
<Generator>SG-22-10000</Generator>
<GenFreq>20</GenFreq>
<MaxForce>8000</MaxForce>
<MaxPower>10000</MaxPower>
<RunupPressure>1.5</RunupPressure>
<RunupDist>10</RunupDist>
<RunPress>0.8</RunPress>
<ShakeDelay>0.03</ShakeDelay>
<ShakeTime>0.3</ShakeTime>
<RunBackPress1>6</RunBackPress1>
<RunBackPress2>2</RunBackPress2>
<RunBackDist>1</RunBackDist>
<TrigValue>500</TrigValue>
<TrigModeUnit>W</TrigModeUnit>
<WeldModeUnit>Ws</WeldModeUnit>
<PressNr>0</PressNr>
<MaxLoss>1500</MaxLoss>
</WeldParameter>
<WeldSets>
<WeldSet>
<PressRiseTime>0</PressRiseTime>
<RunPressure>1</RunPressure>
<Amplitude>86</Amplitude>
<WeldMode>3270</WeldMode>
</WeldSet>
</WeldSets>
<WeldValue>
<WeldNr>2477</WeldNr>
<RecipeName>RickStyle</RecipeName>
<WeldTime>1792</WeldTime>
<DistDiff>3.74</DistDiff>
<DistAbs>78.31</DistAbs>
<Energy>3271.33</Energy>
<MaxPower>2042.76</MaxPower>
<CycleTime>6120</CycleTime>
<TrigForce>504.654</TrigForce>
<TrigDist>74.57</TrigDist>
<RunSpeed>66.5804</RunSpeed>
<MaxForce>601.337</MaxForce>
<LossPower>253.456</LossPower>
</WeldValue>
</WeldAnalyseData>
#CSV-START#
ms;Power[W];Force[N];Distance[mm]
1;0;0;0
2;0;504.654;0
3;0;502.701;0
4;0;506.607;0.0100021
5;0;502.701;0.0100021
6;0;504.654;0.0100021
7;0;504.654;0.0100021
8;0;500.748;0.0100021
9;0;477.065;0.0199966
10;0;457.289;0.0299988
11;20.6;441.42;0.0400009
12;37.6904;433.607;0.0599976
13;52.6444;423.597;0.0800018
14;79.8059;419.691;0.0999985
15;111.85;415.784;0.110001
16;153.661;407.971;0.129997
17;195.776;405.774;0.150002
18;232.704;399.915;0.169998
19;269.936;390.149;0.18
20;299.539;397.961;0.199997
21;329.142;394.055;0.220001
22;358.745;390.149;0.239998
23;385.907;392.102;0.260002
24;408.185;394.055;0.279999
25;432.905;384.045;0.300003
26;460.067;390.149;0.32
27;482.04;378.185;0.330002
28;499.435;396.008;0.349998
29;511.948;399.915;0.360001
30;519.272;390.149;0.379997
31;524.155;401.868;0.389999
32;543.992;401.868;0.410004
33;556.2;399.915;0.419998
34;563.524;396.008;0.440002
35;566.271;411.878;0.449997
36;568.712;401.868;0.470001
37;568.712;415.784;0.489998
38;580.92;399.915;0.5
39;598.315;399.915;0.519997
40;608.081;413.831;0.529999
41;617.847;401.868;0.550003
42;620.594;405.774;0.559998
43;612.964;409.925;0.580002
44;608.081;415.784;0.590004
45;612.964;403.821;0.599998
46;620.594;409.925;0.610001
47;620.594;401.868;0.629997
48;623.035;425.55;0.639999
49;617.847;419.691;0.650002
50;608.081;407.971;0.669998
51;605.64;423.597;0.68
52;612.964;417.737;0.690002
53;620.594;419.691;0.699997
54;623.035;409.925;0.720001
55;625.477;429.456;0.730003
56;623.035;423.597;0.739998
57;620.594;435.56;0.75
58;627.918;415.784;0.769997
59;647.755;421.644;0.779999
60;652.638;437.513;0.790001
61;655.08;419.691;0.800003
62;655.08;429.456;0.82
63;647.755;431.654;0.830002
64;642.567;439.467;0.840004
65;640.126;423.597;0.849998
66;647.755;431.654;0.860001
67;652.638;419.691;0.870003
68;647.755;449.232;0.879997
69;645.009;439.467;0.889999
70;635.243;433.607;0.910004
71;630.36;433.607;0.919998
72;645.009;443.373;0.93
73;650.197;437.513;0.940002
74;652.638;437.513;0.949997
75;652.638;439.467;0.959999
76;655.08;443.373;0.970001
77;655.08;451.186;0.980003
78;672.17;449.232;0.989998
79;689.566;437.513;1
80;702.078;451.186;1.02
81;709.403;445.326;1.03
82;711.844;441.42;1.04
83;706.961;445.326;1.05
84;704.52;449.232;1.06
85;706.961;443.373;1.07
86;711.844;441.42;1.08
87;714.286;435.56;1.09
88;716.727;445.326;1.11
89;714.286;455.336;1.12
90;704.52;441.42;1.13
91;704.52;447.279;1.14
92;716.727;451.186;1.15
93;726.493;447.279;1.16
94;736.564;441.42;1.18
95;739.006;455.336;1.19
96;736.564;451.186;1.2
97;736.564;461.196;1.22
98;751.213;449.232;1.23
99;775.933;441.42;1.24
100;786.004;457.289;1.25
101;795.77;445.326;1.27
102;795.77;445.326;1.28
103;790.887;447.279;1.3
104;786.004;453.383;1.31
105;793.329;437.513;1.32
106;800.653;443.373;1.34
107;805.536;429.456;1.35
108;805.536;453.383;1.36
109;798.212;451.186;1.38
110;783.563;437.513;1.39
111;780.816;451.186;1.41
112;795.77;449.232;1.42
113;807.977;445.326;1.43
114;810.724;437.513;1.45
115;813.166;457.289;1.46
116;810.724;447.279;1.48
117;810.724;461.196;1.49
118;825.373;443.373;1.51
119;845.21;443.373;1.52
120;854.976;459.243;1.54
121;862.3;439.467;1.55
122;865.047;443.373;1.57
123;854.976;445.326;1.58
124;850.093;455.336;1.6
125;862.3;433.607;1.61
126;869.93;445.326;1.62
127;882.138;427.503;1.64
128;887.02;457.289;1.65
129;884.579;449.232;1.66
130;874.813;431.654;1.68
131;879.696;455.336;1.69
132;901.975;447.279;1.7
133;914.182;447.279;1.72
134;926.695;435.56;1.73
135;938.902;459.243;1.74
136;941.343;449.232;1.75
137;943.785;465.102;1.76
138;966.063;435.56;1.78
139;995.666;445.326;1.79
140;1010.62;461.196;1.8
141;1022.83;435.56;1.81
142;1030.46;445.326;1.82
143;1025.27;445.326;1.83
144;1022.83;457.289;1.84
145;1037.78;435.56;1.86
146;1055.18;445.326;1.87
147;1067.38;431.654;1.88
148;1074.71;453.383;1.89
149;1072.27;453.383;1.9
150;1060.06;435.56;1.91
151;1069.83;455.336;1.92
152;1099.43;451.186;1.93
153;1119.27;453.383;1.94
154;1133.92;439.467;1.95
155;1148.87;467.055;1.96
156;1153.75;455.336;1.97
157;1158.64;472.915;1.98
158;1188.24;445.326;1.99
159;1223.03;447.279;2
160;1242.56;469.008;2.01
161;1264.84;445.326;2.02
162;1272.16;455.336;2.02
163;1262.4;453.383;2.03
164;1259.96;470.962;2.04
165;1282.24;445.326;2.05
166;1302.07;459.243;2.06
167;1314.28;443.373;2.07
168;1321.6;479.019;2.07
169;1311.84;472.915;2.08
170;1296.88;455.336;2.09
171;1302.07;482.925;2.09
172;1334.12;472.915;2.1
173;1348.77;472.915;2.1
174;1358.84;461.196;2.11
175;1371.04;490.738;2.12
176;1366.16;477.065;2.12
177;1363.72;502.701;2.13
178;1393.32;463.149;2.13
179;1425.37;477.065;2.14
180;1445.2;496.597;2.14
181;1459.85;469.008;2.15
182;1465.04;482.925;2.15
183;1450.09;480.972;2.16
184;1442.76;496.597;2.16
185;1467.48;488.784;2.17
186;1482.13;482.925;2.17
187;1494.64;469.008;2.18
188;1501.97;490.738;2.18
189;1487.01;500.748;2.19
190;1467.48;479.019;2.19
191;1474.81;494.644;2.2
192;1511.73;498.795;2.2
193;1524.25;492.691;2.21
194;1541.34;482.925;2.21
195;1548.97;498.795;2.22
196;1541.34;500.748;2.22
197;1534.01;518.326;2.22
198;1568.5;496.597;2.23
199;1603.29;488.784;2.23
200;1622.82;510.514;2.24
201;1640.22;494.644;2.24
202;1637.78;498.795;2.25
203;1617.94;498.795;2.25
204;1608.17;512.467;2.26
205;1630.45;498.795;2.26
206;1647.54;498.795;2.26
207;1660.05;482.925;2.27
208;1660.05;512.467;2.27
209;1640.22;514.42;2.28
210;1613.06;490.738;2.28
211;1617.94;512.467;2.28
212;1649.98;510.514;2.29
213;1667.38;510.514;2.29
214;1677.14;494.644;2.3
215;1682.33;522.477;2.3
216;1667.38;514.42;2.3
217;1660.05;532.243;2.31
218;1687.22;506.607;2.31
219;1724.14;504.654;2.32
220;1743.98;528.336;2.32
221;1756.19;504.654;2.32
222;1748.86;510.514;2.33
223;1724.14;508.56;2.33
224;1711.94;524.43;2.33
225;1731.47;500.748;2.34
226;1748.86;510.514;2.34
227;1756.19;490.738;2.34
228;1753.75;526.383;2.35
229;1731.47;520.524;2.35
230;1699.42;498.795;2.35
231;1701.86;528.336;2.36
232;1736.66;520.524;2.36
233;1753.75;520.524;2.36
234;1758.63;502.701;2.37
235;1758.63;536.149;2.37
236;1743.98;522.477;2.37
237;1729.03;546.159;2.37
238;1761.07;508.56;2.38
239;1795.86;516.373;2.38
240;1812.95;536.149;2.38
241;1820.58;508.56;2.39
242;1812.95;518.326;2.39
243;1785.79;516.373;2.39
244;1768.7;536.149;2.4
245;1788.23;504.654;2.4
246;1805.63;520.524;2.4
247;1810.51;498.795;2.41
248;1810.51;544.206;2.41
249;1780.91;528.336;2.41
250;1748.86;510.514;2.42
251;1748.86;538.102;2.42
252;1783.35;526.383;2.42
253;1798.3;528.336;2.42
254;1808.07;514.42;2.43
255;1808.07;544.206;2.43
256;1785.79;526.383;2.43
257;1773.58;550.066;2.44
258;1803.19;506.607;2.44
259;1840.11;522.477;2.44
260;1857.51;544.206;2.44
261;1864.83;510.514;2.45
262;1855.07;520.524;2.45
263;1827.91;526.383;2.45
264;1808.07;542.009;2.45
265;1832.79;530.29;2.46
266;1845;524.43;2.46
267;1850.18;506.607;2.46
268;1847.74;534.196;2.47
269;1817.84;540.056;2.47
270;1783.35;516.373;2.47
271;1788.23;536.149;2.47
272;1820.58;536.149;2.48
273;1835.23;532.243;2.48
274;1842.56;518.326;2.48
275;1840.11;538.102;2.48
276;1820.58;536.149;2.49
277;1805.63;553.972;2.49
278;1837.67;530.29;2.49
279;1872.16;524.43;2.49
280;1889.55;550.066;2.5
281;1896.88;526.383;2.5
282;1887.11;530.29;2.5
283;1855.07;530.29;2.5
284;1837.67;548.112;2.51
285;1859.95;524.43;2.51
286;1877.35;532.243;2.51
287;1882.23;510.514;2.51
288;1872.16;544.206;2.52
289;1842.56;542.009;2.52
290;1810.51;522.477;2.52
291;1815.39;544.206;2.52
292;1847.74;540.056;2.52
293;1859.95;540.056;2.53
294;1869.72;522.477;2.53
295;1864.83;553.972;2.53
296;1842.56;540.056;2.53
297;1825.46;563.738;2.54
298;1862.39;530.29;2.54
299;1896.88;530.29;2.54
300;1911.83;555.925;2.54
301;1921.6;526.383;2.55
302;1906.95;536.149;2.55
303;1879.79;534.196;2.55
304;1862.39;553.972;2.55
305;1882.23;524.43;2.55
306;1896.88;536.149;2.56
307;1899.32;514.42;2.56
308;1891.99;557.878;2.56
309;1862.39;546.159;2.56
310;1825.46;522.477;2.56
311;1830.35;553.972;2.57
312;1864.83;544.206;2.57
313;1879.79;546.159;2.57
314;1887.11;528.336;2.57
315;1882.23;561.785;2.57
316;1862.39;542.009;2.58
317;1842.56;569.842;2.58
318;1879.79;528.336;2.58
319;1914.27;538.102;2.58
320;1931.67;559.832;2.58
321;1938.99;530.29;2.59
322;1924.04;544.206;2.59
323;1891.99;540.056;2.59
324;1877.35;555.925;2.59
325;1899.32;524.43;2.6
326;1909.39;542.009;2.6
327;1916.71;522.477;2.6
328;1909.39;569.842;2.6
329;1877.35;548.112;2.6
330;1837.67;528.336;2.6
331;1845;563.738;2.61
332;1879.79;548.112;2.61
333;1894.44;548.112;2.61
334;1899.32;532.243;2.61
335;1891.99;565.935;2.61
336;1869.72;548.112;2.62
337;1855.07;571.795;2.62
338;1889.55;526.383;2.62
339;1924.04;542.009;2.62
340;1941.43;561.785;2.62
341;1948.76;534.196;2.63
342;1931.67;546.159;2.63
343;1902.07;544.206;2.63
344;1882.23;559.832;2.63
345;1904.51;528.336;2.63
346;1919.16;548.112;2.63
347;1924.04;522.477;2.64
348;1916.71;567.888;2.64
349;1884.67;553.972;2.64
350;1847.74;532.243;2.64
351;1855.07;565.935;2.64
352;1887.11;553.972;2.65
353;1904.51;552.019;2.65
354;1906.95;536.149;2.65
355;1902.07;571.795;2.65
356;1879.79;552.019;2.65
357;1862.39;575.701;2.65
358;1902.07;534.196;2.66
359;1931.67;546.159;2.66
360;1951.2;569.842;2.66
361;1956.39;536.149;2.66
362;1941.43;553.972;2.66
363;1909.39;550.066;2.66
364;1891.99;565.935;2.67
365;1914.27;536.149;2.67
366;1931.67;552.019;2.67
367;1934.11;532.243;2.67
368;1924.04;579.608;2.67
369;1891.99;557.878;2.67
370;1855.07;540.056;2.68
371;1862.39;571.795;2.68
372;1896.88;553.972;2.68
373;1911.83;555.925;2.68
374;1919.16;542.009;2.68
375;1911.83;571.795;2.68
376;1887.11;557.878;2.69
377;1869.72;579.608;2.69
378;1909.39;555.925;2.69
379;1943.88;546.159;2.69
380;1961.27;573.748;2.69
381;1968.6;552.019;2.69
382;1951.2;552.019;2.69
383;1921.6;553.972;2.7
384;1904.51;571.795;2.7
385;1926.48;552.019;2.7
386;1938.99;553.972;2.7
387;1946.32;532.243;2.7
388;1934.11;565.935;2.7
389;1902.07;565.935;2.7
390;1867.28;542.009;2.71
391;1872.16;565.935;2.71
392;1906.95;563.738;2.71
393;1921.6;561.785;2.71
394;1929.23;542.009;2.71
395;1921.6;571.795;2.71
396;1896.88;561.785;2.72
397;1882.23;583.514;2.72
398;1916.71;553.972;2.72
399;1953.64;553.972;2.72
400;1968.6;575.701;2.72
401;1978.36;552.019;2.72
402;1961.27;557.878;2.72
403;1926.48;555.925;2.73
404;1911.83;575.701;2.73
405;1931.67;546.159;2.73
406;1946.32;555.925;2.73
407;1951.2;536.149;2.73
408;1938.99;571.795;2.73
409;1906.95;567.888;2.73
410;1872.16;544.206;2.74
411;1879.79;573.748;2.74
412;1914.27;565.935;2.74
413;1929.23;563.738;2.74
414;1936.55;548.112;2.74
415;1926.48;581.561;2.74
416;1902.07;563.738;2.74
417;1889.55;589.618;2.75
418;1924.04;548.112;2.75
419;1961.27;557.878;2.75
420;1975.92;581.561;2.75
421;1980.8;550.066;2.75
422;1966.15;561.785;2.75
423;1934.11;559.832;2.75
424;1919.16;575.701;2.75
425;1941.43;546.159;2.76
426;1953.64;563.738;2.76
427;1958.83;538.102;2.76
428;1948.76;585.467;2.76
429;1914.27;567.888;2.76
430;1879.79;548.112;2.76
431;1887.11;579.608;2.76
432;1919.16;565.935;2.77
433;1936.55;567.888;2.77
434;1943.88;552.019;2.77
435;1936.55;583.514;2.77
436;1911.83;563.738;2.77
437;1894.44;589.618;2.77
438;1931.67;546.159;2.77
439;1968.6;561.785;2.77
440;1983.55;581.561;2.78
441;1985.99;550.066;2.78
442;1971.04;563.738;2.78
443;1938.99;563.738;2.78
444;1924.04;579.608;2.78
445;1946.32;548.112;2.78
446;1961.27;563.738;2.78
447;1966.15;540.056;2.78
448;1951.2;595.477;2.79
449;1919.16;567.888;2.79
450;1879.79;552.019;2.79
451;1891.99;585.467;2.79
452;1929.23;565.935;2.79
453;1938.99;567.888;2.79
454;1946.32;550.066;2.79
455;1936.55;573.748;2.79
456;1911.83;569.842;2.8
457;1896.88;591.571;2.8
458;1936.55;563.738;2.8
459;1968.6;557.878;2.8
460;1985.99;581.561;2.8
461;1993.32;557.878;2.8
462;1973.48;561.785;2.8
463;1941.43;561.785;2.8
464;1924.04;579.608;2.81
465;1948.76;559.832;2.81
466;1961.27;563.738;2.81
467;1963.71;542.009;2.81
468;1956.39;577.654;2.81
469;1919.16;573.748;2.81
470;1879.79;548.112;2.81
471;1894.44;579.608;2.81
472;1926.48;569.842;2.82
473;1938.99;571.795;2.82
474;1943.88;550.066;2.82
475;1936.55;583.514;2.82
476;1911.83;567.888;2.82
477;1891.99;593.524;2.82
478;1934.11;557.878;2.82
479;1968.6;561.785;2.82
480;1985.99;583.514;2.82
481;1985.99;557.878;2.83
482;1971.04;565.935;2.83
483;1938.99;563.738;2.83
484;1924.04;579.608;2.83
485;1946.32;550.066;2.83
486;1958.83;567.888;2.83
487;1961.27;540.056;2.83
488;1948.76;583.514;2.83
489;1911.83;571.795;2.84
490;1877.35;552.019;2.84
491;1887.11;583.514;2.84
492;1919.16;571.795;2.84
493;1934.11;571.795;2.84
494;1936.55;553.972;2.84
495;1931.67;587.42;2.84
496;1904.51;567.888;2.84
497;1891.99;593.524;2.84
498;1931.67;553.972;2.85
499;1963.71;563.738;2.85
500;1978.36;585.467;2.85
501;1983.55;553.972;2.85
502;1963.71;567.888;2.85
503;1931.67;563.738;2.85
504;1919.16;581.561;2.85
505;1938.99;550.066;2.85
506;1953.64;565.935;2.85
507;1956.39;546.159;2.85
508;1943.88;595.477;2.86
509;1909.39;571.795;2.86
510;1872.16;553.972;2.86
511;1887.11;587.42;2.86
512;1916.71;567.888;2.86
513;1931.67;569.842;2.86
514;1936.55;553.972;2.86
515;1926.48;587.42;2.86
516;1899.32;567.888;2.86
517;1887.11;595.477;2.87
518;1929.23;548.112;2.87
519;1958.83;565.935;2.87
520;1973.48;585.467;2.87
521;1978.36;550.066;2.87
522;1958.83;569.842;2.87
523;1929.23;567.888;2.87
524;1911.83;581.561;2.87
525;1936.55;552.019;2.87
526;1948.76;565.935;2.87
527;1953.64;548.112;2.88
528;1938.99;599.384;2.88
529;1904.51;571.795;2.88
530;1869.72;555.925;2.88
531;1882.23;583.514;2.88
532;1914.27;569.842;2.88
533;1926.48;571.795;2.88
534;1934.11;553.972;2.88
535;1924.04;591.571;2.88
536;1899.32;567.888;2.88
537;1889.55;597.43;2.89
538;1926.48;552.019;2.89
539;1961.27;567.888;2.89
540;1973.48;585.467;2.89
541;1978.36;553.972;2.89
542;1956.39;569.842;2.89
543;1924.04;565.935;2.89
544;1916.71;583.514;2.89
545;1936.55;548.112;2.89
546;1948.76;567.888;2.89
547;1951.2;546.159;2.9
548;1938.99;595.477;2.9
549;1904.51;573.748;2.9
550;1869.72;553.972;2.9
551;1882.23;589.618;2.9
552;1914.27;573.748;2.9
553;1924.04;569.842;2.9
554;1931.67;555.925;2.9
555;1921.6;589.618;2.9
556;1896.88;571.795;2.9
557;1884.67;595.477;2.9
558;1924.04;546.159;2.91
559;1956.39;567.888;2.91
560;1971.04;583.514;2.91
561;1973.48;552.019;2.91
562;1953.64;571.795;2.91
563;1924.04;567.888;2.91
564;1909.39;583.514;2.91
565;1931.67;553.972;2.91
566;1941.43;565.935;2.91
567;1943.88;550.066;2.91
568;1931.67;599.384;2.92
569;1894.44;571.795;2.92
570;1862.39;555.925;2.92
571;1874.9;577.654;2.92
572;1904.51;575.701;2.92
573;1914.27;571.795;2.92
574;1924.04;553.972;2.92
575;1914.27;581.561;2.92
576;1887.11;573.748;2.92
577;1877.35;595.477;2.92
578;1919.16;563.738;2.93
579;1948.76;561.785;2.93
580;1963.71;589.618;2.93
581;1971.04;559.832;2.93
582;1951.2;567.888;2.93
583;1919.16;567.888;2.93
584;1906.95;585.467;2.93
585;1929.23;555.925;2.93
586;1938.99;569.842;2.93
587;1941.43;544.206;2.93
588;1931.67;585.467;2.94
589;1896.88;577.654;2.94
590;1857.51;555.925;2.94
591;1874.9;583.514;2.94
592;1904.51;571.795;2.94
593;1916.71;573.748;2.94
594;1924.04;553.972;2.94
595;1914.27;589.618;2.94
596;1887.11;573.748;2.94
597;1879.79;599.384;2.94
598;1919.16;557.878;2.94
599;1951.2;565.935;2.95
600;1966.15;589.618;2.95
601;1971.04;557.878;2.95
602;1951.2;571.795;2.95
603;1919.16;567.888;2.95
604;1904.51;585.467;2.95
605;1929.23;553.972;2.95
606;1938.99;571.795;2.95
607;1943.88;546.159;2.95
608;1929.23;591.571;2.95
609;1891.99;575.701;2.95
610;1862.39;553.972;2.96
611;1874.9;589.618;2.96
612;1909.39;573.748;2.96
613;1919.16;573.748;2.96
614;1924.04;557.878;2.96
615;1914.27;591.571;2.96
616;1889.55;571.795;2.96
617;1877.35;599.384;2.96
618;1919.16;552.019;2.96
619;1948.76;569.842;2.96
620;1963.71;589.618;2.96
621;1968.6;557.878;2.97
622;1946.32;573.748;2.97
623;1914.27;569.842;2.97
624;1904.51;585.467;2.97
625;1929.23;553.972;2.97
626;1938.99;567.888;2.97
627;1938.99;548.112;2.97
628;1929.23;601.337;2.97
629;1891.99;575.701;2.97
630;1859.95;557.878;2.97
631;1872.16;593.524;2.97
632;1904.51;573.748;2.97
633;1916.71;573.748;2.98
634;1919.16;557.878;2.98
635;1909.39;589.618;2.98
636;1887.11;573.748;2.98
637;1877.35;595.477;2.98
638;1916.71;546.159;2.98
639;1951.2;569.842;2.98
640;1963.71;585.467;2.98
641;1968.6;552.019;2.98
642;1948.76;571.795;2.98
643;1916.71;569.842;2.98
644;1904.51;585.467;2.99
645;1931.67;555.925;2.99
646;1941.43;567.888;2.99
647;1941.43;548.112;2.99
648;1929.23;581.561;2.99
649;1891.99;577.654;2.99
650;1859.95;555.925;2.99
651;1874.9;581.561;2.99
652;1904.51;573.748;2.99
653;1919.16;573.748;2.99
654;1926.48;555.925;2.99
655;1911.83;589.618;2.99
656;1887.11;573.748;2.99
657;1879.79;599.384;3
658;1921.6;565.935;3
659;1951.2;565.935;3
660;1966.15;591.571;3
661;1968.6;559.832;3
662;1946.32;567.888;3
663;1916.71;567.888;3
664;1906.95;585.467;3
665;1926.48;553.972;3
666;1938.99;569.842;3
667;1943.88;544.206;3
668;1929.23;589.618;3
669;1891.99;575.701;3.01
670;1859.95;555.925;3.01
671;1879.79;585.467;3.01
672;1906.95;573.748;3.01
673;1919.16;573.748;3.01
674;1924.04;555.925;3.01
675;1914.27;593.524;3.01
676;1887.11;571.795;3.01
677;1879.79;597.43;3.01
678;1924.04;555.925;3.01
679;1951.2;567.888;3.01
680;1971.04;587.42;3.01
681;1973.48;557.878;3.01
682;1948.76;569.842;3.02
683;1919.16;565.935;3.02
684;1909.39;585.467;3.02
685;1934.11;552.019;3.02
686;1946.32;569.842;3.02
687;1948.76;546.159;3.02
688;1934.11;595.477;3.02
689;1899.32;577.654;3.02
690;1864.83;553.972;3.02
691;1882.23;591.571;3.02
692;1914.27;573.748;3.02
693;1929.23;573.748;3.02
694;1931.67;555.925;3.02
695;1919.16;591.571;3.03
696;1894.44;573.748;3.03
697;1887.11;597.43;3.03
698;1929.23;548.112;3.03
699;1961.27;565.935;3.03
700;1975.92;587.42;3.03
701;1975.92;553.972;3.03
702;1953.64;571.795;3.03
703;1926.48;567.888;3.03
704;1919.16;583.514;3.03
705;1938.99;553.972;3.03
706;1951.2;569.842;3.03
707;1953.64;550.066;3.03
708;1938.99;599.384;3.04
709;1904.51;573.748;3.04
710;1872.16;557.878;3.04
711;1891.99;591.571;3.04
712;1921.6;571.795;3.04
713;1934.11;569.842;3.04
714;1938.99;561.785;3.04
715;1926.48;589.618;3.04
716;1902.07;573.748;3.04
717;1891.99;591.571;3.04
718;1938.99;544.206;3.04
719;1968.6;571.795;3.04
720;1980.8;585.467;3.05
721;1983.55;550.066;3.05
722;1961.27;571.795;3.05
723;1931.67;571.795;3.05
724;1924.04;585.467;3.05
725;1946.32;552.019;3.05
726;1958.83;567.888;3.05
727;1961.27;548.112;3.05
728;1948.76;595.477;3.05
729;1909.39;573.748;3.05
730;1877.35;553.972;3.05
731;1894.44;591.571;3.05
732;1929.23;571.795;3.05
733;1938.99;571.795;3.05
734;1946.32;557.878;3.06
735;1934.11;589.618;3.06
736;1906.95;571.795;3.06
737;1902.07;597.43;3.06
738;1948.76;546.159;3.06
739;1973.48;565.935;3.06
740;1988.43;585.467;3.06
741;1988.43;553.972;3.06
742;1968.6;569.842;3.06
743;1938.99;569.842;3.06
744;1931.67;581.561;3.06
745;1956.39;552.019;3.06
746;1963.71;569.842;3.06
747;1968.6;550.066;3.07
748;1951.2;601.337;3.07
749;1914.27;571.795;3.07
750;1882.23;555.925;3.07
751;1906.95;593.524;3.07
752;1936.55;569.842;3.07
753;1946.32;567.888;3.07
754;1953.64;559.832;3.07
755;1941.43;587.42;3.07
756;1914.27;573.748;3.07
757;1906.95;591.571;3.07
758;1951.2;542.009;3.07
759;1978.36;571.795;3.07
760;1995.76;585.467;3.07
761;1998.2;550.066;3.08
762;1973.48;569.842;3.08
763;1941.43;565.935;3.08
764;1936.55;583.514;3.08
765;1963.71;555.925;3.08
766;1971.04;567.888;3.08
767;1973.48;546.159;3.08
768;1956.39;585.467;3.08
769;1919.16;577.654;3.08
770;1884.67;552.019;3.08
771;1911.83;583.514;3.08
772;1938.99;573.748;3.08
773;1951.2;571.795;3.08
774;1956.39;553.972;3.08
775;1943.88;591.571;3.09
776;1916.71;573.748;3.09
777;1911.83;597.43;3.09
778;1956.39;557.878;3.09
779;1983.55;565.935;3.09
780;1998.2;587.42;3.09
781;1998.2;555.925;3.09
782;1978.36;565.935;3.09
783;1946.32;565.935;3.09
784;1938.99;583.514;3.09
785;1963.71;550.066;3.09
786;1973.48;565.935;3.09
787;1975.92;544.206;3.09
788;1961.27;589.618;3.09
789;1921.6;575.701;3.1
790;1889.55;552.019;3.1
791;1914.27;587.42;3.1
792;1943.88;571.795;3.1
793;1953.64;573.748;3.1
794;1958.83;555.925;3.1
795;1948.76;589.618;3.1
796;1919.16;569.842;3.1
797;1914.27;597.43;3.1
798;1958.83;552.019;3.1
799;1985.99;565.935;3.1
800;2003.08;585.467;3.1
801;2005.52;555.925;3.1
802;1980.8;567.888;3.1
803;1948.76;565.935;3.1
804;1941.43;583.514;3.11
805;1966.15;553.972;3.11
806;1975.92;567.888;3.11
807;1978.36;546.159;3.11
808;1961.27;597.43;3.11
809;1924.04;573.748;3.11
810;1891.99;555.925;3.11
811;1916.71;589.618;3.11
812;1943.88;571.795;3.11
813;1956.39;569.842;3.11
814;1961.27;557.878;3.11
815;1948.76;585.467;3.11
816;1919.16;571.795;3.11
817;1914.27;595.477;3.11
818;1961.27;544.206;3.11
819;1990.87;567.888;3.12
820;2003.08;583.514;3.12
821;2003.08;550.066;3.12
822;1978.36;571.795;3.12
823;1948.76;571.795;3.12
824;1946.32;581.561;3.12
825;1968.6;553.972;3.12
826;1978.36;563.738;3.12
827;1978.36;548.112;3.12
828;1961.27;601.337;3.12
829;1924.04;571.795;3.12
830;1894.44;557.878;3.12
831;1919.16;591.571;3.12
832;1946.32;567.888;3.12
833;1958.83;565.935;3.13
834;1961.27;559.832;3.13
835;1948.76;583.514;3.13
836;1924.04;573.748;3.13
837;1916.71;589.618;3.13
838;1963.71;544.206;3.13
839;1988.43;571.795;3.13
840;2005.52;587.42;3.13
841;2005.52;559.832;3.13
842;1978.36;565.935;3.13
843;1951.2;563.738;3.13
844;1946.32;585.467;3.13
845;1971.04;552.019;3.13
846;1978.36;565.935;3.13
847;1980.8;542.009;3.14
848;1966.15;587.42;3.14
849;1926.48;573.748;3.14
850;1894.44;550.066;3.14
851;1919.16;583.514;3.14
852;1948.76;571.795;3.14
853;1961.27;573.748;3.14
854;1963.71;552.019;3.14
855;1951.2;587.42;3.14
856;1921.6;571.795;3.14
857;1919.16;597.43;3.14
858;1966.15;553.972;3.14
859;1990.87;565.935;3.14
860;2007.97;587.42;3.14
861;2007.97;553.972;3.15
862;1983.55;565.935;3.15
863;1953.64;563.738;3.15
864;1946.32;583.514;3.15
865;1973.48;550.066;3.15
866;1980.8;567.888;3.15
867;1980.8;546.159;3.15
868;1966.15;595.477;3.15
869;1929.23;571.795;3.15
870;1896.88;553.972;3.15
871;1924.04;587.42;3.15
872;1951.2;569.842;3.15
873;1963.71;569.842;3.15
874;1966.15;557.878;3.15
875;1951.2;587.42;3.16
876;1926.48;569.842;3.16
877;1921.6;593.524;3.16
878;1971.04;546.159;3.16
879;1995.76;565.935;3.16
880;2007.97;585.467;3.16
881;2010.71;552.019;3.16
882;1985.99;569.842;3.16
883;1953.64;565.935;3.16
884;1951.2;583.514;3.16
885;1973.48;552.019;3.16
886;1983.55;567.888;3.16
887;1985.99;548.112;3.16
888;1968.6;599.384;3.16
889;1929.23;571.795;3.17
890;1899.32;555.925;3.17
891;1926.48;589.618;3.17
892;1953.64;569.842;3.17
893;1966.15;567.888;3.17
894;1971.04;557.878;3.17
895;1956.39;585.467;3.17
896;1929.23;571.795;3.17
897;1926.48;591.571;3.17
898;1973.48;544.206;3.17
899;2000.64;567.888;3.17
900;2013.15;583.514;3.17
901;2013.15;552.019;3.17
902;1988.43;569.842;3.17
903;1956.39;571.795;3.18
904;1953.64;579.608;3.18
905;1978.36;555.925;3.18
906;1988.43;563.738;3.18
907;1988.43;552.019;3.18
908;1971.04;597.43;3.18
909;1931.67;569.842;3.18
910;1904.51;557.878;3.18
911;1931.67;595.477;3.18
912;1958.83;569.842;3.18
913;1968.6;563.738;3.18
914;1973.48;559.832;3.18
915;1956.39;581.561;3.18
916;1929.23;573.748;3.18
917;1929.23;593.524;3.18
918;1973.48;544.206;3.19
919;2000.64;565.935;3.19
920;2018.04;583.514;3.19
921;2018.04;552.019;3.19
922;1988.43;571.795;3.19
923;1961.27;569.842;3.19
924;1958.83;581.561;3.19
925;1980.8;553.972;3.19
926;1990.87;567.888;3.19
927;1990.87;548.112;3.19
928;1973.48;597.43;3.19
929;1934.11;573.748;3.19
930;1904.51;555.925;3.19
931;1934.11;593.524;3.19
932;1961.27;569.842;3.19
933;1973.48;565.935;3.2
934;1975.92;557.878;3.2
935;1961.27;587.42;3.2
936;1931.67;573.748;3.2
937;1931.67;589.618;3.2
938;1978.36;542.009;3.2
939;2007.97;569.842;3.2
940;2018.04;581.561;3.2
941;2018.04;548.112;3.2
942;1990.87;571.795;3.2
943;1963.71;571.795;3.2
944;1963.71;581.561;3.2
945;1983.55;553.972;3.2
946;1993.32;563.738;3.2
947;1993.32;552.019;3.2
948;1978.36;597.43;3.21
949;1938.99;569.842;3.21
950;1909.39;561.785;3.21
951;1936.55;595.477;3.21
952;1963.71;569.842;3.21
953;1975.92;561.785;3.21
954;1978.36;561.785;3.21
955;1963.71;581.561;3.21
956;1936.55;573.748;3.21
957;1936.55;597.43;3.21
958;1980.8;557.878;3.21
959;2007.97;565.935;3.21
960;2020.48;587.42;3.21
961;2020.48;557.878;3.21
962;1995.76;567.888;3.21
963;1963.71;561.785;3.22
964;1963.71;583.514;3.22
965;1988.43;552.019;3.22
966;1995.76;567.888;3.22
967;1998.2;546.159;3.22
968;1978.36;591.571;3.22
969;1938.99;575.701;3.22
970;1911.83;553.972;3.22
971;1941.43;585.467;3.22
972;1966.15;571.795;3.22
973;1978.36;573.748;3.22
974;1980.8;553.972;3.22
975;1966.15;587.42;3.22
976;1938.99;569.842;3.22
977;1938.99;597.43;3.22
978;1983.55;550.066;3.23
979;2013.15;567.888;3.23
980;2025.36;585.467;3.23
981;2025.36;553.972;3.23
982;1995.76;569.842;3.23
983;1966.15;565.935;3.23
984;1966.15;583.514;3.23
985;1990.87;550.066;3.23
986;1995.76;567.888;3.23
987;1998.2;544.206;3.23
988;1980.8;595.477;3.23
989;1938.99;571.795;3.23
990;1914.27;553.972;3.23
991;1943.88;589.618;3.23
992;1968.6;569.842;3.23
993;1980.8;567.888;3.23
994;1983.55;553.972;3.24
995;1971.04;587.42;3.24
996;1941.43;569.842;3.24
997;1941.43;593.524;3.24
998;1988.43;542.009;3.24
999;2013.15;567.888;3.24
1000;2025.36;583.514;3.24
1001;2022.92;550.066;3.24
1002;1995.76;569.842;3.24
1003;1966.15;569.842;3.24
1004;1966.15;581.561;3.24
1005;1990.87;555.925;3.24
1006;1998.2;563.738;3.24
1007;1998.2;550.066;3.24
1008;1978.36;599.384;3.24
1009;1941.43;571.795;3.24
1010;1914.27;555.925;3.25
1011;1943.88;593.524;3.25
1012;1968.6;567.888;3.25
1013;1980.8;567.888;3.25
1014;1983.55;559.832;3.25
1015;1966.15;583.514;3.25
1016;1941.43;575.701;3.25
1017;1941.43;591.571;3.25
1018;1988.43;546.159;3.25
1019;2015.6;571.795;3.25
1020;2027.8;581.561;3.25
1021;2025.36;548.112;3.25
1022;2000.64;567.888;3.25
1023;1966.15;573.748;3.25
1024;1971.04;579.608;3.25
1025;1990.87;555.925;3.25
1026;2000.64;561.785;3.26
1027;2000.64;553.972;3.26
1028;1980.8;595.477;3.26
1029;1941.43;565.935;3.26
1030;1916.71;561.785;3.26
1031;1946.32;593.524;3.26
1032;1971.04;569.842;3.26
1033;1983.55;573.748;3.26
1034;1988.43;553.972;3.26
1035;1971.04;589.618;3.26
1036;1943.88;573.748;3.26
1037;1943.88;595.477;3.26
1038;1990.87;555.925;3.26
1039;2015.6;565.935;3.26
1040;2032.69;585.467;3.26
1041;2027.8;555.925;3.26
1042;2003.08;569.842;3.27
1043;1971.04;561.785;3.27
1044;1973.48;583.514;3.27
1045;1993.32;550.066;3.27
1046;2003.08;563.738;3.27
1047;2000.64;544.206;3.27
1048;1980.8;595.477;3.27
1049;1943.88;575.701;3.27
1050;1916.71;553.972;3.27
1051;1943.88;587.42;3.27
1052;1973.48;573.748;3.27
1053;1980.8;571.795;3.27
1054;1980.8;555.925;3.27
1055;1968.6;587.42;3.27
1056;1941.43;569.842;3.27
1057;1943.88;595.477;3.27
1058;1990.87;548.112;3.28
1059;2015.6;565.935;3.28
1060;2030.24;585.467;3.28
1061;2025.36;552.019;3.28
1062;1998.2;567.888;3.28
1063;1968.6;565.935;3.28
1064;1971.04;579.608;3.28
1065;1993.32;552.019;3.28
1066;2000.64;565.935;3.28
1067;1998.2;548.112;3.28
1068;1980.8;597.43;3.28
1069;1941.43;571.795;3.28
1070;1916.71;555.925;3.28
1071;1946.32;591.571;3.28
1072;1975.92;569.842;3.28
1073;1983.55;565.935;3.28
1074;1983.55;557.878;3.29
1075;1968.6;583.514;3.29
1076;1941.43;573.748;3.29
1077;1943.88;591.571;3.29
1078;1990.87;542.009;3.29
1079;2018.04;569.842;3.29
1080;2030.24;583.514;3.29
1081;2027.8;548.112;3.29
1082;2000.64;567.888;3.29
1083;1968.6;569.842;3.29
1084;1971.04;579.608;3.29
1085;1993.32;553.972;3.29
1086;2003.08;561.785;3.29
1087;2005.52;552.019;3.29
1088;1980.8;597.43;3.29
1089;1941.43;569.842;3.29
1090;1916.71;555.925;3.3
1091;1948.76;593.524;3.3
1092;1973.48;567.888;3.3
1093;1983.55;563.738;3.3
1094;1985.99;559.832;3.3
1095;1968.6;583.514;3.3
1096;1943.88;575.701;3.3
1097;1946.32;591.571;3.3
1098;1993.32;544.206;3.3
1099;2018.04;571.795;3.3
1100;2030.24;579.608;3.3
1101;2027.8;550.066;3.3
1102;2000.64;569.842;3.3
1103;1968.6;573.748;3.3
1104;1971.04;577.654;3.3
1105;1995.76;559.832;3.3
1106;2003.08;557.878;3.31
1107;2003.08;555.925;3.31
1108;1983.55;595.477;3.31
1109;1941.43;571.795;3.31
1110;1916.71;557.878;3.31
1111;1948.76;589.618;3.31
1112;1975.92;567.888;3.31
1113;1983.55;565.935;3.31
1114;1985.99;557.878;3.31
1115;1973.48;585.467;3.31
1116;1941.43;571.795;3.31
1117;1948.76;591.571;3.31
1118;1993.32;540.056;3.31
1119;2018.04;565.935;3.31
1120;2032.69;581.561;3.31
1121;2027.8;546.159;3.31
1122;2000.64;567.888;3.31
1123;1971.04;571.795;3.32
1124;1975.92;579.608;3.32
1125;1998.2;553.972;3.32
1126;2005.52;561.785;3.32
1127;2005.52;552.019;3.32
1128;1983.55;593.524;3.32
1129;1941.43;569.842;3.32
1130;1921.6;557.878;3.32
1131;1951.2;593.524;3.32
1132;1975.92;567.888;3.32
1133;1985.99;561.785;3.32
1134;1983.55;559.832;3.32
1135;1971.04;581.561;3.32
1136;1943.88;577.654;3.32
1137;1951.2;585.467;3.32
1138;1998.2;546.159;3.32
1139;2020.48;571.795;3.32
1140;2035.13;577.654;3.33
1141;2027.8;548.112;3.33
1142;2003.08;567.888;3.33
1143;1971.04;575.701;3.33
1144;1975.92;575.701;3.33
1145;1998.2;559.832;3.33
1146;2007.97;553.972;3.33
1147;2005.52;542.009;3.33
1148;1980.8;589.618;3.33
1149;1943.88;571.795;3.33
1150;1919.16;552.019;3.33
1151;1951.2;583.514;3.33
1152;1978.36;569.842;3.33
1153;1985.99;569.842;3.33
1154;1985.99;553.972;3.33
1155;1973.48;587.42;3.33
1156;1946.32;567.888;3.34
1157;1951.2;593.524;3.34
1158;1998.2;550.066;3.34
1159;2022.92;565.935;3.34
1160;2037.87;585.467;3.34
1161;2030.24;552.019;3.34
1162;2003.08;567.888;3.34
1163;1973.48;565.935;3.34
1164;1978.36;579.608;3.34
1165;1998.2;550.066;3.34
1166;2007.97;567.888;3.34
1167;2005.52;544.206;3.34
1168;1983.55;597.43;3.34
1169;1941.43;567.888;3.34
1170;1919.16;553.972;3.34
1171;1953.64;587.42;3.34
1172;1978.36;567.888;3.34
1173;1985.99;567.888;3.35
1174;1988.43;555.925;3.35
1175;1971.04;585.467;3.35
1176;1943.88;569.842;3.35
1177;1951.2;591.571;3.35
1178;1998.2;540.056;3.35
1179;2020.48;565.935;3.35
1180;2035.13;583.514;3.35
1181;2032.69;550.066;3.35
1182;2003.08;567.888;3.35
1183;1971.04;569.842;3.35
1184;1975.92;579.608;3.35
1185;1998.2;552.019;3.35
1186;2005.52;563.738;3.35
1187;2007.97;550.066;3.35
1188;1980.8;595.477;3.35
1189;1943.88;569.842;3.35
1190;1921.6;553.972;3.36
1191;1953.64;591.571;3.36
1192;1975.92;565.935;3.36
1193;1985.99;565.935;3.36
1194;1985.99;559.832;3.36
1195;1968.6;583.514;3.36
1196;1943.88;571.795;3.36
1197;1951.2;587.42;3.36
1198;1998.2;542.009;3.36
1199;2022.92;567.888;3.36
1200;2035.13;579.608;3.36
1201;2030.24;546.159;3.36
1202;2003.08;567.888;3.36
1203;1971.04;571.795;3.36
1204;1978.36;577.654;3.36
1205;2000.64;557.878;3.36
1206;2007.97;557.878;3.36
1207;2005.52;552.019;3.37
1208;1983.55;593.524;3.37
1209;1941.43;567.888;3.37
1210;1921.6;561.785;3.37
1211;1956.39;591.571;3.37
1212;1978.36;567.888;3.37
1213;1988.43;561.785;3.37
1214;1988.43;559.832;3.37
1215;1971.04;579.608;3.37
1216;1943.88;575.701;3.37
1217;1953.64;583.514;3.37
1218;2000.64;546.159;3.37
1219;2022.92;571.795;3.37
1220;2037.87;575.701;3.37
1221;2030.24;550.066;3.37
1222;2003.08;567.888;3.37
1223;1973.48;573.748;3.37
1224;1978.36;581.561;3.38
1225;2000.64;550.066;3.38
1226;2007.97;565.935;3.38
1227;2007.97;542.009;3.38
1228;1980.8;593.524;3.38
1229;1943.88;569.842;3.38
1230;1921.6;553.972;3.38
1231;1956.39;585.467;3.38
1232;1978.36;569.842;3.38
1233;1988.43;567.888;3.38
1234;1988.43;555.925;3.38
1235;1973.48;587.42;3.38
1236;1946.32;567.888;3.38
1237;1956.39;595.477;3.38
1238;2000.64;542.009;3.38
1239;2022.92;563.738;3.38
1240;2035.13;583.514;3.39
1241;2032.69;550.066;3.39
1242;2003.08;567.888;3.39
1243;1971.04;565.935;3.39
1244;1980.8;579.608;3.39
1245;2003.08;552.019;3.39
1246;2010.71;565.935;3.39
1247;2005.52;546.159;3.39
1248;1983.55;597.43;3.39
1249;1943.88;573.748;3.39
1250;1924.04;553.972;3.39
1251;1958.83;589.618;3.39
1252;1978.36;567.888;3.39
1253;1988.43;563.738;3.39
1254;1990.87;555.925;3.39
1255;1973.48;581.561;3.39
1256;1943.88;569.842;3.4
1257;1956.39;591.571;3.4
1258;2003.08;540.056;3.4
1259;2025.36;565.935;3.4
1260;2037.87;583.514;3.4
1261;2032.69;546.159;3.4
1262;2000.64;569.842;3.4
1263;1973.48;569.842;3.4
1264;1980.8;579.608;3.4
1265;2003.08;553.972;3.4
1266;2010.71;561.785;3.4
1267;2007.97;550.066;3.4
1268;1983.55;593.524;3.4
1269;1943.88;567.888;3.4
1270;1924.04;557.878;3.4
1271;1958.83;593.524;3.4
1272;1978.36;563.738;3.41
1273;1990.87;559.832;3.41
1274;1990.87;555.925;3.41
1275;1971.04;581.561;3.41
1276;1943.88;573.748;3.41
1277;1956.39;587.42;3.41
1278;2003.08;542.009;3.41
1279;2025.36;571.795;3.41
1280;2040.32;575.701;3.41
1281;2030.24;546.159;3.41
1282;2003.08;569.842;3.41
1283;1973.48;573.748;3.41
1284;1983.55;575.701;3.41
1285;2005.52;557.878;3.41
1286;2010.71;555.925;3.41
1287;2007.97;553.972;3.41
1288;1983.55;589.618;3.42
1289;1943.88;563.738;3.42
1290;1924.04;563.738;3.42
1291;1958.83;589.618;3.42
1292;1980.8;565.935;3.42
1293;1990.87;557.878;3.42
1294;1993.32;561.785;3.42
1295;1973.48;577.654;3.42
1296;1946.32;579.608;3.42
1297;1961.27;581.561;3.42
1298;2005.52;548.112;3.42
1299;2027.8;571.795;3.42
1300;2040.32;571.795;3.42
1301;2037.87;546.159;3.42
1302;2005.52;567.888;3.42
1303;1978.36;567.888;3.42
1304;1983.55;577.654;3.43
1305;2005.52;553.972;3.43
1306;2010.71;559.832;3.43
1307;2010.71;550.066;3.43
1308;1985.99;595.477;3.43
1309;1943.88;565.935;3.43
1310;1929.23;557.878;3.43
1311;1961.27;593.524;3.43
1312;1980.8;565.935;3.43
1313;1990.87;559.832;3.43
1314;1995.76;557.878;3.43
1315;1975.92;577.654;3.43
1316;1948.76;575.701;3.43
1317;1961.27;583.514;3.43
1318;2005.52;542.009;3.43
1319;2027.8;571.795;3.43
1320;2042.76;575.701;3.44
1321;2035.13;548.112;3.44
1322;2005.52;567.888;3.44
1323;1978.36;575.701;3.44
1324;1985.99;575.701;3.44
1325;2005.52;555.925;3.44
1326;2013.15;553.972;3.44
1327;2010.71;555.925;3.44
1328;1988.43;589.618;3.44
1329;1946.32;561.785;3.44
1330;1924.04;561.785;3.44
1331;1963.71;587.42;3.44
1332;1983.55;565.935;3.44
1333;1990.87;555.925;3.44
1334;1993.32;559.832;3.44
1335;1975.92;575.701;3.45
1336;1948.76;579.608;3.45
1337;1961.27;579.608;3.45
1338;2007.97;548.112;3.45
1339;2030.24;571.795;3.45
1340;2040.32;581.561;3.45
1341;2032.69;548.112;3.45
1342;2005.52;567.888;3.45
1343;1975.92;563.738;3.45
1344;1983.55;579.608;3.45
1345;2005.52;548.112;3.45
1346;2013.15;563.738;3.45
1347;2007.97;544.206;3.45
1348;1983.55;595.477;3.45
1349;1943.88;567.888;3.45
1350;1929.23;552.019;3.46
1351;1961.27;587.42;3.46
1352;1983.55;567.888;3.46
1353;1993.32;565.935;3.46
1354;1993.32;553.972;3.46
1355;1975.92;585.467;3.46
1356;1948.76;567.888;3.46
1357;1961.27;589.618;3.46
1358;2007.97;540.056;3.46
1359;2030.24;567.888;3.46
1360;2042.76;579.608;3.46
1361;2035.13;548.112;3.46
1362;2003.08;563.738;3.46
1363;1975.92;569.842;3.46
1364;1983.55;579.608;3.46
1365;2007.97;550.066;3.46
1366;2010.71;561.785;3.47
1367;2010.71;546.159;3.47
1368;1985.99;595.477;3.47
1369;1943.88;567.888;3.47
1370;1926.48;553.972;3.47
1371;1963.71;589.618;3.47
1372;1980.8;565.935;3.47
1373;1993.32;559.832;3.47
1374;1990.87;557.878;3.47
1375;1973.48;581.561;3.47
1376;1946.32;573.748;3.47
1377;1961.27;585.467;3.47
1378;2005.52;540.056;3.47
1379;2027.8;569.842;3.47
1380;2040.32;577.654;3.47
1381;2032.69;546.159;3.48
1382;2000.64;565.935;3.48
1383;1975.92;571.795;3.48
1384;1983.55;575.701;3.48
1385;2003.08;553.972;3.48
1386;2010.71;555.925;3.48
1387;2010.71;550.066;3.48
1388;1983.55;593.524;3.48
1389;1943.88;565.935;3.48
1390;1929.23;557.878;3.48
1391;1963.71;591.571;3.48
1392;1983.55;565.935;3.48
1393;1993.32;557.878;3.48
1394;1993.32;559.832;3.48
1395;1975.92;577.654;3.48
1396;1946.32;575.701;3.49
1397;1963.71;583.514;3.49
1398;2007.97;542.009;3.49
1399;2027.8;571.795;3.49
1400;2042.76;573.748;3.49
1401;2032.69;552.019;3.49
1402;2000.64;567.888;3.49
1403;1975.92;575.701;3.49
1404;1983.55;571.795;3.49
1405;2005.52;557.878;3.49
1406;2010.71;553.972;3.49
1407;2007.97;555.925;3.49
1408;1980.8;585.467;3.49
1409;1941.43;559.832;3.49
1410;1929.23;565.935;3.49
1411;1961.27;585.467;3.5
1412;1983.55;563.738;3.5
1413;1990.87;553.972;3.5
1414;1993.32;561.785;3.5
1415;1973.48;575.701;3.5
1416;1943.88;567.888;3.5
1417;1961.27;593.524;3.5
1418;2005.52;542.009;3.5
1419;2030.24;565.935;3.5
1420;2040.32;581.561;3.5
1421;2030.24;550.066;3.5
1422;2003.08;565.935;3.5
1423;1975.92;565.935;3.5
1424;1983.55;579.608;3.5
1425;2007.97;550.066;3.5
1426;2013.15;563.738;3.5
1427;2007.97;544.206;3.51
1428;1983.55;597.43;3.51
1429;1938.99;565.935;3.51
1430;1929.23;552.019;3.51
1431;1961.27;585.467;3.51
1432;1980.8;565.935;3.51
1433;1990.87;563.738;3.51
1434;1990.87;553.972;3.51
1435;1971.04;583.514;3.51
1436;1943.88;569.842;3.51
1437;1961.27;589.618;3.51
1438;2007.97;540.056;3.51
1439;2027.8;563.738;3.51
1440;2037.87;577.654;3.51
1441;2032.69;546.159;3.51
1442;2000.64;567.888;3.52
1443;1973.48;567.888;3.52
1444;1983.55;577.654;3.52
1445;2003.08;550.066;3.52
1446;2010.71;557.878;3.52
1447;2007.97;550.066;3.52
1448;1980.8;597.43;3.52
1449;1943.88;565.935;3.52
1450;1929.23;555.925;3.52
1451;1963.71;589.618;3.52
1452;1983.55;565.935;3.52
1453;1993.32;559.832;3.52
1454;1990.87;559.832;3.52
1455;1968.6;579.608;3.52
1456;1946.32;575.701;3.52
1457;1963.71;585.467;3.53
1458;2007.97;540.056;3.53
1459;2027.8;567.888;3.53
1460;2040.32;573.748;3.53
1461;2032.69;548.112;3.53
1462;2000.64;565.935;3.53
1463;1973.48;571.795;3.53
1464;1985.99;573.748;3.53
1465;2005.52;553.972;3.53
1466;2010.71;555.925;3.53
1467;2007.97;553.972;3.53
1468;1978.36;591.571;3.53
1469;1938.99;561.785;3.53
1470;1924.04;559.832;3.53
1471;1961.27;585.467;3.53
1472;1983.55;563.738;3.54
1473;1990.87;555.925;3.54
1474;1988.43;559.832;3.54
1475;1968.6;573.748;3.54
1476;1946.32;579.608;3.54
1477;1961.27;579.608;3.54
1478;2005.52;546.159;3.54
1479;2027.8;571.795;3.54
1480;2037.87;569.842;3.54
1481;2030.24;553.972;3.54
1482;1998.2;565.935;3.54
1483;1971.04;577.654;3.54
1484;1983.55;571.795;3.54
1485;2005.52;553.972;3.54
1486;2010.71;550.066;3.54
1487;2007.97;559.832;3.54
1488;1980.8;585.467;3.55
1489;1938.99;557.878;3.55
1490;1926.48;565.935;3.55
1491;1963.71;579.608;3.55
1492;1980.8;563.738;3.55
1493;1993.32;557.878;3.55
1494;1988.43;559.832;3.55
1495;1968.6;575.701;3.55
1496;1943.88;575.701;3.55
1497;1963.71;581.561;3.55
1498;2007.97;542.009;3.55
1499;2027.8;569.842;3.55
1500;2040.32;573.748;3.55
1501;2027.8;548.112;3.55
1502;1998.2;565.935;3.55
1503;1973.48;573.748;3.56
1504;1985.99;573.748;3.56
1505;2003.08;555.925;3.56
1506;2010.71;553.972;3.56
1507;2007.97;552.019;3.56
1508;1978.36;589.618;3.56
1509;1938.99;559.832;3.56
1510;1926.48;561.785;3.56
1511;1966.15;585.467;3.56
1512;1980.8;563.738;3.56
1513;1990.87;553.972;3.56
1514;1988.43;559.832;3.56
1515;1968.6;573.748;3.56
1516;1943.88;577.654;3.56
1517;1961.27;577.654;3.56
1518;2010.71;546.159;3.57
1519;2027.8;573.748;3.57
1520;2037.87;571.795;3.57
1521;2030.24;552.019;3.57
1522;1995.76;565.935;3.57
1523;1973.48;577.654;3.57
1524;1988.43;571.795;3.57
1525;2003.08;559.832;3.57
1526;2007.97;548.112;3.57
1527;2005.52;561.785;3.57
1528;1975.92;583.514;3.57
1529;1938.99;553.972;3.57
1530;1929.23;563.738;3.57
1531;1966.15;579.608;3.57
1532;1983.55;567.888;3.57
1533;1990.87;563.738;3.57
1534;1988.43;553.972;3.58
1535;1971.04;585.467;3.58
1536;1943.88;567.888;3.58
1537;1966.15;589.618;3.58
1538;2007.97;540.056;3.58
1539;2027.8;565.935;3.58
1540;2040.32;579.608;3.58
1541;2027.8;546.159;3.58
1542;1998.2;567.888;3.58
1543;1973.48;567.888;3.58
1544;1985.99;575.701;3.58
1545;2003.08;550.066;3.58
1546;2010.71;557.878;3.58
1547;2005.52;546.159;3.58
1548;1975.92;595.477;3.58
1549;1938.99;565.935;3.59
1550;1929.23;553.972;3.59
1551;1966.15;591.571;3.59
1552;1983.55;565.935;3.59
1553;1990.87;561.785;3.59
1554;1988.43;553.972;3.59
1555;1971.04;575.701;3.59
1556;1943.88;571.795;3.59
1557;1963.71;585.467;3.59
1558;2007.97;538.102;3.59
1559;2027.8;567.888;3.59
1560;2037.87;577.654;3.59
1561;2027.8;544.206;3.59
1562;1998.2;567.888;3.59
1563;1971.04;571.795;3.59
1564;1985.99;575.701;3.59
1565;2005.52;553.972;3.6
1566;2010.71;553.972;3.6
1567;2005.52;550.066;3.6
1568;1978.36;591.571;3.6
1569;1938.99;561.785;3.6
1570;1926.48;557.878;3.6
1571;1966.15;587.42;3.6
1572;1983.55;565.935;3.6
1573;1993.32;555.925;3.6
1574;1988.43;557.878;3.6
1575;1971.04;575.701;3.6
1576;1943.88;575.701;3.6
1577;1968.6;581.561;3.6
1578;2007.97;544.206;3.6
1579;2027.8;569.842;3.6
1580;2040.32;571.795;3.61
1581;2027.8;550.066;3.61
1582;1995.76;561.785;3.61
1583;1973.48;575.701;3.61
1584;1983.55;571.795;3.61
1585;2005.52;555.925;3.61
1586;2010.71;550.066;3.61
1587;2007.97;555.925;3.61
1588;1978.36;585.467;3.61
1589;1936.55;557.878;3.61
1590;1926.48;559.832;3.61
1591;1966.15;583.514;3.61
1592;1985.99;565.935;3.61
1593;1990.87;552.019;3.61
1594;1988.43;559.832;3.61
1595;1966.15;571.795;3.61
1596;1941.43;579.608;3.62
1597;1963.71;573.748;3.62
1598;2007.97;546.159;3.62
1599;2027.8;573.748;3.62
1600;2037.87;565.935;3.62
1601;2027.8;553.972;3.62
1602;1998.2;565.935;3.62
1603;1971.04;577.654;3.62
1604;1983.55;569.842;3.62
1605;2007.97;559.832;3.62
1606;2007.97;546.159;3.62
1607;2007.97;561.785;3.62
1608;1978.36;581.561;3.62
1609;1938.99;567.888;3.62
1610;1929.23;552.019;3.62
1611;1968.6;585.467;3.63
1612;1985.99;565.935;3.63
1613;1993.32;563.738;3.63
1614;1988.43;553.972;3.63
1615;1966.15;581.561;3.63
1616;1943.88;569.842;3.63
1617;1968.6;589.618;3.63
1618;2010.71;538.102;3.63
1619;2027.8;565.935;3.63
1620;2037.87;577.654;3.63
1621;2027.8;546.159;3.63
1622;2003.08;563.738;3.63
1623;1971.04;567.888;3.63
1624;1985.99;577.654;3.63
1625;2003.08;548.112;3.63
1626;2010.71;555.925;3.63
1627;2010.71;548.112;3.64
1628;1980.8;593.524;3.64
1629;1946.32;565.935;3.64
1630;1926.48;553.972;3.64
1631;1956.39;587.42;3.64
1632;1980.8;565.935;3.64
1633;1993.32;555.925;3.64
1634;1988.43;553.972;3.64
1635;1973.48;575.701;3.64
1636;1943.88;571.795;3.64
1637;1956.39;581.561;3.64
1638;2003.08;540.056;3.64
1639;2025.36;565.935;3.64
1640;2037.87;571.795;3.64
1641;2032.69;544.206;3.64
1642;2000.64;563.738;3.65
1643;1973.48;571.795;3.65
1644;1980.8;573.748;3.65
1645;2003.08;553.972;3.65
1646;2007.97;550.066;3.65
1647;2007.97;552.019;3.65
1648;1980.8;587.42;3.65
1649;1943.88;559.832;3.65
1650;1924.04;555.925;3.65
1651;1956.39;583.514;3.65
1652;1983.55;565.935;3.65
1653;1988.43;553.972;3.65
1654;1988.43;557.878;3.65
1655;1971.04;571.795;3.65
1656;1943.88;577.654;3.65
1657;1956.39;579.608;3.65
1658;2003.08;546.159;3.66
1659;2025.36;573.748;3.66
1660;2040.32;569.842;3.66
1661;2032.69;552.019;3.66
1662;2000.64;565.935;3.66
1663;1971.04;573.748;3.66
1664;1978.36;567.888;3.66
1665;2003.08;557.878;3.66
1666;2007.97;548.112;3.66
1667;2005.52;555.925;3.66
1668;1980.8;583.514;3.66
1669;1941.43;555.925;3.66
1670;1921.6;559.832;3.66
1671;1958.83;581.561;3.66
1672;1978.36;563.738;3.66
1673;1988.43;550.066;3.66
1674;1988.43;561.785;3.67
1675;1968.6;573.748;3.67
1676;1941.43;581.561;3.67
1677;1956.39;575.701;3.67
1678;2000.64;546.159;3.67
1679;2022.92;575.701;3.67
1680;2037.87;565.935;3.67
1681;2027.8;553.972;3.67
1682;1998.2;565.935;3.67
1683;1968.6;577.654;3.67
1684;1978.36;567.888;3.67
1685;2000.64;559.832;3.67
1686;2007.97;553.972;3.67
1687;2005.52;553.972;3.67
1688;1978.36;587.42;3.67
1689;1941.43;559.832;3.67
1690;1921.6;557.878;3.67
1691;1958.83;585.467;3.68
1692;1978.36;565.935;3.68
1693;1988.43;553.972;3.68
1694;1988.43;557.878;3.68
1695;1968.6;571.795;3.68
1696;1941.43;577.654;3.68
1697;1956.39;579.608;3.68
1698;2000.64;546.159;3.68
1699;2022.92;569.842;3.68
1700;2032.69;569.842;3.68
1701;2027.8;552.019;3.68
1702;1995.76;563.738;3.68
1703;1971.04;573.748;3.68
1704;1978.36;567.888;3.68
1705;1995.76;557.878;3.68
1706;2005.52;544.206;3.68
1707;2003.08;557.878;3.69
1708;1975.92;583.514;3.69
1709;1936.55;555.925;3.69
1710;1921.6;561.785;3.69
1711;1958.83;577.654;3.69
1712;1978.36;561.785;3.69
1713;1985.99;550.066;3.69
1714;1983.55;561.785;3.69
1715;1966.15;569.842;3.69
1716;1941.43;583.514;3.69
1717;1953.64;571.795;3.69
1718;1998.2;550.066;3.69
1719;2020.48;575.701;3.69
1720;2032.69;563.738;3.69
1721;2025.36;555.925;3.69
1722;1995.76;561.785;3.69
1723;1966.15;577.654;3.69
1724;1978.36;577.654;3.7
1725;1998.2;548.112;3.7
1726;2003.08;557.878;3.7
1727;2000.64;544.206;3.7
1728;1978.36;593.524;3.7
1729;1936.55;563.738;3.7
1730;1921.6;552.019;3.7
1731;1956.39;585.467;3.7
1732;1975.92;563.738;3.7
1733;1983.55;559.832;3.7
1734;1983.55;553.972;3.7
1735;1963.71;577.654;3.7
1736;1938.99;569.842;3.7
1737;1953.64;581.561;3.7
1738;1995.76;540.056;3.7
1739;2020.48;563.738;3.71
1740;2030.24;577.654;3.71
1741;2022.92;542.009;3.71
1742;1990.87;563.738;3.71
1743;1963.71;567.888;3.71
1744;1978.36;573.748;3.71
1745;1995.76;552.019;3.71
1746;2000.64;552.019;3.71
1747;1998.2;548.112;3.71
1748;1973.48;591.571;3.71
1749;1929.23;561.785;3.71
1750;1916.71;555.925;3.71
1751;1953.64;585.467;3.71
1752;1973.48;561.785;3.71
1753;1980.8;553.972;3.71
1754;1980.8;557.878;3.71
1755;1963.71;573.748;3.71
1756;1934.11;573.748;3.72
1757;1953.64;579.608;3.72
1758;1998.2;542.009;3.72
1759;2015.6;569.842;3.72
1760;2027.8;569.842;3.72
1761;2020.48;550.066;3.72
1762;1990.87;563.738;3.72
1763;1961.27;569.842;3.72
1764;1973.48;569.842;3.72
1765;1993.32;555.925;3.72
1766;2000.64;546.159;3.72
1767;1998.2;553.972;3.72
1768;1971.04;583.514;3.72
1769;1931.67;555.925;3.72
1770;1916.71;559.832;3.72
1771;1951.2;579.608;3.72
1772;1971.04;561.785;3.73
1773;1978.36;553.972;3.73
1774;1978.36;559.832;3.73
1775;1958.83;569.842;3.73
1776;1931.67;579.608;3.73
1777;1948.76;573.748;3.73
1778;1993.32;546.159;3.73
1779;2018.04;571.795;3.73
1780;2027.8;567.888;3.73
1781;2015.6;553.972;3.73
1782;1988.43;563.738;3.73
1783;1958.83;573.748;3.73
1784;1973.48;567.888;3.73
1785;1990.87;557.878;3.73
1786;1995.76;544.206;3.73
1787;1993.32;559.832;3.73
1788;1971.04;575.701;3.74
1789;1929.23;552.019;3.74
1790;1914.27;561.785;3.74
1791;1951.2;573.748;3.74
1792;1971.04;563.738;3.74
