<WeldAnalyseData xmlns:i="http:www.w3.org/2001/XMLSchema-instance">
<WeldParameter>
<TimeStamp>DT#2024-01-24-14:58:21</TimeStamp>
<Generator>SG-22-10000</Generator>
<GenFreq>20</GenFreq>
<MaxForce>8000</MaxForce>
<MaxPower>10000</MaxPower>
<RunupPressure>1.5</RunupPressure>
<RunupDist>10</RunupDist>
<RunPress>0.8</RunPress>
<ShakeDelay>0.03</ShakeDelay>
<ShakeTime>0.3</ShakeTime>
<RunBackPress1>6</RunBackPress1>
<RunBackPress2>2</RunBackPress2>
<RunBackDist>1</RunBackDist>
<TrigValue>500</TrigValue>
<TrigModeUnit>W</TrigModeUnit>
<WeldModeUnit>Ws</WeldModeUnit>
<PressNr>0</PressNr>
<MaxLoss>1500</MaxLoss>
</WeldParameter>
<WeldSets>
<WeldSet>
<PressRiseTime>0</PressRiseTime>
<RunPressure>1</RunPressure>
<Amplitude>86</Amplitude>
<WeldMode>3270</WeldMode>
</WeldSet>
</WeldSets>
<WeldValue>
<WeldNr>2970</WeldNr>
<RecipeName>RickStyle</RecipeName>
<WeldTime>1682</WeldTime>
<DistDiff>2.41</DistDiff>
<DistAbs>78.12</DistAbs>
<Energy>3272</Energy>
<MaxPower>2158.92</MaxPower>
<CycleTime>6030</CycleTime>
<TrigForce>500.748</TrigForce>
<TrigDist>75.71</TrigDist>
<RunSpeed>68.9526</RunSpeed>
<MaxForce>621.113</MaxForce>
<LossPower>324.984</LossPower>
</WeldValue>
</WeldAnalyseData>
#CSV-START#
ms;Power[W];Force[N];Distance[mm]
1;0;0;0
2;0;502.701;0
3;0;502.701;0
4;0;502.701;0.0100021
5;0;502.701;0.0100021
6;0;504.654;0.0100021
7;0;504.654;0.0100021
8;0;477.065;0.0100021
9;0;419.691;0.0200043
10;0;407.971;0.0400009
11;0;370.373;0.0800018
12;20.4855;346.69;0.110001
13;79.6915;342.784;0.150002
14;153.851;321.055;0.190002
15;228.011;307.138;0.239998
16;292.1;289.315;0.279999
17;351.306;289.315;0.330002
18;410.512;287.362;0.379997
19;479.789;301.279;0.43
20;556.391;281.503;0.470001
21;632.992;299.326;0.510002
22;699.522;317.148;0.540001
23;768.799;289.315;0.580002
24;828.005;319.102;0.599998
25;884.77;319.102;0.629997
26;946.417;336.68;0.650002
27;1010.81;334.727;0.669998
28;1070.02;352.55;0.68
29;1121.9;348.643;0.690002
30;1161.27;397.961;0.700005
31;1176.22;392.102;0.709999
32;1200.64;372.326;0.709999
33;1252.52;421.644;0.720001
34;1297.07;409.925;0.720001
35;1331.56;411.878;0.730003
36;1366.35;399.915;0.730003
37;1388.33;421.644;0.739998
38;1395.95;417.737;0.739998
39;1425.56;439.467;0.75
40;1482.32;399.915;0.75
41;1524.13;419.691;0.760002
42;1556.48;451.186;0.760002
43;1580.9;399.915;0.770004
44;1578.46;421.644;0.770004
45;1571.13;419.691;0.779999
46;1593.41;433.607;0.779999
47;1637.97;419.691;0.790001
48;1667.57;431.654;0.800003
49;1689.54;411.878;0.800003
50;1694.73;459.243;0.809998
51;1682.22;435.56;0.82
52;1679.78;407.971;0.82
53;1729.22;467.055;0.830002
54;1771.03;441.42;0.840004
55;1800.63;443.373;0.849998
56;1822.91;433.607;0.849998
57;1822.91;453.383;0.860001
58;1813.14;447.279;0.870003
59;1832.98;469.008;0.870003
60;1887.3;425.55;0.879997
61;1924.23;451.186;0.889999
62;1951.39;480.972;0.889999
63;1956.27;421.644;0.900002
64;1941.63;457.289;0.900002
65;1914.46;459.243;0.910004
66;1931.55;472.915;0.910004
67;1971.23;455.336;0.919998
68;1990.76;463.149;0.919998
69;2000.83;451.186;0.93
70;1988.32;496.597;0.93
71;1953.83;469.008;0.940002
72;1939.18;453.383;0.940002
73;1985.88;512.467;0.950005
74;2020.67;479.019;0.950005
75;2040.2;475.112;0.959999
76;2052.71;469.008;0.959999
77;2035.32;486.831;0.959999
78;2010.6;482.925;0.970001
79;2015.48;498.795;0.970001
80;2069.8;461.196;0.980003
81;2099.41;486.831;0.980003
82;2114.36;510.514;0.989998
83;2111.92;451.186;0.989998
84;2082.32;490.738;1
85;2050.27;494.644;1
86;2057.6;502.701;1
87;2089.64;484.878;1.01
88;2104.59;484.878;1.01
89;2107.04;482.925;1.02
90;2084.76;522.477;1.02
91;2047.83;492.691;1.03
92;2023.11;479.019;1.03
93;2060.04;540.056;1.03
94;2096.97;502.701;1.04
95;2111.92;496.597;1.04
96;2116.8;494.644;1.04
97;2094.52;512.467;1.05
98;2064.92;514.42;1.05
99;2067.36;520.524;1.05
100;2116.8;488.784;1.06
101;2143.96;514.42;1.06
102;2158.92;526.383;1.07
103;2148.85;486.831;1.07
104;2111.92;502.701;1.07
105;2077.43;502.701;1.08
106;2079.87;516.373;1.08
107;2109.48;496.597;1.08
108;2116.8;508.56;1.09
109;2121.69;488.784;1.09
110;2094.52;532.243;1.09
111;2055.15;516.373;1.1
112;2027.99;480.972;1.1
113;2064.92;536.149;1.1
114;2092.08;516.373;1.1
115;2107.04;518.326;1.11
116;2109.48;506.607;1.11
117;2087.2;528.336;1.11
118;2055.15;514.42;1.12
119;2055.15;538.102;1.12
120;2102.15;496.597;1.12
121;2129.31;516.373;1.12
122;2136.64;548.112;1.13
123;2126.57;494.644;1.13
124;2092.08;518.326;1.13
125;2055.15;514.42;1.13
126;2057.6;528.336;1.14
127;2084.76;512.467;1.14
128;2092.08;520.524;1.14
129;2094.52;502.701;1.14
130;2069.8;550.066;1.15
131;2027.99;526.383;1.15
132;2000.83;494.644;1.15
133;2032.88;557.878;1.15
134;2062.48;528.336;1.16
135;2074.99;528.336;1.16
136;2079.87;516.373;1.16
137;2057.6;534.196;1.16
138;2025.55;528.336;1.16
139;2025.55;546.159;1.17
140;2072.25;502.701;1.17
141;2096.97;526.383;1.17
142;2107.04;552.019;1.17
143;2099.41;494.644;1.18
144;2064.92;524.43;1.18
145;2027.99;526.383;1.18
146;2030.43;536.149;1.18
147;2055.15;520.524;1.18
148;2064.92;528.336;1.19
149;2064.92;512.467;1.19
150;2040.2;553.972;1.19
151;1998.39;530.29;1.19
152;1971.23;510.514;1.19
153;2005.71;567.888;1.2
154;2035.32;532.243;1.2
155;2045.08;530.29;1.2
156;2047.83;522.477;1.2
157;2027.99;538.102;1.2
158;1998.39;536.149;1.21
159;1998.39;550.066;1.21
160;2040.2;506.607;1.21
161;2067.36;534.196;1.21
162;2077.43;557.878;1.21
163;2069.8;498.795;1.22
164;2042.64;532.243;1.22
165;2003.27;538.102;1.22
166;2005.71;546.159;1.22
167;2030.43;528.336;1.22
168;2040.2;528.336;1.22
169;2042.64;522.477;1.23
170;2020.67;561.785;1.23
171;1980.99;534.196;1.23
172;1951.39;522.477;1.23
173;1985.88;575.701;1.23
174;2015.48;538.102;1.24
175;2027.99;536.149;1.24
176;2032.88;532.243;1.24
177;2013.04;548.112;1.24
178;1978.55;548.112;1.24
179;1978.55;553.972;1.24
180;2023.11;518.326;1.25
181;2045.08;546.159;1.25
182;2057.6;565.935;1.25
183;2050.27;508.56;1.25
184;2020.67;540.056;1.25
185;1983.44;540.056;1.26
186;1988.32;550.066;1.26
187;2010.6;532.243;1.26
188;2020.67;538.102;1.26
189;2015.48;526.383;1.26
190;1998.39;567.888;1.26
191;1958.72;544.206;1.27
192;1934;522.477;1.27
193;1963.6;581.561;1.27
194;1990.76;546.159;1.27
195;2005.71;542.009;1.27
196;2005.71;534.196;1.27
197;1988.32;552.019;1.28
198;1958.72;548.112;1.28
199;1956.27;561.785;1.28
200;2000.83;520.524;1.28
201;2025.55;548.112;1.28
202;2035.32;567.888;1.28
203;2030.43;510.514;1.29
204;2000.83;548.112;1.29
205;1963.6;548.112;1.29
206;1968.79;555.925;1.29
207;1993.51;538.102;1.29
208;2000.83;544.206;1.29
209;2003.27;536.149;1.29
210;1983.44;571.795;1.3
211;1941.63;546.159;1.3
212;1916.91;530.29;1.3
213;1946.51;587.42;1.3
214;1976.11;550.066;1.3
215;1990.76;544.206;1.3
216;1990.76;540.056;1.31
217;1973.67;555.925;1.31
218;1944.07;557.878;1.31
219;1944.07;563.738;1.31
220;1988.32;530.29;1.31
221;2010.6;548.112;1.31
222;2023.11;583.514;1.31
223;2017.92;534.196;1.32
224;1985.88;546.159;1.32
225;1953.83;542.009;1.32
226;1953.83;555.925;1.32
227;1978.55;538.102;1.32
228;1983.44;548.112;1.32
229;1988.32;528.336;1.33
230;1968.79;573.748;1.33
231;1929.11;553.972;1.33
232;1904.39;526.383;1.33
233;1934;577.654;1.33
234;1963.6;557.878;1.33
235;1973.67;561.785;1.33
236;1978.55;544.206;1.33
237;1958.72;567.888;1.34
238;1934;552.019;1.34
239;1929.11;575.701;1.34
240;1973.67;534.196;1.34
241;1993.51;552.019;1.34
242;2008.16;585.467;1.34
243;2003.27;528.336;1.34
244;1973.67;552.019;1.35
245;1939.18;546.159;1.35
246;1941.63;561.785;1.35
247;1963.6;542.009;1.35
248;1971.23;555.925;1.35
249;1973.67;536.149;1.35
250;1956.27;579.608;1.35
251;1916.91;559.832;1.35
252;1894.63;528.336;1.36
253;1921.79;583.514;1.36
254;1948.95;559.832;1.36
255;1958.72;559.832;1.36
256;1963.6;552.019;1.36
257;1946.51;571.795;1.36
258;1919.35;557.878;1.36
259;1914.46;577.654;1.37
260;1958.72;534.196;1.37
261;1983.44;553.972;1.37
262;1995.95;583.514;1.37
263;1990.76;528.336;1.37
264;1963.6;557.878;1.37
265;1929.11;555.925;1.37
266;1929.11;565.935;1.37
267;1953.83;550.066;1.38
268;1958.72;559.832;1.38
269;1963.6;544.206;1.38
270;1944.07;589.618;1.38
271;1906.83;563.738;1.38
272;1884.86;538.102;1.38
273;1912.02;597.43;1.38
274;1941.63;563.738;1.38
275;1956.27;561.785;1.39
276;1958.72;555.925;1.39
277;1944.07;571.795;1.39
278;1914.46;565.935;1.39
279;1912.02;581.561;1.39
280;1956.27;538.102;1.39
281;1978.55;563.738;1.39
282;1990.76;587.42;1.39
283;1988.32;528.336;1.39
284;1956.27;561.785;1.4
285;1921.79;563.738;1.4
286;1924.23;573.748;1.4
287;1951.39;559.832;1.4
288;1956.27;559.832;1.4
289;1958.72;553.972;1.4
290;1944.07;591.571;1.4
291;1906.83;565.935;1.4
292;1882.11;548.112;1.41
293;1909.28;607.196;1.41
294;1934;565.935;1.41
295;1948.95;563.738;1.41
296;1956.27;557.878;1.41
297;1936.44;571.795;1.41
298;1906.83;575.701;1.41
299;1906.83;593.524;1.41
300;1948.95;559.832;1.41
301;1973.67;563.738;1.42
302;1985.88;601.337;1.42
303;1980.99;552.019;1.42
304;1953.83;561.785;1.42
305;1916.91;561.785;1.42
306;1921.79;577.654;1.42
307;1946.51;557.878;1.42
308;1953.83;569.842;1.42
309;1956.27;550.066;1.42
310;1936.44;589.618;1.43
311;1901.95;573.748;1.43
312;1877.23;544.206;1.43
313;1904.39;593.524;1.43
314;1931.55;579.608;1.43
315;1946.51;579.608;1.43
316;1951.39;563.738;1.43
317;1934;585.467;1.43
318;1906.83;573.748;1.44
319;1904.39;593.524;1.44
320;1946.51;555.925;1.44
321;1968.79;571.795;1.44
322;1980.99;605.243;1.44
323;1978.55;553.972;1.44
324;1951.39;571.795;1.44
325;1916.91;567.888;1.44
326;1919.35;581.561;1.44
327;1944.07;563.738;1.44
328;1951.39;577.654;1.45
329;1953.83;555.925;1.45
330;1936.44;601.337;1.45
331;1901.95;577.654;1.45
332;1874.79;548.112;1.45
333;1901.95;601.337;1.45
334;1931.55;579.608;1.45
335;1941.63;583.514;1.45
336;1948.95;569.842;1.45
337;1931.55;587.42;1.45
338;1906.83;579.608;1.46
339;1901.95;597.43;1.46
340;1944.07;553.972;1.46
341;1966.35;577.654;1.46
342;1978.55;605.243;1.46
343;1976.11;548.112;1.46
344;1948.95;573.748;1.46
345;1916.91;573.748;1.46
346;1914.46;585.467;1.46
347;1939.18;567.888;1.46
348;1946.51;577.654;1.47
349;1951.39;561.785;1.47
350;1934;607.196;1.47
351;1897.07;581.561;1.47
352;1869.91;557.878;1.47
353;1897.07;613.3;1.47
354;1926.67;583.514;1.47
355;1941.63;579.608;1.47
356;1944.07;571.795;1.47
357;1929.11;589.618;1.47
358;1901.95;581.561;1.48
359;1899.51;601.337;1.48
360;1939.18;553.972;1.48
361;1963.6;579.608;1.48
362;1971.23;605.243;1.48
363;1968.79;544.206;1.48
364;1944.07;577.654;1.48
365;1909.28;581.561;1.48
366;1912.02;589.618;1.48
367;1936.44;571.795;1.48
368;1946.51;579.608;1.48
369;1946.51;567.888;1.49
370;1929.11;603.29;1.49
371;1894.63;579.608;1.49
372;1869.91;557.878;1.49
373;1897.07;621.113;1.49
374;1924.23;581.561;1.49
375;1936.44;577.654;1.49
376;1944.07;573.748;1.49
377;1929.11;595.477;1.49
378;1899.51;579.608;1.49
379;1897.07;601.337;1.49
380;1936.44;557.878;1.5
381;1958.72;577.654;1.5
382;1968.79;607.196;1.5
383;1968.79;552.019;1.5
384;1941.63;577.654;1.5
385;1909.28;579.608;1.5
386;1906.83;589.618;1.5
387;1934;569.842;1.5
388;1941.63;579.608;1.5
389;1944.07;565.935;1.5
390;1926.67;607.196;1.5
391;1892.19;583.514;1.5
392;1865.02;555.925;1.51
393;1892.19;619.16;1.51
394;1921.79;585.467;1.51
395;1934;581.561;1.51
396;1941.63;573.748;1.51
397;1926.67;591.571;1.51
398;1899.51;583.514;1.51
399;1894.63;597.43;1.51
400;1934;557.878;1.51
401;1958.72;581.561;1.51
402;1968.79;605.243;1.51
403;1968.79;546.159;1.51
404;1944.07;577.654;1.52
405;1906.83;579.608;1.52
406;1909.28;591.571;1.52
407;1931.55;573.748;1.52
408;1941.63;577.654;1.52
409;1944.07;565.935;1.52
410;1926.67;607.196;1.52
411;1892.19;579.608;1.52
412;1865.02;559.832;1.52
413;1892.19;621.113;1.52
414;1921.79;581.561;1.52
415;1934;579.608;1.52
416;1936.44;571.795;1.53
417;1924.23;593.524;1.53
418;1897.07;581.561;1.53
419;1889.74;605.243;1.53
420;1934;571.795;1.53
421;1956.27;577.654;1.53
422;1968.79;611.347;1.53
423;1966.35;565.935;1.53
424;1939.18;571.795;1.53
425;1906.83;573.748;1.53
426;1904.39;589.618;1.53
427;1931.55;569.842;1.53
428;1941.63;577.654;1.53
429;1941.63;559.832;1.54
430;1929.11;597.43;1.54
431;1892.19;585.467;1.54
432;1865.02;550.066;1.54
433;1894.63;601.337;1.54
434;1921.79;585.467;1.54
435;1934;585.467;1.54
436;1939.18;571.795;1.54
437;1924.23;593.524;1.54
438;1899.51;581.561;1.54
439;1892.19;603.29;1.54
440;1934;563.738;1.54
441;1956.27;577.654;1.54
442;1971.23;611.347;1.55
443;1968.79;557.878;1.55
444;1944.07;575.701;1.55
445;1909.28;575.701;1.55
446;1909.28;591.571;1.55
447;1934;567.888;1.55
448;1939.18;579.608;1.55
449;1941.63;559.832;1.55
450;1929.11;605.243;1.55
451;1894.63;585.467;1.55
452;1867.47;552.019;1.55
453;1892.19;607.196;1.55
454;1921.79;587.42;1.55
455;1936.44;585.467;1.56
456;1941.63;571.795;1.56
457;1926.67;593.524;1.56
458;1901.95;583.514;1.56
459;1894.63;601.337;1.56
460;1936.44;557.878;1.56
461;1958.72;577.654;1.56
462;1971.23;609.149;1.56
463;1971.23;553.972;1.56
464;1944.07;577.654;1.56
465;1909.28;575.701;1.56
466;1909.28;587.42;1.56
467;1939.18;571.795;1.56
468;1944.07;579.608;1.56
469;1946.51;561.785;1.57
470;1931.55;607.196;1.57
471;1897.07;583.514;1.57
472;1869.91;557.878;1.57
473;1897.07;615.253;1.57
474;1924.23;583.514;1.57
475;1936.44;583.514;1.57
476;1941.63;571.795;1.57
477;1931.55;589.618;1.57
478;1901.95;583.514;1.57
479;1897.07;599.384;1.57
480;1939.18;555.925;1.57
481;1963.6;579.608;1.57
482;1976.11;605.243;1.57
483;1976.11;548.112;1.58
484;1946.51;579.608;1.58
485;1916.91;579.608;1.58
486;1912.02;589.618;1.58
487;1936.44;573.748;1.58
488;1946.51;579.608;1.58
489;1951.39;565.935;1.58
490;1934;605.243;1.58
491;1899.51;583.514;1.58
492;1872.35;557.878;1.58
493;1897.07;619.16;1.58
494;1924.23;591.571;1.58
495;1939.18;587.42;1.58
496;1944.07;571.795;1.59
497;1929.11;593.524;1.59
498;1904.39;583.514;1.59
499;1897.07;605.243;1.59
500;1936.44;573.748;1.59
501;1961.16;575.701;1.59
502;1973.67;611.347;1.59
503;1976.11;567.888;1.59
504;1948.95;571.795;1.59
505;1914.46;571.795;1.59
506;1912.02;589.618;1.59
507;1936.44;569.842;1.59
508;1946.51;577.654;1.59
509;1948.95;557.878;1.59
510;1934;595.477;1.59
511;1901.95;585.467;1.6
512;1872.35;552.019;1.6
513;1897.07;601.337;1.6
514;1929.11;587.42;1.6
515;1939.18;589.618;1.6
516;1948.95;571.795;1.6
517;1934;595.477;1.6
518;1906.83;583.514;1.6
519;1899.51;605.243;1.6
520;1941.63;565.935;1.6
521;1968.79;575.701;1.6
522;1978.55;613.3;1.6
523;1978.55;559.832;1.6
524;1951.39;573.748;1.6
525;1914.46;573.748;1.61
526;1914.46;589.618;1.61
527;1941.63;569.842;1.61
528;1948.95;581.561;1.61
529;1951.39;557.878;1.61
530;1939.18;605.243;1.61
531;1904.39;585.467;1.61
532;1872.35;550.066;1.61
533;1899.51;607.196;1.61
534;1929.11;585.467;1.61
535;1941.63;585.467;1.61
536;1948.95;573.748;1.61
537;1934;595.477;1.61
538;1906.83;579.608;1.61
539;1901.95;603.29;1.62
540;1944.07;559.832;1.62
541;1968.79;579.608;1.62
542;1980.99;609.149;1.62
543;1983.44;555.925;1.62
544;1956.27;579.608;1.62
545;1921.79;575.701;1.62
546;1916.91;591.571;1.62
547;1944.07;569.842;1.62
548;1951.39;581.561;1.62
549;1953.83;565.935;1.62
550;1941.63;609.149;1.62
551;1906.83;583.514;1.62
552;1874.79;555.925;1.62
553;1901.95;613.3;1.62
554;1931.55;585.467;1.63
555;1944.07;581.561;1.63
556;1951.39;571.795;1.63
557;1939.18;591.571;1.63
558;1909.28;583.514;1.63
559;1904.39;601.337;1.63
560;1946.51;555.925;1.63
561;1968.79;579.608;1.63
562;1983.44;607.196;1.63
563;1983.44;550.066;1.63
564;1958.72;577.654;1.63
565;1921.79;581.561;1.63
566;1919.35;589.618;1.63
567;1944.07;571.795;1.63
568;1953.83;577.654;1.63
569;1956.27;563.738;1.63
570;1944.07;609.149;1.64
571;1906.83;581.561;1.64
572;1879.67;552.019;1.64
573;1904.39;605.243;1.64
574;1936.44;583.514;1.64
575;1946.51;585.467;1.64
576;1953.83;573.748;1.64
577;1944.07;595.477;1.64
578;1912.02;581.561;1.64
579;1906.83;603.29;1.64
580;1946.51;557.878;1.64
581;1973.67;579.608;1.64
582;1985.88;611.347;1.64
583;1985.88;553.972;1.64
584;1958.72;575.701;1.64
585;1924.23;573.748;1.65
586;1921.79;589.618;1.65
587;1946.51;569.842;1.65
588;1956.27;579.608;1.65
589;1958.72;561.785;1.65
590;1946.51;611.347;1.65
591;1909.28;581.561;1.65
592;1879.67;552.019;1.65
593;1906.83;611.347;1.65
594;1936.44;583.514;1.65
595;1951.39;583.514;1.65
596;1956.27;573.748;1.65
597;1944.07;591.571;1.65
598;1914.46;581.561;1.65
599;1906.83;599.384;1.65
600;1951.39;555.925;1.66
601;1976.11;579.608;1.66
602;1990.76;607.196;1.66
603;1988.32;548.112;1.66
604;1963.6;577.654;1.66
605;1926.67;579.608;1.66
606;1924.23;591.571;1.66
607;1948.95;571.795;1.66
608;1956.27;577.654;1.66
609;1961.16;565.935;1.66
610;1946.51;605.243;1.66
611;1912.02;579.608;1.66
612;1879.67;550.066;1.66
613;1906.83;589.618;1.66
614;1939.18;591.571;1.66
615;1951.39;591.571;1.66
616;1956.27;571.795;1.66
617;1944.07;591.571;1.67
618;1916.91;583.514;1.67
619;1909.28;603.29;1.67
620;1948.95;573.748;1.67
621;1973.67;573.748;1.67
622;1988.32;611.347;1.67
623;1990.76;567.888;1.67
624;1963.6;569.842;1.67
625;1926.67;571.795;1.67
626;1924.23;589.618;1.67
627;1953.83;569.842;1.67
628;1958.72;575.701;1.67
629;1963.6;555.925;1.67
630;1948.95;593.524;1.67
631;1912.02;585.467;1.67
632;1884.86;548.112;1.67
633;1912.02;595.477;1.68
634;1944.07;589.618;1.68
635;1953.83;587.42;1.68
636;1958.72;571.795;1.68
637;1951.39;591.571;1.68
638;1919.35;581.561;1.68
639;1912.02;603.29;1.68
640;1953.83;565.935;1.68
641;1978.55;575.701;1.68
642;1990.76;611.347;1.68
643;1993.51;555.925;1.68
644;1963.6;571.795;1.68
645;1929.11;569.842;1.68
646;1924.23;587.42;1.68
647;1953.83;565.935;1.68
648;1963.6;579.608;1.68
649;1966.35;555.925;1.69
650;1953.83;601.337;1.69
651;1916.91;581.561;1.69
652;1887.3;546.159;1.69
653;1909.28;603.29;1.69
654;1939.18;583.514;1.69
655;1953.83;583.514;1.69
656;1963.6;571.795;1.69
657;1946.51;589.618;1.69
658;1919.35;579.608;1.69
659;1912.02;599.384;1.69
660;1951.39;557.878;1.69
661;1980.99;573.748;1.69
662;1993.51;607.196;1.69
663;1993.51;552.019;1.69
664;1966.35;573.748;1.69
665;1934;571.795;1.69
666;1924.23;587.42;1.7
667;1953.83;565.935;1.7
668;1958.72;577.654;1.7
669;1966.35;559.832;1.7
670;1953.83;605.243;1.7
671;1916.91;581.561;1.7
672;1887.3;550.066;1.7
673;1909.28;605.243;1.7
674;1941.63;581.561;1.7
675;1956.27;577.654;1.7
676;1963.6;569.842;1.7
677;1951.39;587.42;1.7
678;1919.35;577.654;1.7
679;1912.02;597.43;1.7
680;1953.83;552.019;1.7
681;1978.55;573.748;1.7
682;1995.95;603.29;1.71
683;1995.95;546.159;1.71
684;1968.79;573.748;1.71
685;1936.44;575.701;1.71
686;1926.67;587.42;1.71
687;1953.83;567.888;1.71
688;1966.35;575.701;1.71
689;1968.79;553.972;1.71
690;1956.27;587.42;1.71
691;1919.35;583.514;1.71
692;1887.3;546.159;1.71
693;1912.02;585.467;1.71
694;1946.51;591.571;1.71
695;1958.72;583.514;1.71
696;1966.35;567.888;1.71
697;1953.83;587.42;1.72
698;1921.79;579.608;1.72
699;1916.91;599.384;1.72
700;1958.72;569.842;1.72
701;1980.99;571.795;1.72
702;1998.39;607.196;1.72
703;1998.39;565.935;1.72
704;1973.67;565.935;1.72
705;1939.18;569.842;1.72
706;1931.55;583.514;1.72
707;1961.16;565.935;1.72
708;1966.35;573.748;1.72
709;1971.23;553.972;1.72
710;1958.72;589.618;1.72
711;1924.23;581.561;1.72
712;1894.63;544.206;1.72
713;1912.02;589.618;1.72
714;1946.51;585.467;1.73
715;1958.72;581.561;1.73
716;1963.6;565.935;1.73
717;1953.83;587.42;1.73
718;1926.67;577.654;1.73
719;1916.91;599.384;1.73
720;1953.83;563.738;1.73
721;1983.44;571.795;1.73
722;1998.39;607.196;1.73
723;1998.39;555.925;1.73
724;1973.67;569.842;1.73
725;1939.18;567.888;1.73
726;1931.55;585.467;1.73
727;1961.16;563.738;1.73
728;1968.79;575.701;1.73
729;1973.67;553.972;1.73
730;1956.27;599.384;1.74
731;1921.79;579.608;1.74
732;1894.63;546.159;1.74
733;1914.46;597.43;1.74
734;1946.51;581.561;1.74
735;1961.16;581.561;1.74
736;1966.35;565.935;1.74
737;1956.27;587.42;1.74
738;1929.11;577.654;1.74
739;1914.46;599.384;1.74
740;1956.27;555.925;1.74
741;1985.88;571.795;1.74
742;1998.39;607.196;1.74
743;1998.39;553.972;1.74
744;1976.11;569.842;1.74
745;1939.18;569.842;1.74
746;1934;583.514;1.75
747;1958.72;565.935;1.75
748;1966.35;573.748;1.75
749;1973.67;555.925;1.75
750;1961.16;601.337;1.75
751;1926.67;579.608;1.75
752;1894.63;548.112;1.75
753;1916.91;605.243;1.75
754;1951.39;577.654;1.75
755;1961.16;579.608;1.75
756;1968.79;565.935;1.75
757;1956.27;585.467;1.75
758;1926.67;577.654;1.75
759;1916.91;595.477;1.75
760;1958.72;552.019;1.75
761;1985.88;573.748;1.75
762;1998.39;603.29;1.76
763;2003.27;544.206;1.76
764;1976.11;573.748;1.76
765;1939.18;571.795;1.76
766;1934;585.467;1.76
767;1958.72;563.738;1.76
768;1968.79;573.748;1.76
769;1973.67;553.972;1.76
770;1963.6;595.477;1.76
771;1926.67;579.608;1.76
772;1892.19;542.009;1.76
773;1912.02;595.477;1.76
774;1948.95;579.608;1.76
775;1961.16;579.608;1.76
776;1968.79;565.935;1.76
777;1956.27;587.42;1.76
778;1929.11;577.654;1.77
779;1916.91;595.477;1.77
780;1958.72;555.925;1.77
781;1985.88;571.795;1.77
782;2000.83;605.243;1.77
783;1998.39;550.066;1.77
784;1976.11;569.842;1.77
785;1941.63;569.842;1.77
786;1931.55;585.467;1.77
787;1958.72;561.785;1.77
788;1968.79;573.748;1.77
789;1971.23;553.972;1.77
790;1961.16;601.337;1.77
791;1926.67;579.608;1.77
792;1892.19;548.112;1.77
793;1912.02;601.337;1.78
794;1946.51;577.654;1.78
795;1963.6;577.654;1.78
796;1968.79;565.935;1.78
797;1958.72;585.467;1.78
798;1926.67;573.748;1.78
799;1919.35;595.477;1.78
800;1956.27;550.066;1.78
801;1983.44;571.795;1.78
802;1995.95;601.337;1.78
803;1998.39;546.159;1.78
804;1973.67;571.795;1.78
805;1939.18;571.795;1.78
806;1931.55;585.467;1.78
807;1958.72;573.748;1.78
808;1968.79;571.795;1.78
809;1968.79;550.066;1.79
810;1958.72;581.561;1.79
811;1924.23;583.514;1.79
812;1889.74;546.159;1.79
813;1912.02;581.561;1.79
814;1944.07;589.618;1.79
815;1956.27;579.608;1.79
816;1966.35;565.935;1.79
817;1956.27;581.561;1.79
818;1929.11;575.701;1.79
819;1916.91;599.384;1.79
820;1956.27;571.795;1.79
821;1983.44;567.888;1.79
822;1995.95;605.243;1.79
823;1998.39;563.738;1.79
824;1973.67;563.738;1.8
825;1939.18;565.935;1.8
826;1931.55;583.514;1.8
827;1961.16;563.738;1.8
828;1968.79;569.842;1.8
829;1973.67;552.019;1.8
830;1961.16;587.42;1.8
831;1926.67;579.608;1.8
832;1892.19;544.206;1.8
833;1914.46;587.42;1.8
834;1948.95;583.514;1.8
835;1961.16;581.561;1.8
836;1968.79;567.888;1.8
837;1958.72;585.467;1.8
838;1931.55;577.654;1.8
839;1919.35;599.384;1.8
840;1956.27;565.935;1.81
841;1985.88;567.888;1.81
842;1998.39;607.196;1.81
843;2000.83;557.878;1.81
844;1978.55;567.888;1.81
845;1944.07;565.935;1.81
846;1931.55;583.514;1.81
847;1958.72;561.785;1.81
848;1971.23;571.795;1.81
849;1971.23;552.019;1.81
850;1963.6;595.477;1.81
851;1926.67;579.608;1.81
852;1892.19;542.009;1.81
853;1914.46;593.524;1.81
854;1948.95;579.608;1.81
855;1958.72;579.608;1.81
856;1968.79;563.738;1.82
857;1956.27;585.467;1.82
858;1926.67;573.748;1.82
859;1914.46;597.43;1.82
860;1953.83;553.972;1.82
861;1983.44;571.795;1.82
862;1993.51;605.243;1.82
863;1998.39;552.019;1.82
864;1976.11;569.842;1.82
865;1936.44;563.738;1.82
866;1929.11;579.608;1.82
867;1956.27;563.738;1.82
868;1966.35;573.748;1.82
869;1971.23;553.972;1.82
870;1958.72;599.384;1.82
871;1924.23;577.654;1.82
872;1894.63;544.206;1.83
873;1914.46;599.384;1.83
874;1948.95;577.654;1.83
875;1963.6;577.654;1.83
876;1968.79;563.738;1.83
877;1958.72;585.467;1.83
878;1929.11;573.748;1.83
879;1916.91;593.524;1.83
880;1956.27;550.066;1.83
881;1980.99;569.842;1.83
882;1998.39;599.384;1.83
883;1998.39;546.159;1.83
884;1976.11;557.878;1.83
885;1939.18;565.935;1.83
886;1931.55;581.561;1.83
887;1958.72;571.795;1.83
888;1966.35;569.842;1.84
889;1971.23;548.112;1.84
890;1961.16;579.608;1.84
891;1926.67;579.608;1.84
892;1894.63;546.159;1.84
893;1912.02;581.561;1.84
894;1946.51;587.42;1.84
895;1961.16;579.608;1.84
896;1968.79;559.832;1.84
897;1958.72;581.561;1.84
898;1929.11;573.748;1.84
899;1916.91;595.477;1.84
900;1953.83;567.888;1.84
901;1983.44;565.935;1.84
902;1998.39;603.29;1.84
903;1998.39;561.785;1.84
904;1976.11;561.785;1.85
905;1941.63;561.785;1.85
906;1931.55;581.561;1.85
907;1956.27;563.738;1.85
908;1968.79;569.842;1.85
909;1973.67;548.112;1.85
910;1961.16;585.467;1.85
911;1926.67;577.654;1.85
912;1894.63;540.056;1.85
913;1912.02;587.42;1.85
914;1948.95;583.514;1.85
915;1963.6;577.654;1.85
916;1968.79;563.738;1.85
917;1958.72;585.467;1.85
918;1931.55;573.748;1.85
919;1916.91;597.43;1.86
920;1958.72;565.935;1.86
921;1985.88;567.888;1.86
922;1995.95;601.337;1.86
923;1998.39;555.925;1.86
924;1978.55;563.738;1.86
925;1941.63;561.785;1.86
926;1934;581.561;1.86
927;1956.27;559.832;1.86
928;1971.23;569.842;1.86
929;1976.11;548.112;1.86
930;1963.6;591.571;1.86
931;1929.11;579.608;1.86
932;1894.63;540.056;1.86
933;1912.02;591.571;1.86
934;1948.95;579.608;1.86
935;1963.6;579.608;1.87
936;1971.23;563.738;1.87
937;1958.72;585.467;1.87
938;1931.55;571.795;1.87
939;1919.35;597.43;1.87
940;1956.27;555.925;1.87
941;1985.88;567.888;1.87
942;2000.83;603.29;1.87
943;2003.27;550.066;1.87
944;1978.55;567.888;1.87
945;1944.07;563.738;1.87
946;1936.44;581.561;1.87
947;1958.72;561.785;1.87
948;1971.23;569.842;1.87
949;1978.55;550.066;1.87
950;1966.35;597.43;1.87
951;1934;575.701;1.88
952;1899.51;544.206;1.88
953;1916.91;599.384;1.88
954;1948.95;577.654;1.88
955;1963.6;577.654;1.88
956;1976.11;563.738;1.88
957;1963.6;585.467;1.88
958;1936.44;571.795;1.88
959;1919.35;593.524;1.88
960;1956.27;548.112;1.88
961;1985.88;567.888;1.88
962;2000.83;605.243;1.88
963;2000.83;557.878;1.88
964;1978.55;563.738;1.88
965;1944.07;563.738;1.88
966;1934;579.608;1.88
967;1961.16;559.832;1.89
968;1971.23;571.795;1.89
969;1976.11;548.112;1.89
970;1966.35;589.618;1.89
971;1931.55;575.701;1.89
972;1897.07;540.056;1.89
973;1916.91;589.618;1.89
974;1951.39;579.608;1.89
975;1966.35;577.654;1.89
976;1973.67;563.738;1.89
977;1966.35;585.467;1.89
978;1936.44;571.795;1.89
979;1924.23;597.43;1.89
980;1963.6;557.878;1.89
981;1988.32;567.888;1.89
982;2005.71;603.29;1.89
983;2008.16;550.066;1.9
984;1985.88;567.888;1.9
985;1948.95;563.738;1.9
986;1936.44;579.608;1.9
987;1963.6;559.832;1.9
988;1973.67;569.842;1.9
989;1978.55;552.019;1.9
990;1968.79;595.477;1.9
991;1934;573.748;1.9
992;1904.39;546.159;1.9
993;1919.35;599.384;1.9
994;1953.83;577.654;1.9
995;1968.79;579.608;1.9
996;1976.11;561.785;1.9
997;1966.35;583.514;1.9
998;1939.18;571.795;1.9
999;1924.23;593.524;1.91
1000;1961.16;548.112;1.91
1001;1990.76;563.738;1.91
1002;2003.27;597.43;1.91
1003;2005.71;569.842;1.91
1004;1985.88;557.878;1.91
1005;1948.95;567.888;1.91
1006;1941.63;579.608;1.91
1007;1966.35;573.748;1.91
1008;1978.55;567.888;1.91
1009;1980.99;548.112;1.91
1010;1971.23;575.701;1.91
1011;1936.44;579.608;1.91
1012;1901.95;544.206;1.91
1013;1919.35;579.608;1.91
1014;1953.83;585.467;1.91
1015;1971.23;577.654;1.91
1016;1976.11;559.832;1.91
1017;1966.35;579.608;1.92
1018;1939.18;571.795;1.92
1019;1924.23;595.477;1.92
1020;1963.6;569.842;1.92
1021;1993.51;563.738;1.92
1022;2005.71;601.337;1.92
1023;2010.6;561.785;1.92
1024;1988.32;559.832;1.92
1025;1953.83;563.738;1.92
1026;1941.63;579.608;1.92
1027;1966.35;563.738;1.92
1028;1978.55;567.888;1.92
1029;1983.44;546.159;1.92
1030;1976.11;581.561;1.92
1031;1936.44;577.654;1.92
1032;1904.39;542.009;1.92
1033;1919.35;581.561;1.92
1034;1956.27;579.608;1.93
1035;1971.23;579.608;1.93
1036;1978.55;563.738;1.93
1037;1971.23;583.514;1.93
1038;1944.07;573.748;1.93
1039;1924.23;595.477;1.93
1040;1961.16;563.738;1.93
1041;1993.51;565.935;1.93
1042;2008.16;603.29;1.93
1043;2010.6;555.925;1.93
1044;1990.76;563.738;1.93
1045;1953.83;561.785;1.93
1046;1944.07;579.608;1.93
1047;1968.79;557.878;1.93
1048;1980.99;567.888;1.93
1049;1983.44;544.206;1.93
1050;1976.11;585.467;1.94
1051;1941.63;575.701;1.94
1052;1906.83;540.056;1.94
1053;1921.79;591.571;1.94
1054;1958.72;577.654;1.94
1055;1973.67;577.654;1.94
1056;1983.44;561.785;1.94
1057;1973.67;583.514;1.94
1058;1946.51;569.842;1.94
1059;1926.67;591.571;1.94
1060;1966.35;553.972;1.94
1061;1998.39;567.888;1.94
1062;2010.6;601.337;1.94
1063;2015.48;548.112;1.94
1064;1993.51;565.935;1.94
1065;1956.27;561.785;1.94
1066;1941.63;577.654;1.95
1067;1971.23;557.878;1.95
1068;1978.55;567.888;1.95
1069;1985.88;548.112;1.95
1070;1976.11;595.477;1.95
1071;1944.07;573.748;1.95
1072;1909.28;540.056;1.95
1073;1924.23;595.477;1.95
1074;1961.16;575.701;1.95
1075;1973.67;575.701;1.95
1076;1980.99;561.785;1.95
1077;1976.11;583.514;1.95
1078;1946.51;571.795;1.95
1079;1929.11;591.571;1.95
1080;1966.35;571.795;1.95
1081;1998.39;557.878;1.95
1082;2013.04;597.43;1.95
1083;2015.48;567.888;1.96
1084;1995.95;552.019;1.96
1085;1956.27;567.888;1.96
1086;1946.51;581.561;1.96
1087;1973.67;573.748;1.96
1088;1983.44;565.935;1.96
1089;1988.32;546.159;1.96
1090;1978.55;575.701;1.96
1091;1944.07;579.608;1.96
1092;1909.28;542.009;1.96
1093;1924.23;575.701;1.96
1094;1961.16;589.618;1.96
1095;1973.67;575.701;1.96
1096;1983.44;559.832;1.96
1097;1973.67;577.654;1.96
1098;1946.51;571.795;1.97
1099;1931.55;593.524;1.97
1100;1968.79;567.888;1.97
1101;1998.39;563.738;1.97
1102;2010.6;601.337;1.97
1103;2015.48;563.738;1.97
1104;1993.51;557.878;1.97
1105;1958.72;561.785;1.97
1106;1944.07;577.654;1.97
1107;1971.23;561.785;1.97
1108;1985.88;567.888;1.97
1109;1988.32;548.112;1.97
1110;1978.55;575.701;1.97
1111;1948.95;575.701;1.97
1112;1909.28;540.056;1.97
1113;1924.23;581.561;1.97
1114;1963.6;581.561;1.98
1115;1978.55;577.654;1.98
1116;1985.88;559.832;1.98
1117;1976.11;581.561;1.98
1118;1951.39;571.795;1.98
1119;1931.55;595.477;1.98
1120;1971.23;563.738;1.98
1121;2000.83;565.935;1.98
1122;2015.48;601.337;1.98
1123;2020.67;555.925;1.98
1124;1995.95;563.738;1.98
1125;1961.16;563.738;1.98
1126;1948.95;579.608;1.98
1127;1976.11;557.878;1.98
1128;1988.32;567.888;1.98
1129;1990.76;544.206;1.99
1130;1983.44;585.467;1.99
1131;1951.39;577.654;1.99
1132;1914.46;540.056;1.99
1133;1929.11;587.42;1.99
1134;1963.6;579.608;1.99
1135;1978.55;577.654;1.99
1136;1988.32;559.832;1.99
1137;1980.99;583.514;1.99
1138;1951.39;571.795;1.99
1139;1934;593.524;1.99
1140;1971.23;555.925;1.99
1141;2003.27;567.888;1.99
1142;2015.48;601.337;1.99
1143;2020.67;550.066;1.99
1144;2000.83;563.738;1.99
1145;1963.6;561.785;2
1146;1951.39;577.654;2
1147;1976.11;557.878;2
1148;1990.76;569.842;2
1149;1995.95;548.112;2
1150;1985.88;593.524;2
1151;1953.83;573.748;2
1152;1916.91;540.056;2
1153;1929.11;593.524;2
1154;1968.79;573.748;2
1155;1983.44;577.654;2
1156;1990.76;559.832;2
1157;1983.44;581.561;2
1158;1956.27;571.795;2
1159;1939.18;593.524;2
1160;1971.23;561.785;2.01
1161;2005.71;565.935;2.01
1162;2020.67;603.29;2.01
1163;2025.55;555.925;2.01
1164;2003.27;559.832;2.01
1165;1968.79;559.832;2.01
1166;1953.83;577.654;2.01
1167;1980.99;557.878;2.01
1168;1993.51;567.888;2.01
1169;1998.39;546.159;2.01
1170;1990.76;583.514;2.01
1171;1956.27;573.748;2.01
1172;1919.35;538.102;2.01
1173;1931.55;585.467;2.01
1174;1971.23;577.654;2.01
1175;1985.88;575.701;2.02
1176;1993.51;561.785;2.02
1177;1985.88;581.561;2.02
1178;1961.16;569.842;2.02
1179;1941.63;593.524;2.02
1180;1976.11;555.925;2.02
1181;2008.16;565.935;2.02
1182;2025.55;601.337;2.02
1183;2030.43;550.066;2.02
1184;2008.16;563.738;2.02
1185;1971.23;559.832;2.02
1186;1956.27;577.654;2.02
1187;1980.99;559.832;2.02
1188;1995.95;567.888;2.02
1189;1998.39;548.112;2.03
1190;1990.76;593.524;2.03
1191;1958.72;573.748;2.03
1192;1921.79;538.102;2.03
1193;1939.18;593.524;2.03
1194;1973.67;575.701;2.03
1195;1990.76;577.654;2.03
1196;1998.39;557.878;2.03
1197;1988.32;563.738;2.03
1198;1961.16;573.748;2.03
1199;1946.51;591.571;2.03
1200;1980.99;573.748;2.03
1201;2010.6;559.832;2.03
1202;2027.99;595.477;2.03
1203;2032.88;567.888;2.03
1204;2008.16;550.066;2.04
1205;1976.11;563.738;2.04
1206;1961.16;579.608;2.04
1207;1985.88;573.748;2.04
1208;1998.39;565.935;2.04
1209;2005.71;548.112;2.04
1210;1995.95;571.795;2.04
1211;1963.6;577.654;2.04
1212;1926.67;542.009;2.04
1213;1939.18;573.748;2.04
1214;1978.55;587.42;2.04
1215;1990.76;573.748;2.04
1216;1998.39;557.878;2.04
1217;1990.76;573.748;2.04
1218;1966.35;571.795;2.04
1219;1946.51;593.524;2.05
1220;1980.99;569.842;2.05
1221;2013.04;559.832;2.05
1222;2027.99;599.384;2.05
1223;2035.32;561.785;2.05
1224;2013.04;553.972;2.05
1225;1976.11;561.785;2.05
1226;1963.6;577.654;2.05
1227;1990.76;563.738;2.05
1228;2005.71;565.935;2.05
1229;2008.16;546.159;2.05
1230;2000.83;577.654;2.05
1231;1966.35;577.654;2.05
1232;1931.55;538.102;2.05
1233;1941.63;577.654;2.06
1234;1980.99;579.608;2.06
1235;1995.95;573.748;2.06
1236;2003.27;557.878;2.06
1237;1995.95;581.561;2.06
1238;1968.79;571.795;2.06
1239;1948.95;593.524;2.06
1240;1983.44;563.738;2.06
1241;2017.92;561.785;2.06
1242;2032.88;601.337;2.06
1243;2037.76;557.878;2.06
1244;2017.92;559.832;2.06
1245;1980.99;559.832;2.06
1246;1966.35;577.654;2.06
1247;1990.76;557.878;2.06
1248;2005.71;565.935;2.07
1249;2008.16;546.159;2.07
1250;1998.39;583.514;2.07
1251;1968.79;573.748;2.07
1252;1929.11;538.102;2.07
1253;1939.18;585.467;2.07
1254;1980.99;577.654;2.07
1255;1995.95;577.654;2.07
1256;2005.71;561.785;2.07
1257;1995.95;583.514;2.07
1258;1968.79;571.795;2.07
1259;1948.95;593.524;2.07
1260;1985.88;557.878;2.07
1261;2017.92;563.738;2.07
1262;2035.32;601.337;2.08
1263;2042.64;550.066;2.08
1264;2017.92;561.785;2.08
1265;1983.44;561.785;2.08
1266;1968.79;577.654;2.08
1267;1995.95;557.878;2.08
1268;2008.16;569.842;2.08
1269;2013.04;546.159;2.08
1270;2005.71;589.618;2.08
1271;1971.23;573.748;2.08
1272;1934;538.102;2.08
1273;1944.07;591.571;2.08
1274;1983.44;595.477;2.08
1275;2000.83;567.888;2.08
1276;2010.6;557.878;2.09
1277;2003.27;561.785;2.09
1278;1973.67;571.795;2.09
1279;1953.83;589.618;2.09
1280;1988.32;573.748;2.09
1281;2023.11;559.832;2.09
1282;2037.76;593.524;2.09
1283;2042.64;569.842;2.09
1284;2020.67;550.066;2.09
1285;1985.88;563.738;2.09
1286;1968.79;579.608;2.09
1287;1995.95;575.701;2.09
1288;2010.6;563.738;2.09
1289;2017.92;544.206;2.09
1290;2008.16;569.842;2.09
1291;1976.11;577.654;2.1
1292;1936.44;542.009;2.1
1293;1946.51;571.795;2.1
1294;1988.32;589.618;2.1
1295;2005.71;571.795;2.1
1296;2013.04;557.878;2.1
1297;2005.71;569.842;2.1
1298;1978.55;571.795;2.1
1299;1958.72;591.571;2.1
1300;1990.76;571.795;2.1
1301;2025.55;559.832;2.1
1302;2035.32;597.43;2.1
1303;2042.64;565.935;2.1
1304;2025.55;553.972;2.1
1305;1990.76;561.785;2.11
1306;1971.23;579.608;2.11
1307;1998.39;563.738;2.11
1308;2013.04;563.738;2.11
1309;2017.92;544.206;2.11
1310;2010.6;573.748;2.11
1311;1978.55;575.701;2.11
1312;1941.63;538.102;2.11
1313;1948.95;575.701;2.11
1314;1988.32;583.514;2.11
1315;2005.71;573.748;2.11
1316;2015.48;557.878;2.11
1317;2008.16;581.561;2.11
1318;1980.99;571.795;2.11
1319;1961.16;593.524;2.11
1320;1993.51;565.935;2.12
1321;2027.99;565.935;2.12
1322;2042.64;599.384;2.12
1323;2052.71;557.878;2.12
1324;2030.43;557.878;2.12
1325;1993.51;559.832;2.12
1326;1976.11;577.654;2.12
1327;2000.83;557.878;2.12
1328;2015.48;565.935;2.12
1329;2020.67;544.206;2.12
1330;2015.48;579.608;2.12
1331;1980.99;573.748;2.12
1332;1944.07;538.102;2.12
1333;1951.39;583.514;2.12
1334;1993.51;581.561;2.13
1335;2008.16;577.654;2.13
1336;2017.92;557.878;2.13
1337;2010.6;581.561;2.13
1338;1985.88;571.795;2.13
1339;1963.6;591.571;2.13
1340;1995.95;557.878;2.13
1341;2030.43;563.738;2.13
1342;2045.08;597.43;2.13
1343;2050.27;553.972;2.13
1344;2030.43;561.785;2.13
1345;1993.51;557.878;2.13
1346;1978.55;577.654;2.13
1347;2005.71;555.925;2.13
1348;2020.67;569.842;2.13
1349;2023.11;544.206;2.14
1350;2015.48;587.42;2.14
1351;1983.44;571.795;2.14
1352;1946.51;538.102;2.14
1353;1956.27;575.701;2.14
1354;1995.95;579.608;2.14
1355;2010.6;573.748;2.14
1356;2017.92;557.878;2.14
1357;2013.04;577.654;2.14
1358;1985.88;571.795;2.14
1359;1963.6;593.524;2.14
1360;1998.39;563.738;2.14
1361;2035.32;561.785;2.14
1362;2047.83;599.384;2.14
1363;2057.6;555.925;2.15
1364;2037.76;555.925;2.15
1365;2000.83;559.832;2.15
1366;1980.99;579.608;2.15
1367;2008.16;557.878;2.15
1368;2023.11;565.935;2.15
1369;2027.99;544.206;2.15
1370;2020.67;577.654;2.15
1371;1990.76;571.795;2.15
1372;1951.39;536.149;2.15
1373;1958.72;583.514;2.15
1374;1995.95;579.608;2.15
1375;2010.6;575.701;2.15
1376;2023.11;559.832;2.15
1377;2015.48;581.561;2.15
1378;1985.88;569.842;2.16
1379;1966.35;591.571;2.16
1380;1998.39;559.832;2.16
1381;2035.32;563.738;2.16
1382;2050.27;603.29;2.16
1383;2057.6;552.019;2.16
1384;2035.32;557.878;2.16
1385;2000.83;557.878;2.16
1386;1985.88;577.654;2.16
1387;2008.16;555.925;2.16
1388;2023.11;563.738;2.16
1389;2027.99;546.159;2.16
1390;2020.67;585.467;2.16
1391;1990.76;581.561;2.16
1392;1951.39;550.066;2.17
1393;1958.72;561.785;2.17
1394;1998.39;597.43;2.17
1395;2015.48;567.888;2.17
1396;2023.11;555.925;2.17
1397;2017.92;559.832;2.17
1398;1990.76;571.795;2.17
1399;1971.23;589.618;2.17
1400;2003.27;573.748;2.17
1401;2037.76;555.925;2.17
1402;2055.15;591.571;2.17
1403;2060.04;571.795;2.17
1404;2042.64;544.206;2.17
1405;2003.27;563.738;2.17
1406;1985.88;575.701;2.17
1407;2013.04;577.654;2.18
1408;2030.43;561.785;2.18
1409;2032.88;546.159;2.18
1410;2025.55;571.795;2.18
1411;1990.76;577.654;2.18
1412;1956.27;542.009;2.18
1413;1963.6;569.842;2.18
1414;2000.83;589.618;2.18
1415;2017.92;571.795;2.18
1416;2027.99;555.925;2.18
1417;2020.67;567.888;2.18
1418;1990.76;569.842;2.18
1419;1976.11;589.618;2.18
1420;2005.71;569.842;2.18
1421;2042.64;557.878;2.19
1422;2057.6;595.477;2.19
1423;2064.92;565.935;2.19
1424;2045.08;552.019;2.19
1425;2008.16;565.935;2.19
1426;1988.32;577.654;2.19
1427;2015.48;569.842;2.19
1428;2032.88;563.738;2.19
1429;2035.32;542.009;2.19
1430;2027.99;573.748;2.19
1431;1998.39;575.701;2.19
1432;1958.72;538.102;2.19
1433;1963.6;573.748;2.19
1434;2005.71;585.467;2.19
1435;2020.67;575.701;2.2
1436;2032.88;557.878;2.2
1437;2027.99;575.701;2.2
1438;1998.39;569.842;2.2
1439;1978.55;593.524;2.2
1440;2008.16;563.738;2.2
1441;2047.83;561.785;2.2
1442;2062.48;599.384;2.2
1443;2067.36;559.832;2.2
1444;2050.27;555.925;2.2
1445;2013.04;559.832;2.2
1446;1993.51;577.654;2.2
1447;2017.92;559.832;2.2
1448;2035.32;563.738;2.21
1449;2040.2;542.009;2.21
1450;2032.88;579.608;2.21
1451;2000.83;573.748;2.21
1452;1963.6;536.149;2.21
1453;1968.79;577.654;2.21
1454;2010.6;581.561;2.21
1455;2030.43;575.701;2.21
1456;2037.76;557.878;2.21
1457;2030.43;579.608;2.21
1458;2003.27;569.842;2.21
1459;1980.99;591.571;2.21
1460;2013.04;559.832;2.21
1461;2047.83;561.785;2.22
1462;2064.92;601.337;2.22
1463;2074.99;553.972;2.22
1464;2057.6;557.878;2.22
1465;2017.92;561.785;2.22
1466;2000.83;577.654;2.22
1467;2025.55;555.925;2.22
1468;2042.64;567.888;2.22
1469;2045.08;542.009;2.22
1470;2040.2;563.738;2.22
1471;2005.71;581.561;2.22
1472;1968.79;546.159;2.22
1473;1973.67;557.878;2.22
1474;2013.04;595.477;2.23
1475;2032.88;565.935;2.23
1476;2040.2;557.878;2.23
1477;2035.32;561.785;2.23
1478;2005.71;571.795;2.23
1479;1985.88;589.618;2.23
1480;2017.92;571.795;2.23
1481;2055.15;555.925;2.23
1482;2069.8;589.618;2.23
1483;2074.99;569.842;2.23
1484;2060.04;542.009;2.23
1485;2020.67;565.935;2.23
1486;2003.27;573.748;2.23
1487;2025.55;575.701;2.24
1488;2045.08;563.738;2.24
1489;2050.27;546.159;2.24
1490;2042.64;567.888;2.24
1491;2010.6;577.654;2.24
1492;1971.23;542.009;2.24
1493;1976.11;565.935;2.24
1494;2017.92;591.571;2.24
1495;2035.32;569.842;2.24
1496;2045.08;555.925;2.24
1497;2037.76;563.738;2.24
1498;2010.6;567.888;2.24
1499;1990.76;591.571;2.24
1500;2020.67;571.795;2.25
1501;2057.6;557.878;2.25
1502;2072.25;593.524;2.25
1503;2082.32;565.935;2.25
1504;2062.48;548.112;2.25
1505;2023.11;561.785;2.25
1506;2005.71;577.654;2.25
1507;2032.88;571.795;2.25
1508;2047.83;561.785;2.25
1509;2055.15;544.206;2.25
1510;2045.08;573.748;2.25
1511;2013.04;575.701;2.25
1512;1976.11;536.149;2.26
1513;1980.99;571.795;2.26
1514;2023.11;585.467;2.26
1515;2042.64;573.748;2.26
1516;2050.27;555.925;2.26
1517;2045.08;573.748;2.26
1518;2017.92;567.888;2.26
1519;1995.95;593.524;2.26
1520;2023.11;563.738;2.26
1521;2064.92;559.832;2.26
1522;2077.43;599.384;2.26
1523;2087.2;559.832;2.26
1524;2067.36;553.972;2.26
1525;2030.43;559.832;2.27
1526;2013.04;577.654;2.27
1527;2037.76;559.832;2.27
1528;2052.71;561.785;2.27
1529;2060.04;540.056;2.27
1530;2052.71;575.701;2.27
1531;2023.11;575.701;2.27
1532;1983.44;534.196;2.27
1533;1985.88;577.654;2.27
1534;2027.99;579.608;2.27
1535;2047.83;573.748;2.27
1536;2057.6;557.878;2.27
1537;2052.71;579.608;2.28
1538;2025.55;569.842;2.28
1539;2003.27;593.524;2.28
1540;2030.43;559.832;2.28
1541;2072.25;559.832;2.28
1542;2084.76;601.337;2.28
1543;2092.08;553.972;2.28
1544;2074.99;559.832;2.28
1545;2037.76;557.878;2.28
1546;2015.48;575.701;2.28
1547;2042.64;555.925;2.28
1548;2060.04;561.785;2.28
1549;2064.92;544.206;2.29
1550;2060.04;571.795;2.29
1551;2027.99;575.701;2.29
1552;1988.32;538.102;2.29
1553;1990.76;567.888;2.29
1554;2032.88;583.514;2.29
1555;2055.15;573.748;2.29
1556;2062.48;557.878;2.29
1557;2055.15;571.795;2.29
1558;2027.99;569.842;2.29
1559;2003.27;591.571;2.29
1560;2032.88;567.888;2.29
1561;2074.99;557.878;2.3
1562;2089.64;597.43;2.3
1563;2096.97;557.878;2.3
1564;2079.87;553.972;2.3
1565;2045.08;557.878;2.3
1566;2023.11;577.654;2.3
1567;2045.08;561.785;2.3
1568;2064.92;563.738;2.3
1569;2072.25;542.009;2.3
1570;2064.92;577.654;2.3
1571;2032.88;571.795;2.3
1572;1993.51;536.149;2.3
1573;1995.95;579.608;2.31
1574;2037.76;577.654;2.31
1575;2060.04;573.748;2.31
1576;2064.92;553.972;2.31
1577;2062.48;577.654;2.31
1578;2035.32;567.888;2.31
1579;2010.6;591.571;2.31
1580;2040.2;561.785;2.31
1581;2079.87;561.785;2.31
1582;2096.97;599.384;2.31
1583;2102.15;553.972;2.31
1584;2084.76;557.878;2.31
1585;2047.83;557.878;2.32
1586;2025.55;577.654;2.32
1587;2052.71;575.701;2.32
1588;2069.8;559.832;2.32
1589;2077.43;548.112;2.32
1590;2069.8;563.738;2.32
1591;2040.2;583.514;2.32
1592;1995.95;548.112;2.32
1593;2000.83;557.878;2.32
1594;2040.2;597.43;2.32
1595;2060.04;565.935;2.32
1596;2069.8;555.925;2.33
1597;2064.92;557.878;2.33
1598;2037.76;569.842;2.33
1599;2015.48;585.467;2.33
1600;2042.64;573.748;2.33
1601;2082.32;553.972;2.33
1602;2096.97;587.42;2.33
1603;2107.04;571.795;2.33
1604;2089.64;542.009;2.33
1605;2055.15;563.738;2.33
1606;2027.99;577.654;2.33
1607;2057.6;577.654;2.33
1608;2074.99;561.785;2.34
1609;2079.87;546.159;2.34
1610;2072.25;563.738;2.34
1611;2045.08;581.561;2.34
1612;2003.27;542.009;2.34
1613;2005.71;561.785;2.34
1614;2047.83;591.571;2.34
1615;2067.36;569.842;2.34
1616;2077.43;555.925;2.34
1617;2072.25;561.785;2.34
1618;2042.64;567.888;2.34
1619;2017.92;587.42;2.35
1620;2047.83;569.842;2.35
1621;2084.76;555.925;2.35
1622;2104.59;589.618;2.35
1623;2109.48;565.935;2.35
1624;2089.64;546.159;2.35
1625;2057.6;561.785;2.35
1626;2035.32;577.654;2.35
1627;2057.6;571.795;2.35
1628;2077.43;563.738;2.35
1629;2084.76;540.056;2.35
1630;2077.43;567.888;2.35
1631;2050.27;577.654;2.36
1632;2008.16;540.056;2.36
1633;2005.71;571.795;2.36
1634;2050.27;587.42;2.36
1635;2067.36;571.795;2.36
1636;2079.87;555.925;2.36
1637;2074.99;567.888;2.36
1638;2047.83;565.935;2.36
1639;2023.11;591.571;2.36
1640;2052.71;567.888;2.36
1641;2092.08;559.832;2.36
1642;2107.04;597.43;2.37
1643;2116.8;559.832;2.37
1644;2099.41;552.019;2.37
1645;2064.92;559.832;2.37
1646;2040.2;573.748;2.37
1647;2064.92;561.785;2.37
1648;2082.32;559.832;2.37
1649;2087.2;542.009;2.37
1650;2082.32;571.795;2.37
1651;2050.27;575.701;2.37
1652;2010.6;534.196;2.37
1653;2010.6;575.701;2.38
1654;2055.15;579.608;2.38
1655;2074.99;573.748;2.38
1656;2084.76;557.878;2.38
1657;2082.32;575.701;2.38
1658;2055.15;567.888;2.38
1659;2027.99;589.618;2.38
1660;2057.6;559.832;2.38
1661;2096.97;561.785;2.38
1662;2116.8;599.384;2.38
1663;2121.69;555.925;2.38
1664;2107.04;553.972;2.39
1665;2069.8;555.925;2.39
1666;2047.83;573.748;2.39
1667;2069.8;575.701;2.39
1668;2089.64;561.785;2.39
1669;2094.52;548.112;2.39
1670;2089.64;559.832;2.39
1671;2057.6;581.561;2.39
1672;2017.92;550.066;2.39
1673;2017.92;555.925;2.39
1674;2062.48;597.43;2.39
1675;2082.32;565.935;2.4
1676;2092.08;555.925;2.4
1677;2084.76;559.832;2.4
1678;2057.6;569.842;2.4
1679;2035.32;583.514;2.4
1680;2062.48;573.748;2.4
1681;2102.15;552.019;2.4
1682;2121.69;585.467;2.4
