<WeldAnalyseData xmlns:i="http:www.w3.org/2001/XMLSchema-instance">
<WeldParameter>
<TimeStamp>DT#2024-01-24-14:59:04</TimeStamp>
<Generator>SG-22-10000</Generator>
<GenFreq>20</GenFreq>
<MaxForce>8000</MaxForce>
<MaxPower>10000</MaxPower>
<RunupPressure>1.5</RunupPressure>
<RunupDist>10</RunupDist>
<RunPress>0.8</RunPress>
<ShakeDelay>0.03</ShakeDelay>
<ShakeTime>0.3</ShakeTime>
<RunBackPress1>6</RunBackPress1>
<RunBackPress2>2</RunBackPress2>
<RunBackDist>1</RunBackDist>
<TrigValue>500</TrigValue>
<TrigModeUnit>W</TrigModeUnit>
<WeldModeUnit>Ws</WeldModeUnit>
<PressNr>0</PressNr>
<MaxLoss>1500</MaxLoss>
</WeldParameter>
<WeldSets>
<WeldSet>
<PressRiseTime>0</PressRiseTime>
<RunPressure>1</RunPressure>
<Amplitude>86</Amplitude>
<WeldMode>3270</WeldMode>
</WeldSet>
</WeldSets>
<WeldValue>
<WeldNr>2971</WeldNr>
<RecipeName>RickStyle</RecipeName>
<WeldTime>1678</WeldTime>
<DistDiff>2.36</DistDiff>
<DistAbs>78.05</DistAbs>
<Energy>3271.07</Energy>
<MaxPower>2131.83</MaxPower>
<CycleTime>6110</CycleTime>
<TrigForce>500.748</TrigForce>
<TrigDist>75.69</TrigDist>
<RunSpeed>68.6842</RunSpeed>
<MaxForce>621.113</MaxForce>
<LossPower>322.466</LossPower>
</WeldValue>
</WeldAnalyseData>
#CSV-START#
ms;Power[W];Force[N];Distance[mm]
1;0;0;0
2;0;502.701;0
3;0;502.701;0
4;0;502.701;0
5;0;506.607;0
6;0;504.654;0
7;0;504.654;0
8;0;479.019;0.00999451
9;0;419.691;0.0199966
10;0;405.774;0.0400009
11;0;360.363;0.0799942
12;35.5159;346.69;0.119995
13;102.046;326.914;0.159996
14;188.414;321.055;0.199997
15;269.898;295.419;0.25
16;334.292;293.222;0.299995
17;398.381;297.372;0.349998
18;464.911;269.539;0.399994
19;526.864;291.269;0.449997
20;586.07;301.279;0.489998
21;655.042;312.998;0.529999
22;726.76;307.138;0.559998
23;800.92;312.998;0.589996
24;869.892;326.914;0.610001
25;929.098;354.503;0.639999
26;973.655;346.69;0.649994
27;1027.98;358.409;0.669998
28;1102.14;401.868;0.68
29;1158.9;394.055;0.68
30;1208.34;394.055;0.689995
31;1245.27;399.915;0.689995
32;1269.99;415.784;0.689995
33;1279.76;431.654;0.699997
34;1319.43;431.654;0.699997
35;1371.31;401.868;0.699997
36;1408.24;425.55;0.709999
37;1440.28;441.42;0.709999
38;1465;396.008;0.720001
39;1469.89;429.456;0.720001
40;1477.52;431.654;0.729996
41;1514.44;439.467;0.729996
42;1551.37;431.654;0.739998
43;1578.53;425.55;0.739998
44;1598.37;425.55;0.75
45;1595.93;453.383;0.75
46;1586.16;429.456;0.759995
47;1595.93;425.55;0.759995
48;1645.37;470.962;0.769997
49;1682.29;441.42;0.779999
50;1709.46;435.56;0.779999
51;1729.29;435.56;0.790001
52;1724.41;449.232;0.799995
53;1719.22;461.196;0.799995
54;1754.01;455.336;0.809998
55;1808.34;433.607;0.82
56;1837.94;463.149;0.82
57;1865.1;463.149;0.829994
58;1872.42;429.456;0.839996
59;1850.15;457.289;0.839996
60;1840.38;467.055;0.849998
61;1869.98;472.915;0.860001
62;1899.59;459.243;0.860001
63;1916.98;451.186;0.869995
64;1926.75;465.102;0.869995
65;1911.79;482.925;0.879997
66;1882.19;455.336;0.879997
67;1882.19;467.055;0.889999
68;1929.19;504.654;0.889999
69;1958.79;479.019;0.899994
70;1978.63;469.008;0.899994
71;1981.07;472.915;0.899994
72;1963.68;482.925;0.909996
73;1946.59;482.925;0.909996
74;1968.86;500.748;0.919998
75;2015.56;459.243;0.919998
76;2040.28;484.878;0.93
77;2057.67;512.467;0.93
78;2047.6;453.383;0.93
79;2018;486.831;0.939995
80;1996.03;490.738;0.939995
81;2018;502.701;0.949997
82;2042.72;484.878;0.949997
83;2055.23;488.784;0.949997
84;2055.23;479.019;0.959999
85;2030.51;522.477;0.959999
86;1990.84;498.795;0.959999
87;1983.51;477.065;0.970001
88;2030.51;538.102;0.970001
89;2055.23;502.701;0.979996
90;2067.44;498.795;0.979996
91;2067.44;494.644;0.979996
92;2045.16;512.467;0.989998
93;2018;508.56;0.989998
94;2037.84;522.477;0.989998
95;2082.39;484.878;1
96;2104.67;512.467;1
97;2116.88;528.336;1
98;2104.67;470.962;1.00999
99;2067.44;510.514;1.00999
100;2040.28;514.42;1.00999
101;2060.11;520.524;1.02
102;2082.39;502.701;1.02
103;2092.16;506.607;1.02
104;2087.28;500.748;1.03
105;2057.67;536.149;1.03
106;2015.56;508.56;1.03
107;2005.79;494.644;1.04
108;2045.16;550.066;1.04
109;2067.44;510.514;1.04
110;2077.51;506.607;1.05
111;2074.76;506.607;1.05
112;2047.6;520.524;1.05
113;2018;526.383;1.06
114;2040.28;528.336;1.06
115;2084.83;498.795;1.06
116;2107.11;526.383;1.06
117;2116.88;536.149;1.07
118;2104.67;486.831;1.07
119;2067.44;520.524;1.07
120;2037.84;528.336;1.07
121;2055.23;530.29;1.07999
122;2074.76;514.42;1.07999
123;2082.39;508.56;1.07999
124;2077.51;514.42;1.09
125;2047.6;540.056;1.09
126;2000.91;510.514;1.09
127;1990.84;512.467;1.09
128;2028.07;555.925;1.1
129;2050.35;522.477;1.1
130;2060.11;516.373;1.1
131;2055.23;518.326;1.1
132;2028.07;530.29;1.11
133;2000.91;542.009;1.11
134;2015.56;534.196;1.11
135;2062.56;510.514;1.11
136;2077.51;544.206;1.12
137;2087.28;538.102;1.12
138;2074.76;500.748;1.12
139;2040.28;526.383;1.12
140;2010.67;538.102;1.13
141;2030.51;536.149;1.13
142;2050.35;522.477;1.13
143;2060.11;512.467;1.13
144;2055.23;526.383;1.14
145;2025.63;544.206;1.14
146;1983.51;512.467;1.14
147;1976.19;524.43;1.14
148;2010.67;557.878;1.14
149;2037.84;530.29;1.14999
150;2045.16;522.477;1.14999
151;2045.16;522.477;1.14999
152;2020.44;542.009;1.14999
153;1990.84;536.149;1.14999
154;2008.23;552.019;1.16
155;2052.79;508.56;1.16
156;2069.88;532.243;1.16
157;2077.51;557.878;1.16
158;2062.56;500.748;1.16
159;2025.63;532.243;1.17
160;2000.91;536.149;1.17
161;2018;544.206;1.17
162;2037.84;526.383;1.17
163;2042.72;532.243;1.17
164;2042.72;522.477;1.18
165;2013.12;561.785;1.18
166;1968.86;538.102;1.18
167;1961.23;516.373;1.18
168;1998.47;579.608;1.18
169;2020.44;538.102;1.18
170;2032.95;538.102;1.18999
171;2028.07;528.336;1.18999
172;2003.35;548.112;1.18999
173;1973.75;546.159;1.18999
174;1990.84;552.019;1.18999
175;2030.51;516.373;1.18999
176;2052.79;544.206;1.2
177;2060.11;563.738;1.2
178;2045.16;504.654;1.2
179;2010.67;540.056;1.2
180;1981.07;544.206;1.2
181;1998.47;552.019;1.2
182;2018;536.149;1.21
183;2025.63;532.243;1.21
184;2020.44;532.243;1.21
185;1993.28;563.738;1.21
186;1951.47;540.056;1.21
187;1938.96;524.43;1.21
188;1981.07;579.608;1.22
189;1998.47;542.009;1.22
190;2008.23;538.102;1.22
191;2005.79;532.243;1.22
192;1981.07;548.112;1.22
193;1953.91;555.925;1.22
194;1968.86;555.925;1.23
195;2010.67;524.43;1.23
196;2030.51;553.972;1.23
197;2035.39;557.878;1.23
198;2025.63;514.42;1.23
199;1990.84;546.159;1.23
200;1963.68;552.019;1.24
201;1981.07;553.972;1.24
202;2000.91;538.102;1.24
203;2008.23;532.243;1.24
204;2000.91;540.056;1.24
205;1978.63;565.935;1.24
206;1934.07;538.102;1.25
207;1924.31;534.196;1.25
208;1963.68;581.561;1.25
209;1988.4;550.066;1.25
210;1993.28;540.056;1.25
211;1993.28;540.056;1.25
212;1971.31;553.972;1.25
213;1938.96;563.738;1.25999
214;1956.35;559.832;1.25999
215;2000.91;534.196;1.25999
216;2015.56;565.935;1.25999
217;2025.63;559.832;1.25999
218;2013.12;524.43;1.25999
219;1978.63;548.112;1.27
220;1951.47;559.832;1.27
221;1968.86;557.878;1.27
222;1985.95;546.159;1.27
223;1996.03;532.243;1.27
224;1993.28;546.159;1.27
225;1966.12;563.738;1.27
226;1924.31;532.243;1.28
227;1916.98;544.206;1.28
228;1956.35;579.608;1.28
229;1976.19;552.019;1.28
230;1985.95;544.206;1.28
231;1983.51;546.159;1.28
232;1961.23;559.832;1.28
233;1931.63;563.738;1.29
234;1949.03;563.738;1.29
235;1990.84;532.243;1.29
236;2008.23;559.832;1.29
237;2018;567.888;1.29
238;2005.79;522.477;1.29
239;1971.31;553.972;1.29
240;1944.14;561.785;1.3
241;1961.23;561.785;1.3
242;1981.07;548.112;1.3
243;1985.95;538.102;1.3
244;1983.51;548.112;1.3
245;1956.35;573.748;1.3
246;1916.98;542.009;1.3
247;1909.35;544.206;1.31
248;1946.59;585.467;1.31
249;1966.12;555.925;1.31
250;1976.19;548.112;1.31
251;1973.75;550.066;1.31
252;1946.59;561.785;1.31
253;1924.31;573.748;1.31
254;1938.96;567.888;1.32
255;1981.07;542.009;1.32
256;1998.47;571.795;1.32
257;2005.79;565.935;1.32
258;1993.28;530.29;1.32
259;1963.68;555.925;1.32
260;1936.51;565.935;1.32
261;1953.91;569.842;1.32
262;1971.31;552.019;1.32999
263;1981.07;540.056;1.32999
264;1976.19;553.972;1.32999
265;1949.03;573.748;1.32999
266;1911.79;538.102;1.32999
267;1902.03;553.972;1.32999
268;1938.96;587.42;1.32999
269;1958.79;563.738;1.32999
270;1971.31;561.785;1.34
271;1968.86;553.972;1.34
272;1946.59;569.842;1.34
273;1919.42;563.738;1.34
274;1934.07;579.608;1.34
275;1976.19;538.102;1.34
276;1993.28;561.785;1.34
277;2005.79;587.42;1.34
278;1993.28;526.383;1.35
279;1958.79;561.785;1.35
280;1931.63;565.935;1.35
281;1946.59;573.748;1.35
282;1966.12;553.972;1.35
283;1976.19;561.785;1.35
284;1973.75;550.066;1.35
285;1946.59;589.618;1.36
286;1909.35;563.738;1.36
287;1902.03;544.206;1.36
288;1934.07;605.243;1.36
289;1956.35;569.842;1.36
290;1966.12;561.785;1.36
291;1966.12;557.878;1.36
292;1941.7;575.701;1.36
293;1914.54;573.748;1.36
294;1936.51;585.467;1.37
295;1973.75;546.159;1.37
296;1993.28;569.842;1.37
297;2003.35;589.618;1.37
298;1990.84;534.196;1.37
299;1961.23;569.842;1.37
300;1934.07;573.748;1.37
301;1946.59;579.608;1.37
302;1968.86;561.785;1.38
303;1973.75;561.785;1.38
304;1973.75;559.832;1.38
305;1941.7;591.571;1.38
306;1906.91;561.785;1.38
307;1899.59;555.925;1.38
308;1934.07;609.149;1.38
309;1956.35;571.795;1.38
310;1966.12;565.935;1.39
311;1963.68;563.738;1.39
312;1941.7;577.654;1.39
313;1914.54;585.467;1.39
314;1929.19;585.467;1.39
315;1968.86;552.019;1.39
316;1988.4;583.514;1.39
317;2000.91;585.467;1.39
318;1985.95;542.009;1.39
319;1951.47;573.748;1.39999
320;1926.75;581.561;1.39999
321;1941.7;583.514;1.39999
322;1961.23;569.842;1.39999
323;1971.31;561.785;1.39999
324;1968.86;567.888;1.39999
325;1941.7;591.571;1.39999
326;1902.03;563.738;1.39999
327;1897.14;565.935;1.41
328;1929.19;607.196;1.41
329;1951.47;579.608;1.41
330;1963.68;567.888;1.41
331;1961.23;567.888;1.41
332;1938.96;581.561;1.41
333;1909.35;593.524;1.41
334;1929.19;583.514;1.41
335;1971.31;561.785;1.41
336;1985.95;593.524;1.42
337;1998.47;585.467;1.42
338;1985.95;552.019;1.42
339;1953.91;575.701;1.42
340;1924.31;585.467;1.42
341;1944.14;589.618;1.42
342;1963.68;573.748;1.42
343;1971.31;557.878;1.42
344;1966.12;573.748;1.42
345;1944.14;593.524;1.43
346;1904.47;557.878;1.43
347;1897.14;571.795;1.43
348;1931.63;613.3;1.43
349;1951.47;579.608;1.43
350;1963.68;577.654;1.43
351;1966.12;567.888;1.43
352;1938.96;589.618;1.43
353;1914.54;579.608;1.43
354;1929.19;595.477;1.43999
355;1971.31;553.972;1.43999
356;1988.4;579.608;1.43999
357;1998.47;605.243;1.43999
358;1988.4;542.009;1.43999
359;1956.35;577.654;1.43999
360;1929.19;579.608;1.43999
361;1946.59;589.618;1.43999
362;1963.68;571.795;1.43999
363;1971.31;575.701;1.45
364;1966.12;563.738;1.45
365;1946.59;605.243;1.45
366;1906.91;579.608;1.45
367;1897.14;559.832;1.45
368;1931.63;619.16;1.45
369;1951.47;581.561;1.45
370;1963.68;577.654;1.45
371;1966.12;571.795;1.45
372;1938.96;587.42;1.45
373;1914.54;587.42;1.46
374;1929.19;593.524;1.46
375;1973.75;555.925;1.46
376;1988.4;583.514;1.46
377;2000.91;601.337;1.46
378;1988.4;546.159;1.46
379;1956.35;579.608;1.46
380;1929.19;585.467;1.46
381;1944.14;589.618;1.46
382;1966.12;573.748;1.46
383;1971.31;569.842;1.47
384;1971.31;569.842;1.47
385;1946.59;603.29;1.47
386;1906.91;571.795;1.47
387;1897.14;563.738;1.47
388;1931.63;617.206;1.47
389;1953.91;581.561;1.47
390;1963.68;573.748;1.47
391;1963.68;571.795;1.47
392;1938.96;585.467;1.47
393;1914.54;589.618;1.48
394;1931.63;591.571;1.48
395;1971.31;559.832;1.48
396;1990.84;587.42;1.48
397;2000.91;595.477;1.48
398;1988.4;552.019;1.48
399;1956.35;579.608;1.48
400;1929.19;587.42;1.48
401;1944.14;591.571;1.48
402;1966.12;573.748;1.48
403;1971.31;563.738;1.48
404;1968.86;575.701;1.49
405;1944.14;597.43;1.49
406;1906.91;567.888;1.49
407;1899.59;571.795;1.49
408;1934.07;613.3;1.49
409;1953.91;579.608;1.49
410;1966.12;571.795;1.49
411;1966.12;571.795;1.49
412;1941.7;583.514;1.49
413;1916.98;597.43;1.49
414;1931.63;589.618;1.49
415;1971.31;565.935;1.5
416;1988.4;599.384;1.5
417;2003.35;589.618;1.5
418;1988.4;555.925;1.5
419;1953.91;579.608;1.5
420;1929.19;589.618;1.5
421;1944.14;591.571;1.5
422;1966.12;575.701;1.5
423;1971.31;561.785;1.5
424;1973.75;579.608;1.5
425;1946.59;595.477;1.5
426;1909.35;573.748;1.5
427;1899.59;565.935;1.50999
428;1936.51;617.206;1.50999
429;1956.35;581.561;1.50999
430;1966.12;575.701;1.50999
431;1966.12;573.748;1.50999
432;1938.96;585.467;1.50999
433;1914.54;595.477;1.50999
434;1931.63;593.524;1.50999
435;1973.75;563.738;1.50999
436;1993.28;591.571;1.50999
437;2003.35;595.477;1.50999
438;1990.84;552.019;1.52
439;1958.79;581.561;1.52
440;1931.63;587.42;1.52
441;1949.03;591.571;1.52
442;1966.12;575.701;1.52
443;1976.19;563.738;1.52
444;1973.75;573.748;1.52
445;1949.03;597.43;1.52
446;1909.35;567.888;1.52
447;1897.14;571.795;1.52
448;1934.07;613.3;1.52
449;1956.35;583.514;1.52
450;1968.86;575.701;1.53
451;1966.12;573.748;1.53
452;1941.7;583.514;1.53
453;1911.79;601.337;1.53
454;1931.63;591.571;1.53
455;1973.75;567.888;1.53
456;1990.84;599.384;1.53
457;2000.91;591.571;1.53
458;1990.84;557.878;1.53
459;1958.79;579.608;1.53
460;1931.63;589.618;1.53
461;1946.59;589.618;1.53
462;1963.68;579.608;1.53
463;1971.31;563.738;1.54
464;1973.75;579.608;1.54
465;1946.59;607.196;1.54
466;1906.91;585.467;1.54
467;1897.14;561.785;1.54
468;1936.51;619.16;1.54
469;1956.35;583.514;1.54
470;1966.12;581.561;1.54
471;1966.12;571.795;1.54
472;1946.59;589.618;1.54
473;1919.42;585.467;1.54
474;1931.63;599.384;1.54
475;1973.75;555.925;1.55
476;1990.84;581.561;1.55
477;2000.91;605.243;1.55
478;1990.84;546.159;1.55
479;1958.79;579.608;1.55
480;1931.63;583.514;1.55
481;1946.59;591.571;1.55
482;1968.86;577.654;1.55
483;1973.75;573.748;1.55
484;1973.75;567.888;1.55
485;1951.47;609.149;1.55
486;1909.35;583.514;1.55
487;1899.59;561.785;1.56
488;1936.51;619.16;1.56
489;1956.35;583.514;1.56
490;1968.86;577.654;1.56
491;1966.12;573.748;1.56
492;1946.59;589.618;1.56
493;1916.98;591.571;1.56
494;1931.63;595.477;1.56
495;1973.75;557.878;1.56
496;1990.84;585.467;1.56
497;2003.35;599.384;1.56
498;1990.84;550.066;1.56
499;1958.79;579.608;1.56
500;1931.63;585.467;1.57
501;1946.59;591.571;1.57
502;1968.86;575.701;1.57
503;1973.75;571.795;1.57
504;1971.31;571.795;1.57
505;1946.59;603.29;1.57
506;1909.35;575.701;1.57
507;1899.59;567.888;1.57
508;1938.96;619.16;1.57
509;1961.23;583.514;1.57
510;1968.86;573.748;1.57
511;1968.86;573.748;1.57
512;1946.59;587.42;1.57
513;1919.42;595.477;1.57999
514;1934.07;595.477;1.57999
515;1976.19;565.935;1.57999
516;1996.03;593.524;1.57999
517;2005.79;595.477;1.57999
518;1993.28;553.972;1.57999
519;1963.68;581.561;1.57999
520;1931.63;589.618;1.57999
521;1949.03;593.524;1.57999
522;1971.31;579.608;1.57999
523;1978.63;567.888;1.57999
524;1976.19;575.701;1.57999
525;1949.03;601.337;1.57999
526;1911.79;569.842;1.59
527;1904.47;571.795;1.59
528;1941.7;615.253;1.59
529;1961.23;583.514;1.59
530;1971.31;571.795;1.59
531;1968.86;577.654;1.59
532;1949.03;585.467;1.59
533;1921.86;599.384;1.59
534;1936.51;591.571;1.59
535;1978.63;569.842;1.59
536;1998.47;599.384;1.59
537;2008.23;591.571;1.59
538;1993.28;557.878;1.59
539;1963.68;579.608;1.59
540;1934.07;591.571;1.6
541;1951.47;591.571;1.6
542;1971.31;577.654;1.6
543;1978.63;561.785;1.6
544;1976.19;565.935;1.6
545;1951.47;609.149;1.6
546;1914.54;585.467;1.6
547;1904.47;563.738;1.6
548;1941.7;619.16;1.6
549;1961.23;585.467;1.6
550;1971.31;579.608;1.6
551;1971.31;575.701;1.6
552;1946.59;591.571;1.61
553;1919.42;585.467;1.61
554;1934.07;601.337;1.61
555;1976.19;559.832;1.61
556;1993.28;583.514;1.61
557;2005.79;605.243;1.61
558;1993.28;548.112;1.61
559;1963.68;579.608;1.61
560;1936.51;583.514;1.61
561;1951.47;591.571;1.61
562;1971.31;575.701;1.61
563;1978.63;575.701;1.61
564;1978.63;567.888;1.61
565;1951.47;607.196;1.61
566;1914.54;583.514;1.62
567;1902.03;561.785;1.62
568;1941.7;621.113;1.62
569;1961.23;585.467;1.62
570;1971.31;577.654;1.62
571;1971.31;575.701;1.62
572;1949.03;591.571;1.62
573;1921.86;589.618;1.62
574;1936.51;597.43;1.62
575;1981.07;559.832;1.62
576;1998.47;587.42;1.62
577;2010.67;601.337;1.62
578;1998.47;550.066;1.62
579;1966.12;581.561;1.63
580;1936.51;585.467;1.63
581;1953.91;589.618;1.63
582;1976.19;575.701;1.63
583;1981.07;571.795;1.63
584;1981.07;571.795;1.63
585;1953.91;603.29;1.63
586;1914.54;571.795;1.63
587;1906.91;567.888;1.63
588;1941.7;619.16;1.63
589;1963.68;581.561;1.63
590;1976.19;575.701;1.63
591;1976.19;575.701;1.63
592;1951.47;587.42;1.63
593;1924.31;593.524;1.64
594;1938.96;593.524;1.64
595;1981.07;563.738;1.64
596;2000.91;593.524;1.64
597;2010.67;597.43;1.64
598;1998.47;552.019;1.64
599;1966.12;579.608;1.64
600;1938.96;587.42;1.64
601;1953.91;589.618;1.64
602;1978.63;577.654;1.64
603;1985.95;563.738;1.64
604;1981.07;575.701;1.64
605;1953.91;597.43;1.64
606;1916.98;567.888;1.64999
607;1904.47;573.748;1.64999
608;1944.14;611.347;1.64999
609;1963.68;581.561;1.64999
610;1976.19;573.748;1.64999
611;1976.19;573.748;1.64999
612;1951.47;583.514;1.64999
613;1924.31;599.384;1.64999
614;1941.7;589.618;1.64999
615;1981.07;567.888;1.64999
616;1998.47;599.384;1.64999
617;2010.67;587.42;1.64999
618;1998.47;557.878;1.64999
619;1966.12;579.608;1.64999
620;1938.96;589.618;1.66
621;1956.35;589.618;1.66
622;1976.19;575.701;1.66
623;1983.51;571.795;1.66
624;1981.07;569.842;1.66
625;1953.91;597.43;1.66
626;1916.98;573.748;1.66
627;1906.91;567.888;1.66
628;1944.14;615.253;1.66
629;1963.68;579.608;1.66
630;1976.19;573.748;1.66
631;1976.19;573.748;1.66
632;1951.47;585.467;1.66
633;1924.31;595.477;1.66
634;1941.7;591.571;1.67
635;1981.07;561.785;1.67
636;2000.91;591.571;1.67
637;2010.67;593.524;1.67
638;2000.91;552.019;1.67
639;1968.86;579.608;1.67
640;1941.7;587.42;1.67
641;1958.79;589.618;1.67
642;1976.19;573.748;1.67
643;1983.51;565.935;1.67
644;1978.63;573.748;1.67
645;1956.35;595.477;1.67
646;1916.98;565.935;1.67
647;1906.91;571.795;1.67
648;1944.14;611.347;1.68
649;1963.68;579.608;1.68
650;1973.75;571.795;1.68
651;1971.31;571.795;1.68
652;1951.47;581.561;1.68
653;1924.31;599.384;1.68
654;1938.96;585.467;1.68
655;1978.63;565.935;1.68
656;1998.47;599.384;1.68
657;2013.12;585.467;1.68
658;1998.47;553.972;1.68
659;1966.12;577.654;1.68
660;1934.07;589.618;1.68
661;1953.91;587.42;1.68
662;1976.19;569.842;1.68
663;1981.07;575.701;1.68999
664;1978.63;561.785;1.68999
665;1953.91;605.243;1.68999
666;1916.98;581.561;1.68999
667;1904.47;555.925;1.68999
668;1941.7;615.253;1.68999
669;1963.68;581.561;1.68999
670;1973.75;579.608;1.68999
671;1973.75;571.795;1.68999
672;1951.47;587.42;1.68999
673;1924.31;581.561;1.68999
674;1938.96;595.477;1.68999
675;1978.63;555.925;1.68999
676;1998.47;579.608;1.68999
677;2010.67;599.384;1.68999
678;2000.91;544.206;1.7
679;1966.12;575.701;1.7
680;1941.7;579.608;1.7
681;1953.91;587.42;1.7
682;1973.75;571.795;1.7
683;1983.51;571.795;1.7
684;1981.07;561.785;1.7
685;1953.91;603.29;1.7
686;1914.54;577.654;1.7
687;1904.47;557.878;1.7
688;1938.96;617.206;1.7
689;1961.23;579.608;1.7
690;1973.75;571.795;1.7
691;1971.31;569.842;1.7
692;1951.47;583.514;1.7
693;1921.86;585.467;1.71
694;1941.7;593.524;1.71
695;1978.63;557.878;1.71
696;1998.47;585.467;1.71
697;2008.23;595.477;1.71
698;1998.47;546.159;1.71
699;1966.12;575.701;1.71
700;1938.96;581.561;1.71
701;1953.91;587.42;1.71
702;1973.75;571.795;1.71
703;1978.63;567.888;1.71
704;1981.07;569.842;1.71
705;1953.91;597.43;1.71
706;1914.54;567.888;1.71
707;1904.47;565.935;1.71
708;1941.7;611.347;1.72
709;1963.68;577.654;1.72
710;1973.75;571.795;1.72
711;1976.19;569.842;1.72
712;1953.91;583.514;1.72
713;1924.31;589.618;1.72
714;1941.7;589.618;1.72
715;1981.07;561.785;1.72
716;1998.47;589.618;1.72
717;2010.67;591.571;1.72
718;2000.91;550.066;1.72
719;1966.12;577.654;1.72
720;1938.96;585.467;1.72
721;1953.91;587.42;1.72
722;1976.19;575.701;1.72
723;1983.51;563.738;1.73
724;1981.07;571.795;1.73
725;1953.91;593.524;1.73
726;1916.98;561.785;1.73
727;1904.47;571.795;1.73
728;1941.7;605.243;1.73
729;1963.68;577.654;1.73
730;1971.31;567.888;1.73
731;1973.75;569.842;1.73
732;1949.03;581.561;1.73
733;1921.86;597.43;1.73
734;1941.7;585.467;1.73
735;1981.07;563.738;1.73
736;1998.47;593.524;1.73
737;2008.23;583.514;1.74
738;1998.47;553.972;1.74
739;1966.12;577.654;1.74
740;1938.96;575.701;1.74
741;1953.91;585.467;1.74
742;1976.19;569.842;1.74
743;1981.07;575.701;1.74
744;1981.07;561.785;1.74
745;1953.91;603.29;1.74
746;1919.42;577.654;1.74
747;1904.47;555.925;1.74
748;1941.7;617.206;1.74
749;1963.68;577.654;1.74
750;1973.75;575.701;1.74
751;1973.75;569.842;1.74
752;1951.47;585.467;1.75
753;1921.86;579.608;1.75
754;1938.96;595.477;1.75
755;1981.07;553.972;1.75
756;1998.47;577.654;1.75
757;2008.23;599.384;1.75
758;1998.47;542.009;1.75
759;1966.12;575.701;1.75
760;1938.96;579.608;1.75
761;1953.91;587.42;1.75
762;1973.75;567.888;1.75
763;1978.63;571.795;1.75
764;1978.63;563.738;1.75
765;1956.35;601.337;1.75
766;1914.54;575.701;1.75
767;1904.47;559.832;1.75999
768;1936.51;615.253;1.75999
769;1961.23;579.608;1.75999
770;1968.86;573.748;1.75999
771;1971.31;569.842;1.75999
772;1949.03;585.467;1.75999
773;1919.42;585.467;1.75999
774;1936.51;593.524;1.75999
775;1976.19;557.878;1.75999
776;1998.47;581.561;1.75999
777;2005.79;593.524;1.75999
778;1998.47;544.206;1.75999
779;1963.68;577.654;1.75999
780;1936.51;581.561;1.75999
781;1953.91;585.467;1.75999
782;1971.31;571.795;1.77
783;1978.63;565.935;1.77
784;1978.63;569.842;1.77
785;1953.91;597.43;1.77
786;1916.98;567.888;1.77
787;1904.47;565.935;1.77
788;1941.7;611.347;1.77
789;1961.23;577.654;1.77
790;1971.31;569.842;1.77
791;1971.31;567.888;1.77
792;1951.47;583.514;1.77
793;1924.31;591.571;1.77
794;1938.96;585.467;1.77
795;1981.07;559.832;1.77
796;1998.47;589.618;1.77
797;2008.23;587.42;1.77
798;1998.47;548.112;1.78
799;1968.86;575.701;1.78
800;1941.7;587.42;1.78
801;1953.91;587.42;1.78
802;1976.19;571.795;1.78
803;1981.07;559.832;1.78
804;1981.07;573.748;1.78
805;1956.35;593.524;1.78
806;1914.54;561.785;1.78
807;1904.47;571.795;1.78
808;1941.7;605.243;1.78
809;1961.23;577.654;1.78
810;1976.19;567.888;1.78
811;1973.75;569.842;1.78
812;1953.91;581.561;1.78
813;1921.86;595.477;1.79
814;1936.51;583.514;1.79
815;1981.07;565.935;1.79
816;1998.47;599.384;1.79
817;2010.67;583.514;1.79
818;1998.47;546.159;1.79
819;1966.12;577.654;1.79
820;1936.51;583.514;1.79
821;1956.35;587.42;1.79
822;1973.75;571.795;1.79
823;1978.63;565.935;1.79
824;1978.63;565.935;1.79
825;1953.91;595.477;1.79
826;1919.42;563.738;1.79
827;1906.91;563.738;1.79
828;1938.96;611.347;1.8
829;1963.68;573.748;1.8
830;1973.75;569.842;1.8
831;1973.75;569.842;1.8
832;1951.47;581.561;1.8
833;1924.31;591.571;1.8
834;1938.96;587.42;1.8
835;1978.63;561.785;1.8
836;1998.47;589.618;1.8
837;2008.23;587.42;1.8
838;1998.47;550.066;1.8
839;1966.12;577.654;1.8
840;1938.96;585.467;1.8
841;1953.91;585.467;1.8
842;1973.75;571.795;1.8
843;1983.51;561.785;1.8
844;1981.07;571.795;1.81
845;1956.35;593.524;1.81
846;1916.98;559.832;1.81
847;1909.35;569.842;1.81
848;1941.7;605.243;1.81
849;1963.68;575.701;1.81
850;1976.19;567.888;1.81
851;1973.75;569.842;1.81
852;1956.35;579.608;1.81
853;1926.75;595.477;1.81
854;1941.7;585.467;1.81
855;1983.51;565.935;1.81
856;2000.91;597.43;1.81
857;2010.67;599.384;1.81
858;2005.79;542.009;1.81
859;1968.86;575.701;1.82
860;1941.7;575.701;1.82
861;1958.79;587.42;1.82
862;1978.63;569.842;1.82
863;1985.95;573.748;1.82
864;1983.51;561.785;1.82
865;1958.79;601.337;1.82
866;1919.42;577.654;1.82
867;1909.35;552.019;1.82
868;1944.14;615.253;1.82
869;1966.12;577.654;1.82
870;1976.19;575.701;1.82
871;1976.19;567.888;1.82
872;1951.47;583.514;1.82
873;1926.75;581.561;1.82
874;1938.96;593.524;1.82
875;1981.07;553.972;1.82999
876;1998.47;577.654;1.82999
877;2008.23;599.384;1.82999
878;1998.47;540.056;1.82999
879;1966.12;575.701;1.82999
880;1938.96;577.654;1.82999
881;1953.91;585.467;1.82999
882;1973.75;569.842;1.82999
883;1981.07;569.842;1.82999
884;1981.07;561.785;1.82999
885;1956.35;599.384;1.82999
886;1914.54;573.748;1.82999
887;1902.03;559.832;1.82999
888;1941.7;613.3;1.82999
889;1961.23;579.608;1.82999
890;1971.31;569.842;1.82999
891;1971.31;569.842;1.84
892;1951.47;583.514;1.84
893;1921.86;585.467;1.84
894;1938.96;589.618;1.84
895;1981.07;555.925;1.84
896;1998.47;583.514;1.84
897;2008.23;591.571;1.84
898;2000.91;544.206;1.84
899;1968.86;575.701;1.84
900;1941.7;581.561;1.84
901;1956.35;585.467;1.84
902;1976.19;571.795;1.84
903;1983.51;565.935;1.84
904;1983.51;567.888;1.84
905;1958.79;595.477;1.84
906;1919.42;565.935;1.84
907;1906.91;565.935;1.85
908;1944.14;609.149;1.85
909;1966.12;577.654;1.85
910;1976.19;567.888;1.85
911;1973.75;569.842;1.85
912;1951.47;579.608;1.85
913;1926.75;589.618;1.85
914;1938.96;585.467;1.85
915;1983.51;561.785;1.85
916;1998.47;591.571;1.85
917;2010.67;585.467;1.85
918;2000.91;550.066;1.85
919;1968.86;577.654;1.85
920;1941.7;583.514;1.85
921;1956.35;587.42;1.85
922;1976.19;571.795;1.86
923;1983.51;557.878;1.86
924;1981.07;569.842;1.86
925;1956.35;589.618;1.86
926;1919.42;559.832;1.86
927;1906.91;567.888;1.86
928;1944.14;603.29;1.86
929;1966.12;575.701;1.86
930;1976.19;563.738;1.86
931;1976.19;569.842;1.86
932;1953.91;579.608;1.86
933;1924.31;595.477;1.86
934;1938.96;583.514;1.86
935;1981.07;552.019;1.86
936;1998.47;573.748;1.86
937;2010.67;601.337;1.86
938;1998.47;542.009;1.87
939;1968.86;573.748;1.87
940;1938.96;575.701;1.87
941;1953.91;583.514;1.87
942;1976.19;567.888;1.87
943;1981.07;571.795;1.87
944;1978.63;559.832;1.87
945;1956.35;601.337;1.87
946;1914.54;575.701;1.87
947;1906.91;553.972;1.87
948;1941.7;613.3;1.87
949;1963.68;577.654;1.87
950;1973.75;571.795;1.87
951;1973.75;567.888;1.87
952;1953.91;583.514;1.87
953;1926.75;581.561;1.87
954;1938.96;591.571;1.88
955;1983.51;553.972;1.88
956;2000.91;577.654;1.88
957;2013.12;597.43;1.88
958;2003.35;538.102;1.88
959;1968.86;573.748;1.88
960;1941.7;579.608;1.88
961;1956.35;585.467;1.88
962;1976.19;565.935;1.88
963;1983.51;567.888;1.88
964;1983.51;563.738;1.88
965;1958.79;597.43;1.88
966;1921.86;571.795;1.88
967;1906.91;557.878;1.88
968;1946.59;615.253;1.88
969;1968.86;577.654;1.88
970;1976.19;569.842;1.89
971;1978.63;565.935;1.89
972;1956.35;579.608;1.89
973;1929.19;587.42;1.89
974;1938.96;587.42;1.89
975;1983.51;553.972;1.89
976;2000.91;583.514;1.89
977;2010.67;589.618;1.89
978;2003.35;544.206;1.89
979;1971.31;573.748;1.89
980;1941.7;583.514;1.89
981;1956.35;585.467;1.89
982;1978.63;567.888;1.89
983;1985.95;561.785;1.89
984;1985.95;569.842;1.89
985;1958.79;593.524;1.89
986;1921.86;563.738;1.89999
987;1909.35;565.935;1.89999
988;1946.59;607.196;1.89999
989;1968.86;575.701;1.89999
990;1976.19;567.888;1.89999
991;1978.63;569.842;1.89999
992;1953.91;581.561;1.89999
993;1926.75;591.571;1.89999
994;1938.96;587.42;1.89999
995;1981.07;559.832;1.89999
996;2000.91;593.524;1.89999
997;2010.67;585.467;1.89999
998;2000.91;548.112;1.89999
999;1968.86;575.701;1.89999
1000;1938.96;583.514;1.89999
1001;1953.91;585.467;1.91
1002;1976.19;571.795;1.91
1003;1981.07;555.925;1.91
1004;1981.07;571.795;1.91
1005;1958.79;593.524;1.91
1006;1919.42;557.878;1.91
1007;1906.91;567.888;1.91
1008;1941.7;603.29;1.91
1009;1963.68;577.654;1.91
1010;1973.75;565.935;1.91
1011;1973.75;567.888;1.91
1012;1953.91;577.654;1.91
1013;1926.75;597.43;1.91
1014;1941.7;589.618;1.91
1015;1981.07;555.925;1.91
1016;2000.91;583.514;1.91
1017;2013.12;589.618;1.92
1018;2003.35;544.206;1.92
1019;1971.31;575.701;1.92
1020;1941.7;581.561;1.92
1021;1958.79;583.514;1.92
1022;1978.63;569.842;1.92
1023;1985.95;557.878;1.92
1024;1981.07;567.888;1.92
1025;1958.79;591.571;1.92
1026;1924.31;563.738;1.92
1027;1909.35;561.785;1.92
1028;1946.59;609.149;1.92
1029;1966.12;575.701;1.92
1030;1978.63;569.842;1.92
1031;1981.07;567.888;1.92
1032;1958.79;579.608;1.92
1033;1929.19;593.524;1.92
1034;1941.7;583.514;1.93
1035;1985.95;559.832;1.93
1036;2003.35;591.571;1.93
1037;2015.56;585.467;1.93
1038;2005.79;550.066;1.93
1039;1976.19;577.654;1.93
1040;1946.59;583.514;1.93
1041;1956.35;585.467;1.93
1042;1981.07;569.842;1.93
1043;1988.4;555.925;1.93
1044;1985.95;573.748;1.93
1045;1963.68;589.618;1.93
1046;1924.31;555.925;1.93
1047;1911.79;569.842;1.93
1048;1949.03;603.29;1.93
1049;1971.31;575.701;1.93
1050;1978.63;565.935;1.93
1051;1981.07;567.888;1.93
1052;1961.23;579.608;1.93999
1053;1931.63;579.608;1.93999
1054;1941.7;593.524;1.93999
1055;1985.95;550.066;1.93999
1056;2003.35;573.748;1.93999
1057;2015.56;599.384;1.93999
1058;2005.79;540.056;1.93999
1059;1971.31;571.795;1.93999
1060;1944.14;573.748;1.93999
1061;1956.35;585.467;1.93999
1062;1981.07;565.935;1.93999
1063;1985.95;569.842;1.93999
1064;1988.4;559.832;1.93999
1065;1961.23;601.337;1.93999
1066;1921.86;573.748;1.93999
1067;1909.35;552.019;1.93999
1068;1946.59;617.206;1.93999
1069;1966.12;577.654;1.95
1070;1978.63;573.748;1.95
1071;1978.63;567.888;1.95
1072;1956.35;583.514;1.95
1073;1929.19;581.561;1.95
1074;1944.14;593.524;1.95
1075;1985.95;550.066;1.95
1076;2003.35;579.608;1.95
1077;2013.12;595.477;1.95
1078;2005.79;538.102;1.95
1079;1973.75;573.748;1.95
1080;1941.7;579.608;1.95
1081;1958.79;587.42;1.95
1082;1981.07;567.888;1.95
1083;1990.84;565.935;1.95
1084;1985.95;563.738;1.95
1085;1963.68;599.384;1.95
1086;1926.75;571.795;1.96
1087;1911.79;557.878;1.96
1088;1949.03;611.347;1.96
1089;1971.31;573.748;1.96
1090;1981.07;569.842;1.96
1091;1983.51;565.935;1.96
1092;1961.23;583.514;1.96
1093;1934.07;585.467;1.96
1094;1944.14;585.467;1.96
1095;1988.4;553.972;1.96
1096;2008.23;583.514;1.96
1097;2018;591.571;1.96
1098;2010.67;546.159;1.96
1099;1978.63;575.701;1.96
1100;1949.03;581.561;1.96
1101;1963.68;585.467;1.96
1102;1983.51;569.842;1.96
1103;1988.4;561.785;1.97
1104;1988.4;567.888;1.97
1105;1966.12;593.524;1.97
1106;1929.19;563.738;1.97
1107;1911.79;561.785;1.97
1108;1949.03;609.149;1.97
1109;1971.31;573.748;1.97
1110;1981.07;565.935;1.97
1111;1981.07;567.888;1.97
1112;1958.79;579.608;1.97
1113;1931.63;591.571;1.97
1114;1944.14;585.467;1.97
1115;1990.84;559.832;1.97
1116;2005.79;593.524;1.97
1117;2015.56;585.467;1.97
1118;2000.91;550.066;1.97
1119;1966.12;575.701;1.98
1120;1944.14;585.467;1.98
1121;1963.68;585.467;1.98
1122;1981.07;569.842;1.98
1123;1988.4;555.925;1.98
1124;1983.51;573.748;1.98
1125;1953.91;589.618;1.98
1126;1916.98;557.878;1.98
1127;1914.54;571.795;1.98
1128;1953.91;599.384;1.98
1129;1971.31;575.701;1.98
1130;1981.07;565.935;1.98
1131;1978.63;567.888;1.98
1132;1951.47;585.467;1.98
1133;1929.19;577.654;1.98
1134;1951.47;595.477;1.98
1135;1990.84;552.019;1.99
1136;2008.23;573.748;1.99
1137;2015.56;601.337;1.99
1138;2003.35;540.056;1.99
1139;1968.86;573.748;1.99
1140;1946.59;575.701;1.99
1141;1968.86;587.42;1.99
1142;1985.95;565.935;1.99
1143;1990.84;569.842;1.99
1144;1988.4;559.832;1.99
1145;1963.68;601.337;1.99
1146;1921.86;575.701;1.99
1147;1919.42;553.972;1.99
1148;1958.79;615.253;1.99
1149;1978.63;575.701;1.99
1150;1985.95;571.795;1.99
1151;1983.51;565.935;2
1152;1961.23;583.514;2
1153;1934.07;581.561;2
1154;1958.79;591.571;2
1155;1996.03;552.019;2
1156;2013.12;579.608;2
1157;2020.44;595.477;2
1158;2005.79;538.102;2
1159;1973.75;573.748;2
1160;1951.47;577.654;2
1161;1971.31;583.514;2
1162;1988.4;569.842;2
1163;1996.03;563.738;2
1164;1993.28;565.935;2
1165;1966.12;597.43;2
1166;1926.75;569.842;2
1167;1921.86;555.925;2.00999
1168;1961.23;613.3;2.00999
1169;1978.63;575.701;2.00999
1170;1988.4;567.888;2.00999
1171;1983.51;567.888;2.00999
1172;1958.79;579.608;2.00999
1173;1934.07;587.42;2.00999
1174;1958.79;589.618;2.00999
1175;1993.28;555.925;2.00999
1176;2013.12;583.514;2.00999
1177;2020.44;591.571;2.00999
1178;2005.79;546.159;2.00999
1179;1971.31;571.795;2.00999
1180;1949.03;581.561;2.00999
1181;1968.86;583.514;2.00999
1182;1985.95;571.795;2.00999
1183;1990.84;557.878;2.02
1184;1990.84;567.888;2.02
1185;1961.23;591.571;2.02
1186;1924.31;561.785;2.02
1187;1919.42;565.935;2.02
1188;1958.79;605.243;2.02
1189;1978.63;573.748;2.02
1190;1985.95;565.935;2.02
1191;1983.51;567.888;2.02
1192;1958.79;577.654;2.02
1193;1934.07;593.524;2.02
1194;1958.79;583.514;2.02
1195;1996.03;559.832;2.02
1196;2015.56;589.618;2.02
1197;2023.19;583.514;2.03
1198;2010.67;548.112;2.03
1199;1973.75;573.748;2.03
1200;1953.91;583.514;2.03
1201;1973.75;583.514;2.03
1202;1988.4;569.842;2.03
1203;1998.47;555.925;2.03
1204;1993.28;573.748;2.03
1205;1966.12;587.42;2.03
1206;1924.31;555.925;2.03
1207;1924.31;569.842;2.03
1208;1966.12;601.337;2.03
1209;1981.07;573.748;2.03
1210;1993.28;565.935;2.03
1211;1988.4;565.935;2.03
1212;1966.12;577.654;2.03
1213;1941.7;583.514;2.04
1214;1966.12;585.467;2.04
1215;2003.35;555.925;2.04
1216;2020.44;585.467;2.04
1217;2030.51;589.618;2.04
1218;2015.56;546.159;2.04
1219;1981.07;573.748;2.04
1220;1956.35;581.561;2.04
1221;1978.63;583.514;2.04
1222;1993.28;567.888;2.04
1223;2000.91;559.832;2.04
1224;1993.28;565.935;2.04
1225;1968.86;589.618;2.04
1226;1931.63;559.832;2.04
1227;1926.75;563.738;2.05
1228;1968.86;605.243;2.05
1229;1985.95;573.748;2.05
1230;1990.84;563.738;2.05
1231;1988.4;567.888;2.05
1232;1966.12;579.608;2.05
1233;1938.96;593.524;2.05
1234;1963.68;583.514;2.05
1235;2003.35;561.785;2.05
1236;2018;593.524;2.05
1237;2025.63;581.561;2.05
1238;2010.67;552.019;2.05
1239;1978.63;571.795;2.05
1240;1953.91;583.514;2.05
1241;1976.19;585.467;2.05
1242;1993.28;571.795;2.06
1243;2000.91;553.972;2.06
1244;1996.03;571.795;2.06
1245;1966.12;585.467;2.06
1246;1929.19;555.925;2.06
1247;1926.75;571.795;2.06
1248;1963.68;609.149;2.06
1249;1983.51;577.654;2.06
1250;1990.84;573.748;2.06
1251;1988.4;563.738;2.06
1252;1963.68;583.514;2.06
1253;1938.96;577.654;2.06
1254;1963.68;595.477;2.06
1255;2000.91;548.112;2.06
1256;2020.44;573.748;2.06
1257;2028.07;599.384;2.07
1258;2015.56;540.056;2.07
1259;1981.07;571.795;2.07
1260;1958.79;575.701;2.07
1261;1981.07;583.514;2.07
1262;1998.47;567.888;2.07
1263;2003.35;567.888;2.07
1264;1998.47;561.785;2.07
1265;1971.31;599.384;2.07
1266;1936.51;571.795;2.07
1267;1931.63;553.972;2.07
1268;1973.75;613.3;2.07
1269;1990.84;575.701;2.07
1270;2000.91;571.795;2.07
1271;1996.03;565.935;2.07
1272;1971.31;581.561;2.07999
1273;1946.59;583.514;2.07999
1274;1971.31;589.618;2.07999
1275;2010.67;550.066;2.07999
1276;2025.63;579.608;2.07999
1277;2032.95;593.524;2.07999
1278;2020.44;538.102;2.07999
1279;1988.4;571.795;2.07999
1280;1961.23;577.654;2.07999
1281;1983.51;583.514;2.07999
1282;2003.35;565.935;2.07999
1283;2005.79;561.785;2.07999
1284;2003.35;561.785;2.07999
1285;1976.19;595.477;2.07999
1286;1936.51;567.888;2.07999
1287;1931.63;557.878;2.09
1288;1976.19;613.3;2.09
1289;1993.28;573.748;2.09
1290;2000.91;567.888;2.09
1291;1996.03;565.935;2.09
1292;1973.75;579.608;2.09
1293;1949.03;585.467;2.09
1294;1968.86;587.42;2.09
1295;2008.23;555.925;2.09
1296;2023.19;583.514;2.09
1297;2032.95;589.618;2.09
1298;2020.44;546.159;2.09
1299;1985.95;571.795;2.09
1300;1961.23;579.608;2.09
1301;1983.51;583.514;2.1
1302;1998.47;567.888;2.1
1303;2005.79;555.925;2.1
1304;2003.35;567.888;2.1
1305;1973.75;589.618;2.1
1306;1934.07;559.832;2.1
1307;1931.63;563.738;2.1
1308;1971.31;603.29;2.1
1309;1990.84;573.748;2.1
1310;1998.47;563.738;2.1
1311;1996.03;567.888;2.1
1312;1971.31;579.608;2.1
1313;1949.03;591.571;2.1
1314;1971.31;583.514;2.1
1315;2008.23;559.832;2.1
1316;2025.63;591.571;2.11
1317;2032.95;583.514;2.11
1318;2020.44;550.066;2.11
1319;1985.95;573.748;2.11
1320;1963.68;583.514;2.11
1321;1985.95;583.514;2.11
1322;2003.35;569.842;2.11
1323;2013.12;553.972;2.11
1324;2008.23;571.795;2.11
1325;1981.07;585.467;2.11
1326;1938.96;575.701;2.11
1327;1938.96;550.066;2.11
1328;1978.63;609.149;2.11
1329;1996.03;575.701;2.11
1330;2005.79;573.748;2.12
1331;2005.79;563.738;2.12
1332;1978.63;585.467;2.12
1333;1953.91;575.701;2.12
1334;1976.19;591.571;2.12
1335;2015.56;548.112;2.12
1336;2032.95;573.748;2.12
1337;2040.28;597.43;2.12
1338;2028.07;538.102;2.12
1339;1993.28;571.795;2.12
1340;1968.86;573.748;2.12
1341;1988.4;583.514;2.12
1342;2008.23;565.935;2.12
1343;2013.12;567.888;2.12
1344;2008.23;557.878;2.12
1345;1981.07;599.384;2.13
1346;1941.7;571.795;2.13
1347;1938.96;553.972;2.13
1348;1976.19;613.3;2.13
1349;1996.03;573.748;2.13
1350;2005.79;567.888;2.13
1351;2003.35;565.935;2.13
1352;1978.63;581.561;2.13
1353;1951.47;581.561;2.13
1354;1973.75;589.618;2.13
1355;2015.56;552.019;2.13
1356;2032.95;577.654;2.13
1357;2042.72;591.571;2.13
1358;2025.63;540.056;2.13
1359;1993.28;573.748;2.13
1360;1968.86;579.608;2.14
1361;1988.4;581.561;2.14
1362;2008.23;569.842;2.14
1363;2013.12;561.785;2.14
1364;2008.23;565.935;2.14
1365;1981.07;597.43;2.14
1366;1941.7;567.888;2.14
1367;1938.96;559.832;2.14
1368;1976.19;611.347;2.14
1369;1996.03;575.701;2.14
1370;2005.79;567.888;2.14
1371;2003.35;565.935;2.14
1372;1981.07;577.654;2.14
1373;1951.47;587.42;2.14
1374;1978.63;585.467;2.14
1375;2015.56;555.925;2.14999
1376;2035.39;583.514;2.14999
1377;2042.72;587.42;2.14999
1378;2028.07;544.206;2.14999
1379;1996.03;575.701;2.14999
1380;1971.31;583.514;2.14999
1381;1990.84;581.561;2.14999
1382;2013.12;571.795;2.14999
1383;2018;557.878;2.14999
1384;2015.56;567.888;2.14999
1385;1983.51;591.571;2.14999
1386;1944.14;557.878;2.14999
1387;1941.7;567.888;2.14999
1388;1983.51;603.29;2.14999
1389;2003.35;575.701;2.14999
1390;2013.12;563.738;2.14999
1391;2010.67;565.935;2.16
1392;1985.95;579.608;2.16
1393;1961.23;593.524;2.16
1394;1981.07;581.561;2.16
1395;2023.19;561.785;2.16
1396;2040.28;593.524;2.16
1397;2047.6;579.608;2.16
1398;2032.95;550.066;2.16
1399;2000.91;571.795;2.16
1400;1976.19;583.514;2.16
1401;1998.47;585.467;2.16
1402;2015.56;567.888;2.16
1403;2023.19;552.019;2.16
1404;2018;563.738;2.16
1405;1990.84;593.524;2.16
1406;1951.47;565.935;2.17
1407;1949.03;559.832;2.17
1408;1988.4;609.149;2.17
1409;2008.23;573.748;2.17
1410;2015.56;565.935;2.17
1411;2015.56;565.935;2.17
1412;1988.4;577.654;2.17
1413;1963.68;587.42;2.17
1414;1985.95;585.467;2.17
1415;2028.07;555.925;2.17
1416;2040.28;585.467;2.17
1417;2047.6;585.467;2.17
1418;2037.84;546.159;2.17
1419;2003.35;573.748;2.17
1420;1976.19;581.561;2.17
1421;1996.03;583.514;2.18
1422;2015.56;565.935;2.18
1423;2023.19;555.925;2.18
1424;2018;567.888;2.18
1425;1990.84;587.42;2.18
1426;1951.47;559.832;2.18
1427;1946.59;567.888;2.18
1428;1988.4;603.29;2.18
1429;2005.79;571.795;2.18
1430;2018;563.738;2.18
1431;2013.12;565.935;2.18
1432;1988.4;575.701;2.18
1433;1966.12;593.524;2.18
1434;1988.4;579.608;2.18
1435;2028.07;559.832;2.18
1436;2047.6;591.571;2.18
1437;2055.23;581.561;2.18999
1438;2042.72;548.112;2.18999
1439;2005.79;571.795;2.18999
1440;1983.51;581.561;2.18999
1441;2003.35;581.561;2.18999
1442;2025.63;567.888;2.18999
1443;2030.51;569.842;2.18999
1444;2025.63;557.878;2.18999
1445;1998.47;601.337;2.18999
1446;1961.23;575.701;2.18999
1447;1956.35;548.112;2.18999
1448;1998.47;611.347;2.18999
1449;2015.56;575.701;2.18999
1450;2028.07;573.748;2.18999
1451;2023.19;565.935;2.18999
1452;1998.47;581.561;2.18999
1453;1971.31;577.654;2.2
1454;1996.03;591.571;2.2
1455;2035.39;550.066;2.2
1456;2055.23;575.701;2.2
1457;2062.56;593.524;2.2
1458;2047.6;538.102;2.2
1459;2015.56;573.748;2.2
1460;1988.4;575.701;2.2
1461;2010.67;581.561;2.2
1462;2030.51;565.935;2.2
1463;2035.39;567.888;2.2
1464;2032.95;559.832;2.2
1465;2003.35;601.337;2.2
1466;1963.68;567.888;2.2
1467;1958.79;555.925;2.2
1468;2000.91;611.347;2.21
1469;2018;575.701;2.21
1470;2030.51;567.888;2.21
1471;2028.07;563.738;2.21
1472;2003.35;577.654;2.21
1473;1973.75;581.561;2.21
1474;1998.47;587.42;2.21
1475;2040.28;550.066;2.21
1476;2055.23;579.608;2.21
1477;2062.56;591.571;2.21
1478;2052.79;540.056;2.21
1479;2018;571.795;2.21
1480;1990.84;575.701;2.21
1481;2013.12;579.608;2.21
1482;2030.51;567.888;2.21
1483;2037.84;559.832;2.22
1484;2032.95;563.738;2.22
1485;2005.79;593.524;2.22
1486;1966.12;565.935;2.22
1487;1961.23;557.878;2.22
1488;2003.35;609.149;2.22
1489;2023.19;573.748;2.22
1490;2032.95;563.738;2.22
1491;2028.07;563.738;2.22
1492;2005.79;577.654;2.22
1493;1981.07;587.42;2.22
1494;2000.91;585.467;2.22
1495;2042.72;555.925;2.22
1496;2060.11;585.467;2.22
1497;2067.44;583.514;2.23
1498;2057.67;544.206;2.23
1499;2023.19;573.748;2.23
1500;2000.91;581.561;2.23
1501;2018;581.561;2.23
1502;2040.28;567.888;2.23
1503;2047.6;553.972;2.23
1504;2045.16;567.888;2.23
1505;2015.56;589.618;2.23
1506;1978.63;557.878;2.23
1507;1971.31;567.888;2.23
1508;2015.56;603.29;2.23
1509;2032.95;573.748;2.23
1510;2045.16;563.738;2.23
1511;2040.28;565.935;2.23
1512;2015.56;575.701;2.24
1513;1988.4;595.477;2.24
1514;2013.12;579.608;2.24
1515;2055.23;559.832;2.24
1516;2072.32;593.524;2.24
1517;2079.95;579.608;2.24
1518;2067.44;550.066;2.24
1519;2032.95;569.842;2.24
1520;2010.67;583.514;2.24
1521;2030.51;581.561;2.24
1522;2050.35;563.738;2.24
1523;2057.67;569.842;2.24
1524;2052.79;557.878;2.24
1525;2025.63;599.384;2.24
1526;1983.51;575.701;2.25
1527;1978.63;548.112;2.25
1528;2023.19;609.149;2.25
1529;2042.72;575.701;2.25
1530;2050.35;569.842;2.25
1531;2047.6;563.738;2.25
1532;2023.19;579.608;2.25
1533;1993.28;577.654;2.25
1534;2015.56;589.618;2.25
1535;2060.11;550.066;2.25
1536;2077.51;571.795;2.25
1537;2084.83;595.477;2.25
1538;2072.32;538.102;2.25
1539;2037.84;571.795;2.25
1540;2010.67;575.701;2.25999
1541;2032.95;579.608;2.25999
1542;2052.79;565.935;2.25999
1543;2062.56;567.888;2.25999
1544;2055.23;557.878;2.25999
1545;2028.07;597.43;2.25999
1546;1988.4;567.888;2.25999
1547;1981.07;555.925;2.25999
1548;2025.63;613.3;2.25999
1549;2045.16;571.795;2.25999
1550;2055.23;565.935;2.25999
1551;2050.35;563.738;2.25999
1552;2028.07;579.608;2.25999
1553;2000.91;581.561;2.25999
1554;2025.63;585.467;2.25999
1555;2065;550.066;2.27
1556;2084.83;579.608;2.27
1557;2094.6;589.618;2.27
1558;2079.95;540.056;2.27
1559;2047.6;571.795;2.27
1560;2020.44;579.608;2.27
1561;2042.72;581.561;2.27
1562;2065;567.888;2.27
1563;2067.44;561.785;2.27
1564;2065;561.785;2.27
1565;2037.84;593.524;2.27
1566;1998.47;563.738;2.27
1567;1988.4;559.832;2.27
1568;2035.39;607.196;2.28
1569;2055.23;573.748;2.28
1570;2062.56;563.738;2.28
1571;2060.11;565.935;2.28
1572;2035.39;575.701;2.28
1573;2008.23;589.618;2.28
1574;2032.95;581.561;2.28
1575;2074.76;553.972;2.28
1576;2092.16;587.42;2.28
1577;2101.92;585.467;2.28
1578;2087.28;546.159;2.28
1579;2055.23;571.795;2.28
1580;2030.51;581.561;2.28
1581;2050.35;579.608;2.28
1582;2069.88;567.888;2.29
1583;2074.76;553.972;2.29
1584;2069.88;565.935;2.29
1585;2042.72;587.42;2.29
1586;2003.35;555.925;2.29
1587;1996.03;563.738;2.29
1588;2040.28;601.337;2.29
1589;2060.11;575.701;2.29
1590;2069.88;563.738;2.29
1591;2067.44;567.888;2.29
1592;2040.28;575.701;2.29
1593;2013.12;593.524;2.29
1594;2035.39;581.561;2.29
1595;2077.51;561.785;2.3
1596;2097.04;593.524;2.3
1597;2107.11;577.654;2.3
1598;2092.16;540.056;2.3
1599;2055.23;571.795;2.3
1600;2030.51;577.654;2.3
1601;2050.35;581.561;2.3
1602;2072.32;565.935;2.3
1603;2077.51;557.878;2.3
1604;2074.76;563.738;2.3
1605;2045.16;589.618;2.3
1606;2005.79;559.832;2.3
1607;2000.91;561.785;2.3
1608;2040.28;605.243;2.3
1609;2062.56;571.795;2.31
1610;2069.88;565.935;2.31
1611;2069.88;563.738;2.31
1612;2042.72;577.654;2.31
1613;2015.56;585.467;2.31
1614;2037.84;583.514;2.31
1615;2082.39;555.925;2.31
1616;2101.92;587.42;2.31
1617;2109.55;581.561;2.31
1618;2097.04;546.159;2.31
1619;2062.56;569.842;2.31
1620;2032.95;579.608;2.31
1621;2060.11;583.514;2.31
1622;2079.95;567.888;2.32
1623;2084.83;553.972;2.32
1624;2082.39;565.935;2.32
1625;2055.23;587.42;2.32
1626;2013.12;553.972;2.32
1627;2008.23;563.738;2.32
1628;2050.35;601.337;2.32
1629;2072.32;573.748;2.32
1630;2082.39;563.738;2.32
1631;2077.51;563.738;2.32
1632;2055.23;575.701;2.32
1633;2028.07;593.524;2.32
1634;2050.35;577.654;2.32
1635;2094.6;559.832;2.32
1636;2112;595.477;2.32999
1637;2121.76;595.477;2.32999
1638;2107.11;538.102;2.32999
1639;2072.32;569.842;2.32999
1640;2045.16;571.795;2.32999
1641;2067.44;579.608;2.32999
1642;2087.28;563.738;2.32999
1643;2094.6;567.888;2.32999
1644;2089.72;553.972;2.32999
1645;2060.11;599.384;2.32999
1646;2020.44;571.795;2.32999
1647;2013.12;550.066;2.32999
1648;2055.23;609.149;2.32999
1649;2077.51;571.795;2.34
1650;2087.28;569.842;2.34
1651;2084.83;563.738;2.34
1652;2060.11;579.608;2.34
1653;2032.95;575.701;2.34
1654;2052.79;587.42;2.34
1655;2097.04;546.159;2.34
1656;2114.44;573.748;2.34
1657;2121.76;593.524;2.34
1658;2112;534.196;2.34
1659;2074.76;567.888;2.34
1660;2047.6;573.748;2.34
1661;2067.44;581.561;2.35
1662;2092.16;563.738;2.35
1663;2097.04;563.738;2.35
1664;2094.6;557.878;2.35
1665;2065;595.477;2.35
1666;2025.63;565.935;2.35
1667;2018;555.925;2.35
1668;2060.11;611.347;2.35
1669;2082.39;571.795;2.35
1670;2092.16;563.738;2.35
1671;2089.72;565.935;2.35
1672;2062.56;575.701;2.35
1673;2037.84;581.561;2.35
1674;2055.23;583.514;2.36
1675;2099.48;550.066;2.36
1676;2119.32;579.608;2.36
1677;2131.83;583.514;2.36
1678;2119.32;536.149;2.36
