<WeldAnalyseData xmlns:i="http:www.w3.org/2001/XMLSchema-instance">
<WeldParameter>
<TimeStamp>DT#2023-12-05-14:10:14</TimeStamp>
<Generator>SG-22-10000</Generator>
<GenFreq>20</GenFreq>
<MaxForce>8000</MaxForce>
<MaxPower>10000</MaxPower>
<RunupPressure>1.5</RunupPressure>
<RunupDist>10</RunupDist>
<RunPress>0.8</RunPress>
<ShakeDelay>0.03</ShakeDelay>
<ShakeTime>0.3</ShakeTime>
<RunBackPress1>6</RunBackPress1>
<RunBackPress2>2</RunBackPress2>
<RunBackDist>1</RunBackDist>
<TrigValue>500</TrigValue>
<TrigModeUnit>W</TrigModeUnit>
<WeldModeUnit>Ws</WeldModeUnit>
<PressNr>0</PressNr>
<MaxLoss>1500</MaxLoss>
</WeldParameter>
<WeldSets>
<WeldSet>
<PressRiseTime>0</PressRiseTime>
<RunPressure>1</RunPressure>
<Amplitude>86</Amplitude>
<WeldMode>3270</WeldMode>
</WeldSet>
</WeldSets>
<WeldValue>
<WeldNr>2401</WeldNr>
<RecipeName>RickStyle</RecipeName>
<WeldTime>1779</WeldTime>
<DistDiff>3.47</DistDiff>
<DistAbs>78.32</DistAbs>
<Energy>3271.75</Energy>
<MaxPower>2076.77</MaxPower>
<CycleTime>6080</CycleTime>
<TrigForce>502.701</TrigForce>
<TrigDist>74.85</TrigDist>
<RunSpeed>68.3562</RunSpeed>
<MaxForce>603.29</MaxForce>
<LossPower>246.609</LossPower>
</WeldValue>
</WeldAnalyseData>
#CSV-START#
ms;Power[W];Force[N];Distance[mm]
1;0;0;0
2;0;502.701;0
3;0;498.795;0
4;0;500.748;0
5;0;502.701;0
6;0;504.654;0
7;0;500.748;0
8;0;490.738;0
9;0;470.962;0.0100021
10;5.16907;449.232;0.0200043
11;24.7009;437.513;0.0400009
12;37.2135;421.644;0.0600052
13;54.6091;419.691;0.0800018
14;81.7705;413.831;0.0999985
15;116.256;419.691;0.120003
16;158.067;396.008;0.139999
17;195.299;399.915;0.160004
18;224.902;399.915;0.18
19;249.622;388.195;0.200005
20;266.713;394.055;0.220001
21;286.55;392.102;0.239998
22;308.828;397.961;0.260002
23;331.107;390.149;0.279999
24;353.385;392.102;0.300003
25;375.359;382.092;0.310005
26;390.313;407.971;0.330002
27;400.079;396.008;0.349998
28;410.15;388.195;0.360001
29;432.123;411.878;0.380005
30;447.077;403.821;0.389999
31;456.843;403.821;0.410004
32;466.914;397.961;0.419998
33;471.797;411.878;0.43
34;474.239;407.971;0.440002
35;479.122;419.691;0.459999
36;496.517;392.102;0.470001
37;506.283;405.774;0.489998
38;511.166;413.831;0.5
39;513.607;392.102;0.510002
40;513.607;403.821;0.529999
41;508.724;403.821;0.540001
42;508.724;413.831;0.550003
43;513.607;403.821;0.57
44;516.049;405.774;0.580002
45;521.237;394.055;0.590004
46;521.237;421.644;0.599998
47;516.049;409.925;0.610001
48;511.166;401.868;0.630005
49;523.679;425.55;0.639999
50;533.444;409.925;0.650002
51;535.886;413.831;0.660004
52;543.21;401.868;0.68
53;545.957;415.784;0.690002
54;540.769;413.831;0.700005
55;548.398;427.503;0.720001
56;563.047;399.915;0.730003
57;567.93;415.784;0.739998
58;575.56;425.55;0.75
59;575.56;405.774;0.770004
60;570.372;419.691;0.779999
61;560.606;421.644;0.790001
62;563.047;429.456;0.800003
63;563.047;419.691;0.810005
64;563.047;423.597;0.830002
65;560.606;411.878;0.840004
66;555.723;441.42;0.849998
67;550.84;427.503;0.860001
68;543.21;421.644;0.870003
69;555.723;441.42;0.880005
70;565.489;429.456;0.889999
71;573.119;431.654;0.910004
72;575.56;423.597;0.919998
73;575.56;435.56;0.93
74;578.001;433.607;0.940002
75;582.884;445.326;0.959999
76;600.28;423.597;0.970001
77;614.929;433.607;0.980003
78;619.812;439.467;0.989998
79;624.695;425.55;1.01
80;622.253;435.56;1.02
81;619.812;433.607;1.03
82;624.695;443.373;1.05
83;629.883;433.607;1.06001
84;637.207;435.56;1.08
85;642.09;423.597;1.09
86;644.532;451.186;1.1
87;642.09;437.513;1.12
88;639.649;429.456;1.13
89;657.044;453.383;1.15
90;671.693;437.513;1.16
91;684.206;437.513;1.18
92;689.089;425.55;1.19
93;696.413;441.42;1.21
94;701.296;439.467;1.22
95;711.367;453.383;1.23
96;730.899;425.55;1.25
97;750.736;441.42;1.26
98;758.061;451.186;1.28
99;760.502;433.607;1.29
100;760.502;443.373;1.3
101;753.178;443.373;1.32
102;753.178;455.336;1.33
103;758.061;445.326;1.34
104;765.69;447.279;1.35
105;770.573;437.513;1.37
106;770.573;463.149;1.38
107;760.502;451.186;1.39
108;755.619;443.373;1.4
109;775.456;463.149;1.41
110;792.852;451.186;1.42
111;800.176;451.186;1.44
112;809.942;443.373;1.45
113;814.825;451.186;1.46
114;822.455;453.383;1.47
115;832.221;463.149;1.48
116;861.824;439.467;1.5
117;879.219;449.232;1.51
118;893.868;463.149;1.52
119;903.939;441.42;1.53
120;903.939;453.383;1.54
121;899.056;451.186;1.55
122;906.381;463.149;1.56001
123;921.03;443.373;1.57
124;935.984;451.186;1.58
125;945.75;437.513;1.59
126;948.191;475.112;1.6
127;938.425;459.243;1.61
128;935.984;445.326;1.62
129;960.704;470.962;1.63
130;980.541;457.289;1.64
131;995.189;461.196;1.65
132;1007.7;447.279;1.66
133;1015.03;465.102;1.67
134;1017.47;459.243;1.68
135;1034.86;475.112;1.69
136;1064.47;439.467;1.7
137;1081.56;459.243;1.71
138;1096.51;472.915;1.72
139;1103.84;445.326;1.73
140;1101.39;463.149;1.73
141;1094.07;457.289;1.74
142;1101.39;470.962;1.75
143;1121.23;455.336;1.76
144;1133.44;463.149;1.77
145;1140.76;451.186;1.77
146;1143.2;488.784;1.78
147;1128.56;467.055;1.79
148;1128.56;459.243;1.8
149;1153.28;488.784;1.81001
150;1173.11;467.055;1.81001
151;1187.76;470.962;1.82
152;1200.27;461.196;1.83
153;1205.16;480.972;1.83
154;1205.16;472.915;1.84
155;1219.81;488.784;1.85
156;1257.04;453.383;1.85
157;1279.01;475.112;1.86
158;1296.41;482.925;1.87
159;1308.92;457.289;1.87
160;1301.29;477.065;1.88
161;1291.52;477.065;1.89
162;1298.85;486.831;1.89
163;1321.13;469.008;1.9
164;1330.89;475.112;1.9
165;1340.96;465.102;1.91
166;1340.96;500.748;1.92
167;1323.57;479.019;1.92
168;1321.13;475.112;1.93
169;1350.73;500.748;1.94
170;1370.57;482.925;1.94
171;1387.66;477.065;1.95
172;1397.73;477.065;1.95
173;1397.73;492.691;1.96
174;1390.4;492.691;1.97
175;1405.05;498.795;1.97
176;1441.98;470.962;1.98
177;1459.38;494.644;1.98
178;1474.33;492.691;1.99
179;1476.77;475.112;2
180;1466.7;486.831;2
181;1452.05;486.831;2.01
182;1461.82;502.701;2.01
183;1481.65;479.019;2.02
184;1488.98;492.691;2.02
185;1496.3;470.962;2.03
186;1488.98;520.524;2.03
187;1461.82;496.597;2.04
188;1459.38;482.925;2.04
189;1488.98;512.467;2.05
190;1508.82;496.597;2.05
191;1521.02;498.795;2.06001
192;1533.54;488.784;2.06001
193;1533.54;510.514;2.07
194;1523.46;498.795;2.07
195;1538.42;518.326;2.07
196;1577.79;475.112;2.08
197;1600.07;500.748;2.08
198;1615.02;512.467;2.09
199;1615.02;482.925;2.09
200;1600.07;504.654;2.1
201;1582.98;502.701;2.1
202;1590.3;514.42;2.1
203;1610.14;492.691;2.11
204;1617.46;502.701;2.11
205;1619.9;484.878;2.11
206;1607.7;532.243;2.12
207;1582.98;508.56;2.12
208;1572.9;500.748;2.13
209;1604.95;530.29;2.13
210;1624.79;510.514;2.13
211;1634.86;506.607;2.14
212;1642.18;500.748;2.14
213;1634.86;522.477;2.15
214;1622.34;516.373;2.15
215;1637.3;530.29;2.15
216;1674.23;488.784;2.16
217;1694.06;518.326;2.16
218;1708.71;522.477;2.16
219;1706.27;494.644;2.17
220;1686.43;514.42;2.17
221;1666.9;520.524;2.17
222;1674.23;524.43;2.18
223;1691.62;506.607;2.18
224;1696.5;510.514;2.18
225;1698.95;506.607;2.19
226;1683.99;538.102;2.19
227;1656.83;516.373;2.19
228;1649.51;512.467;2.2
229;1679.11;538.102;2.2
230;1701.39;518.326;2.2
231;1711.15;510.514;2.21
232;1716.34;514.42;2.21
233;1708.71;530.29;2.21
234;1694.06;528.336;2.22
235;1708.71;534.196;2.22
236;1750.83;502.701;2.22
237;1767.92;532.243;2.23
238;1780.43;526.383;2.23
239;1780.43;512.467;2.23
240;1755.71;524.43;2.24
241;1733.43;528.336;2.24
242;1743.5;536.149;2.24
243;1760.59;514.42;2.24
244;1767.92;520.524;2.25
245;1765.48;510.514;2.25
246;1748.39;550.066;2.25
247;1716.34;526.383;2.26
248;1706.27;520.524;2.26
249;1740.76;550.066;2.26
250;1763.04;526.383;2.27
251;1773.11;522.477;2.27
252;1780.43;522.477;2.27
253;1767.92;536.149;2.27
254;1748.39;536.149;2.28
255;1765.48;544.206;2.28
256;1807.59;508.56;2.28
257;1824.68;536.149;2.29
258;1834.75;536.149;2.29
259;1839.64;516.373;2.29
260;1817.36;532.243;2.29
261;1792.64;538.102;2.3
262;1785.31;540.056;2.3
263;1805.15;522.477;2.3
264;1810.03;522.477;2.3
265;1814.92;522.477;2.31001
266;1802.71;553.972;2.31001
267;1773.11;526.383;2.31001
268;1745.94;532.243;2.31001
269;1767.92;548.112;2.32
270;1800.27;534.196;2.32
271;1810.03;522.477;2.32
272;1817.36;522.477;2.32
273;1812.48;550.066;2.33
274;1792.64;536.149;2.33
275;1787.76;557.878;2.33
276;1829.87;514.42;2.33
277;1854.59;532.243;2.34
278;1871.68;548.112;2.34
279;1871.68;522.477;2.34
280;1854.59;536.149;2.34
281;1824.68;534.196;2.35
282;1814.92;548.112;2.35
283;1834.75;522.477;2.35
284;1842.08;538.102;2.35
285;1846.96;520.524;2.36
286;1832.31;565.935;2.36
287;1797.52;540.056;2.36
288;1775.55;528.336;2.36
289;1802.71;559.832;2.36
290;1829.87;538.102;2.37
291;1839.64;538.102;2.37
292;1846.96;530.29;2.37
293;1839.64;555.925;2.37
294;1819.8;544.206;2.37
295;1817.36;559.832;2.38
296;1857.03;516.373;2.38
297;1884.19;542.009;2.38
298;1898.84;553.972;2.38
299;1898.84;522.477;2.38
300;1881.75;544.206;2.39
301;1849.4;544.206;2.39
302;1844.52;553.972;2.39
303;1861.92;530.29;2.39
304;1871.68;538.102;2.39
305;1871.68;526.383;2.4
306;1859.47;571.795;2.4
307;1824.68;540.056;2.4
308;1797.52;538.102;2.4
309;1822.24;567.888;2.4
310;1849.4;544.206;2.41
311;1864.36;538.102;2.41
312;1866.8;538.102;2.41
313;1859.47;557.878;2.41
314;1837.2;553.972;2.41
315;1834.75;561.785;2.42
316;1879.01;522.477;2.42
317;1901.28;552.019;2.42
318;1916.24;552.019;2.42
319;1916.24;532.243;2.42
320;1893.96;548.112;2.42
321;1859.47;553.972;2.43
322;1857.03;557.878;2.43
323;1874.12;538.102;2.43
324;1881.75;538.102;2.43
325;1884.19;538.102;2.43
326;1864.36;565.935;2.43
327;1829.87;542.009;2.44
328;1802.71;546.159;2.44
329;1832.31;565.935;2.44
330;1859.47;546.159;2.44
331;1869.24;540.056;2.44
332;1876.56;544.206;2.44
333;1864.36;557.878;2.45
334;1844.52;550.066;2.45
335;1844.52;573.748;2.45
336;1889.08;528.336;2.45
337;1911.36;546.159;2.45
338;1928.45;565.935;2.45
339;1930.89;534.196;2.46
340;1903.73;550.066;2.46
341;1874.12;548.112;2.46
342;1866.8;563.738;2.46
343;1889.08;538.102;2.46
344;1891.52;550.066;2.46
345;1891.52;532.243;2.47
346;1871.68;577.654;2.47
347;1834.75;553.972;2.47
348;1810.03;542.009;2.47
349;1839.64;571.795;2.47
350;1864.36;552.019;2.47
351;1876.56;550.066;2.47
352;1884.19;542.009;2.48
353;1871.68;569.842;2.48
354;1851.84;555.925;2.48
355;1851.84;573.748;2.48
356;1898.84;528.336;2.48
357;1923.56;557.878;2.48
358;1938.52;563.738;2.49
359;1938.52;534.196;2.49
360;1911.36;553.972;2.49
361;1881.75;555.925;2.49
362;1874.12;563.738;2.49
363;1891.52;542.009;2.49
364;1901.28;550.066;2.49
365;1898.84;542.009;2.5
366;1879.01;579.608;2.5
367;1844.52;553.972;2.5
368;1819.8;548.112;2.5
369;1846.96;583.514;2.5
370;1874.12;555.925;2.5
371;1884.19;550.066;2.5
372;1889.08;548.112;2.51
373;1879.01;567.888;2.51
374;1857.03;563.738;2.51
375;1859.47;571.795;2.51
376;1903.73;536.149;2.51
377;1928.45;563.738;2.51
378;1940.96;561.785;2.51
379;1940.96;540.056;2.52
380;1916.24;561.785;2.52
381;1884.19;563.738;2.52
382;1879.01;565.935;2.52
383;1898.84;550.066;2.52
384;1898.84;548.112;2.52
385;1903.73;552.019;2.52
386;1881.75;579.608;2.53
387;1844.52;552.019;2.53
388;1822.24;555.925;2.53
389;1851.84;577.654;2.53
390;1874.12;557.878;2.53
391;1889.08;546.159;2.53
392;1891.52;555.925;2.53
393;1884.19;567.888;2.54
394;1859.47;573.748;2.54
395;1861.92;571.795;2.54
396;1908.91;536.149;2.54
397;1933.33;563.738;2.54
398;1945.84;567.888;2.54
399;1943.4;542.009;2.54
400;1918.68;561.785;2.54
401;1889.08;563.738;2.55
402;1884.19;571.795;2.55
403;1903.73;550.066;2.55
404;1906.17;552.019;2.55
405;1908.91;552.019;2.55
406;1886.64;585.467;2.55
407;1846.96;555.925;2.55
408;1824.68;557.878;2.56001
409;1857.03;585.467;2.56001
410;1881.75;561.785;2.56001
411;1891.52;555.925;2.56001
412;1896.4;557.878;2.56001
413;1884.19;571.795;2.56001
414;1861.92;571.795;2.56001
415;1869.24;577.654;2.56001
416;1913.8;544.206;2.57
417;1938.52;571.795;2.57
418;1948.28;569.842;2.57
419;1948.28;548.112;2.57
420;1921.12;563.738;2.57
421;1891.52;571.795;2.57
422;1891.52;571.795;2.57
423;1906.17;555.925;2.57
424;1911.36;548.112;2.57
425;1908.91;557.878;2.58
426;1889.08;581.561;2.58
427;1851.84;567.888;2.58
428;1829.87;550.066;2.58
429;1861.92;583.514;2.58
430;1884.19;565.935;2.58
431;1896.4;565.935;2.58
432;1898.84;552.019;2.58
433;1891.52;581.561;2.59
434;1864.36;563.738;2.59
435;1874.12;587.42;2.59
436;1918.68;542.009;2.59
437;1943.4;565.935;2.59
438;1955.61;575.701;2.59
439;1950.72;548.112;2.59
440;1923.56;567.888;2.59
441;1893.96;561.785;2.59
442;1893.96;577.654;2.6
443;1911.36;552.019;2.6
444;1913.8;561.785;2.6
445;1916.24;550.066;2.6
446;1893.96;593.524;2.6
447;1857.03;569.842;2.6
448;1834.75;557.878;2.6
449;1866.8;591.571;2.6
450;1889.08;567.888;2.6
451;1903.73;565.935;2.61
452;1903.73;557.878;2.61
453;1896.4;579.608;2.61
454;1871.68;569.842;2.61
455;1879.01;585.467;2.61
456;1923.56;542.009;2.61
457;1948.28;569.842;2.61
458;1960.49;577.654;2.61
459;1955.61;546.159;2.61
460;1928.45;569.842;2.62
461;1901.28;571.795;2.62
462;1898.84;577.654;2.62
463;1916.24;555.925;2.62
464;1921.12;559.832;2.62
465;1916.24;553.972;2.62
466;1896.4;589.618;2.62
467;1859.47;563.738;2.62
468;1839.64;563.738;2.62
469;1871.68;589.618;2.63
470;1896.4;567.888;2.63
471;1906.17;559.832;2.63
472;1908.91;561.785;2.63
473;1893.96;575.701;2.63
474;1871.68;579.608;2.63
475;1881.75;579.608;2.63
476;1926;546.159;2.63
477;1950.72;579.608;2.63
478;1963.24;573.748;2.64
479;1960.49;553.972;2.64
480;1933.33;569.842;2.64
481;1901.28;579.608;2.64
482;1903.73;575.701;2.64
483;1918.68;559.832;2.64
484;1923.56;552.019;2.64
485;1926;561.785;2.64
486;1898.84;585.467;2.64
487;1864.36;559.832;2.64
488;1844.52;571.795;2.65
489;1876.56;589.618;2.65
490;1901.28;567.888;2.65
491;1911.36;571.795;2.65
492;1911.36;555.925;2.65
493;1901.28;585.467;2.65
494;1876.56;569.842;2.65
495;1891.52;591.571;2.65
496;1936.08;544.206;2.65
497;1955.61;567.888;2.66
498;1968.12;579.608;2.66
499;1963.24;552.019;2.66
500;1933.33;571.795;2.66
501;1903.73;569.842;2.66
502;1906.17;581.561;2.66
503;1921.12;553.972;2.66
504;1928.45;565.935;2.66
505;1926;552.019;2.66
506;1901.28;597.43;2.66
507;1864.36;567.888;2.67
508;1849.4;561.785;2.67
509;1884.19;593.524;2.67
510;1903.73;569.842;2.67
511;1916.24;567.888;2.67
512;1918.68;557.878;2.67
513;1903.73;583.514;2.67
514;1881.75;575.701;2.67
515;1893.96;587.42;2.67
516;1938.52;544.206;2.67
517;1960.49;573.748;2.68
518;1973;577.654;2.68
519;1970.56;550.066;2.68
520;1940.96;571.795;2.68
521;1908.91;575.701;2.68
522;1911.36;577.654;2.68
523;1928.45;561.785;2.68
524;1933.33;559.832;2.68
525;1930.89;557.878;2.68
526;1906.17;595.477;2.68
527;1864.36;563.738;2.68
528;1849.4;563.738;2.69
529;1886.64;593.524;2.69
530;1908.91;569.842;2.69
531;1918.68;559.832;2.69
532;1923.56;563.738;2.69
533;1906.17;579.608;2.69
534;1884.19;579.608;2.69
535;1901.28;581.561;2.69
536;1943.4;548.112;2.69
537;1968.12;577.654;2.69
538;1980.33;573.748;2.7
539;1970.56;559.832;2.7
540;1940.96;569.842;2.7
541;1913.8;581.561;2.7
542;1916.24;577.654;2.7
543;1936.08;563.738;2.7
544;1940.96;553.972;2.7
545;1936.08;565.935;2.7
546;1908.91;589.618;2.7
547;1869.24;559.832;2.7
548;1857.03;569.842;2.7
549;1893.96;585.467;2.71
550;1916.24;569.842;2.71
551;1926;565.935;2.71
552;1928.45;563.738;2.71
553;1913.8;583.514;2.71
554;1893.96;581.561;2.71
555;1906.17;589.618;2.71
556;1950.72;548.112;2.71
557;1970.56;577.654;2.71
558;1985.21;579.608;2.71
559;1977.89;553.972;2.71
560;1945.84;571.795;2.72
561;1918.68;579.608;2.72
562;1923.56;579.608;2.72
563;1938.52;561.785;2.72
564;1943.4;559.832;2.72
565;1940.96;561.785;2.72
566;1913.8;593.524;2.72
567;1876.56;567.888;2.72
568;1864.36;571.795;2.72
569;1903.73;591.571;2.72
570;1926;571.795;2.72
571;1936.08;559.832;2.72
572;1938.52;569.842;2.73
573;1921.12;579.608;2.73
574;1898.84;587.42;2.73
575;1913.8;581.561;2.73
576;1955.61;555.925;2.73
577;1977.89;585.467;2.73
578;1987.65;575.701;2.73
579;1977.89;561.785;2.73
580;1948.28;571.795;2.73
581;1916.24;571.795;2.73
582;1926;585.467;2.73
583;1945.84;555.925;2.73
584;1950.72;569.842;2.74
585;1948.28;553.972;2.74
586;1918.68;601.337;2.74
587;1886.64;573.748;2.74
588;1876.56;561.785;2.74
589;1911.36;593.524;2.74
590;1930.89;571.795;2.74
591;1943.4;571.795;2.74
592;1943.4;563.738;2.74
593;1928.45;589.618;2.74
594;1903.73;575.701;2.74
595;1921.12;595.477;2.74
596;1960.49;546.159;2.74
597;1982.77;571.795;2.75
598;1992.84;581.561;2.75
599;1985.21;553.972;2.75
600;1953.17;573.748;2.75
601;1926;571.795;2.75
602;1936.08;581.561;2.75
603;1950.72;561.785;2.75
604;1955.61;569.842;2.75
605;1955.61;555.925;2.75
606;1928.45;601.337;2.75
607;1889.08;569.842;2.75
608;1879.01;567.888;2.75
609;1916.24;597.43;2.76
610;1933.33;573.748;2.76
611;1945.84;565.935;2.76
612;1950.72;563.738;2.76
613;1930.89;585.467;2.76
614;1911.36;581.561;2.76
615;1928.45;591.571;2.76
616;1970.56;548.112;2.76
617;1990.4;577.654;2.76
618;2000.16;579.608;2.76
619;1987.65;555.925;2.76
620;1960.49;573.748;2.76
621;1930.89;579.608;2.76
622;1940.96;583.514;2.76
623;1958.05;563.738;2.77
624;1963.24;561.785;2.77
625;1960.49;563.738;2.77
626;1933.33;595.477;2.77
627;1893.96;565.935;2.77
628;1886.64;571.795;2.77
629;1923.56;593.524;2.77
630;1943.4;573.748;2.77
631;1955.61;559.832;2.77
632;1955.61;567.888;2.77
633;1938.52;583.514;2.77
634;1916.24;587.42;2.77
635;1933.33;585.467;2.77
636;1975.44;553.972;2.78
637;1992.84;585.467;2.78
638;2000.16;573.748;2.78
639;2000.16;561.785;2.78
640;1975.44;573.748;2.78
641;1945.84;585.467;2.78
642;1938.52;583.514;2.78
643;1960.49;555.925;2.78
644;1965.68;571.795;2.78
645;1965.68;552.019;2.78
646;1950.72;603.29;2.78
647;1911.36;575.701;2.78
648;1881.75;563.738;2.78
649;1913.8;595.477;2.78
650;1943.4;573.748;2.79
651;1955.61;575.701;2.79
652;1963.24;563.738;2.79
653;1950.72;589.618;2.79
654;1923.56;575.701;2.79
655;1923.56;595.477;2.79
656;1968.12;548.112;2.79
657;1992.84;575.701;2.79
658;2009.93;585.467;2.79
659;2005.05;553.972;2.79
660;1982.77;575.701;2.79
661;1948.28;573.748;2.79
662;1943.4;585.467;2.79
663;1965.68;559.832;2.79
664;1970.56;567.888;2.8
665;1973;557.878;2.8
666;1950.72;603.29;2.8
667;1916.24;573.748;2.8
668;1891.52;567.888;2.8
669;1916.24;599.384;2.8
670;1945.84;573.748;2.8
671;1960.49;567.888;2.8
672;1968.12;563.738;2.8
673;1953.17;583.514;2.8
674;1928.45;579.608;2.8
675;1928.45;591.571;2.8
676;1975.44;550.066;2.8
677;1997.72;579.608;2.8
678;2009.93;581.561;2.81001
679;2009.93;553.972;2.81001
680;1985.21;573.748;2.81001
681;1950.72;583.514;2.81001
682;1948.28;581.561;2.81001
683;1968.12;563.738;2.81001
684;1973;563.738;2.81001
685;1973;563.738;2.81001
686;1955.61;597.43;2.81001
687;1916.24;565.935;2.81001
688;1891.52;569.842;2.81001
689;1918.68;591.571;2.81001
690;1948.28;573.748;2.81001
691;1960.49;561.785;2.81001
692;1968.12;567.888;2.82
693;1955.61;583.514;2.82
694;1928.45;587.42;2.82
695;1930.89;585.467;2.82
696;1973;555.925;2.82
697;2000.16;585.467;2.82
698;2017.56;575.701;2.82
699;2009.93;561.785;2.82
700;1985.21;573.748;2.82
701;1953.17;585.467;2.82
702;1948.28;579.608;2.82
703;1973;567.888;2.82
704;1977.89;557.878;2.82
705;1977.89;561.785;2.82
706;1960.49;601.337;2.82
707;1923.56;569.842;2.82
708;1896.4;567.888;2.83
709;1928.45;597.43;2.83
710;1958.05;573.748;2.83
711;1970.56;567.888;2.83
712;1975.44;563.738;2.83
713;1960.49;585.467;2.83
714;1938.52;581.561;2.83
715;1938.52;587.42;2.83
716;1985.21;550.066;2.83
717;2007.49;583.514;2.83
718;2022.44;579.608;2.83
719;2017.56;557.878;2.83
720;1990.4;571.795;2.83
721;1960.49;581.561;2.83
722;1958.05;581.561;2.83
723;1977.89;563.738;2.83
724;1985.21;559.832;2.84
725;1985.21;565.935;2.84
726;1963.24;595.477;2.84
727;1926;561.785;2.84
728;1903.73;571.795;2.84
729;1933.33;589.618;2.84
730;1963.24;573.748;2.84
731;1973;561.785;2.84
732;1982.77;569.842;2.84
733;1965.68;583.514;2.84
734;1940.96;589.618;2.84
735;1948.28;583.514;2.84
736;1990.4;550.066;2.84
737;2012.37;573.748;2.84
738;2024.88;587.42;2.84
739;2024.88;555.925;2.84
740;1992.84;571.795;2.85
741;1963.24;569.842;2.85
742;1963.24;587.42;2.85
743;1982.77;559.832;2.85
744;1987.65;571.795;2.85
745;1985.21;555.925;2.85
746;1968.12;603.29;2.85
747;1928.45;573.748;2.85
748;1906.17;565.935;2.85
749;1938.52;597.43;2.85
750;1965.68;573.748;2.85
751;1977.89;569.842;2.85
752;1985.21;563.738;2.85
753;1968.12;589.618;2.85
754;1945.84;577.654;2.85
755;1948.28;591.571;2.86
756;1992.84;546.159;2.86
757;2017.56;575.701;2.86
758;2032.21;581.561;2.86
759;2029.77;552.019;2.86
760;1997.72;575.701;2.86
761;1968.12;579.608;2.86
762;1965.68;583.514;2.86
763;1985.21;561.785;2.86
764;1995.28;565.935;2.86
765;1992.84;561.785;2.86
766;1970.56;599.384;2.86
767;1930.89;567.888;2.86
768;1911.36;569.842;2.86
769;1945.84;597.43;2.86
770;1973;571.795;2.86
771;1985.21;563.738;2.87
772;1987.65;569.842;2.87
773;1975.44;583.514;2.87
774;1948.28;583.514;2.87
775;1955.61;589.618;2.87
776;2000.16;552.019;2.87
777;2022.44;581.561;2.87
778;2037.09;577.654;2.87
779;2029.77;557.878;2.87
780;2005.05;573.748;2.87
781;1973;581.561;2.87
782;1973;581.561;2.87
783;1992.84;565.935;2.87
784;2000.16;559.832;2.87
785;1995.28;567.888;2.87
786;1977.89;595.477;2.87
787;1938.52;563.738;2.88
788;1918.68;571.795;2.88
789;1953.17;589.618;2.88
790;1977.89;571.795;2.88
791;1990.4;563.738;2.88
792;1995.28;569.842;2.88
793;1977.89;583.514;2.88
794;1953.17;587.42;2.88
795;1963.24;585.467;2.88
796;2005.05;559.832;2.88
797;2029.77;589.618;2.88
798;2041.97;587.42;2.88
799;2037.09;555.925;2.88
800;2007.49;573.748;2.88
801;1975.44;571.795;2.88
802;1975.44;587.42;2.89
803;1995.28;557.878;2.89
804;2000.16;569.842;2.89
805;2000.16;555.925;2.89
806;1977.89;603.29;2.89
807;1938.52;573.748;2.89
808;1923.56;563.738;2.89
809;1955.61;597.43;2.89
810;1985.21;575.701;2.89
811;1997.72;571.795;2.89
812;2002.61;563.738;2.89
813;1985.21;587.42;2.89
814;1960.49;579.608;2.89
815;1968.12;593.524;2.89
816;2012.37;548.112;2.89
817;2032.21;577.654;2.89
818;2044.72;581.561;2.9
819;2037.09;552.019;2.9
820;2007.49;573.748;2.9
821;1977.89;579.608;2.9
822;1977.89;585.467;2.9
823;2000.16;559.832;2.9
824;2005.05;567.888;2.9
825;2005.05;561.785;2.9
826;1982.77;599.384;2.9
827;1943.4;571.795;2.9
828;1926;567.888;2.9
829;1963.24;599.384;2.9
830;1990.4;573.748;2.9
831;2002.61;565.935;2.9
832;2005.05;565.935;2.9
833;1990.4;585.467;2.91
834;1963.24;583.514;2.91
835;1973;589.618;2.91
836;2014.81;552.019;2.91
837;2039.53;579.608;2.91
838;2049.6;579.608;2.91
839;2041.97;559.832;2.91
840;2009.93;573.748;2.91
841;1980.33;583.514;2.91
842;1985.21;581.561;2.91
843;2002.61;563.738;2.91
844;2012.37;559.832;2.91
845;2007.49;563.738;2.91
846;1985.21;597.43;2.91
847;1948.28;563.738;2.91
848;1936.08;573.748;2.92
849;1970.56;589.618;2.92
850;1997.72;573.748;2.92
851;2009.93;559.832;2.92
852;2012.37;567.888;2.92
853;1992.84;581.561;2.92
854;1968.12;587.42;2.92
855;1977.89;583.514;2.92
856;2020;557.878;2.92
857;2044.72;587.42;2.92
858;2056.93;573.748;2.92
859;2047.16;563.738;2.92
860;2014.81;571.795;2.92
861;1985.21;581.561;2.92
862;1990.4;583.514;2.92
863;2009.93;563.738;2.93
864;2012.37;563.738;2.93
865;2012.37;563.738;2.93
866;1990.4;597.43;2.93
867;1948.28;565.935;2.93
868;1936.08;571.795;2.93
869;1973;595.477;2.93
870;1997.72;573.748;2.93
871;2009.93;563.738;2.93
872;2012.37;569.842;2.93
873;1992.84;583.514;2.93
874;1970.56;583.514;2.93
875;1980.33;585.467;2.93
876;2024.88;553.972;2.93
877;2047.16;585.467;2.93
878;2059.37;579.608;2.93
879;2047.16;561.785;2.94
880;2014.81;573.748;2.94
881;1985.21;585.467;2.94
882;1990.4;579.608;2.94
883;2012.37;565.935;2.94
884;2014.81;559.832;2.94
885;2014.81;565.935;2.94
886;1990.4;589.618;2.94
887;1953.17;559.832;2.94
888;1938.52;575.701;2.94
889;1977.89;585.467;2.94
890;2002.61;571.795;2.94
891;2012.37;575.701;2.94
892;2014.81;561.785;2.94
893;1995.28;589.618;2.95
894;1970.56;573.748;2.95
895;1982.77;595.477;2.95
896;2027.33;546.159;2.95
897;2047.16;575.701;2.95
898;2056.93;585.467;2.95
899;2047.16;557.878;2.95
900;2017.56;575.701;2.95
901;1985.21;573.748;2.95
902;1992.84;585.467;2.95
903;2014.81;557.878;2.95
904;2022.44;567.888;2.95
905;2017.56;555.925;2.95
906;1990.4;599.384;2.95
907;1953.17;571.795;2.95
908;1943.4;565.935;2.96
909;1982.77;599.384;2.96
910;2005.05;571.795;2.96
911;2014.81;567.888;2.96
912;2017.56;565.935;2.96
913;1997.72;585.467;2.96
914;1973;577.654;2.96
915;1990.4;593.524;2.96
916;2032.21;548.112;2.96
917;2049.6;577.654;2.96
918;2059.37;579.608;2.96
919;2052.05;553.972;2.96
920;2017.56;573.748;2.96
921;1990.4;581.561;2.96
922;1997.72;583.514;2.96
923;2014.81;561.785;2.96
924;2020;563.738;2.97
925;2014.81;561.785;2.97
926;1990.4;597.43;2.97
927;1953.17;565.935;2.97
928;1943.4;567.888;2.97
929;1982.77;591.571;2.97
930;2005.05;573.748;2.97
931;2017.56;561.785;2.97
932;2014.81;567.888;2.97
933;1997.72;581.561;2.97
934;1973;583.514;2.97
935;1987.65;587.42;2.97
936;2029.77;552.019;2.97
937;2049.6;583.514;2.97
938;2059.37;577.654;2.97
939;2049.6;559.832;2.98
940;2014.81;573.748;2.98
941;1985.21;583.514;2.98
942;1995.28;581.561;2.98
943;2017.56;563.738;2.98
944;2022.44;559.832;2.98
945;2020;565.935;2.98
946;1987.65;591.571;2.98
947;1955.61;561.785;2.98
948;1948.28;575.701;2.98
949;1985.21;587.42;2.98
950;2007.49;571.795;2.98
951;2017.56;561.785;2.98
952;2017.56;569.842;2.98
953;2000.16;579.608;2.98
954;1975.44;573.748;2.98
955;1992.84;597.43;2.99
956;2034.65;546.159;2.99
957;2054.49;571.795;2.99
958;2064.25;583.514;2.99
959;2052.05;552.019;2.99
960;2020;573.748;2.99
961;1990.4;571.795;2.99
962;2000.16;585.467;2.99
963;2020;557.878;2.99
964;2024.88;567.888;2.99
965;2020;557.878;2.99
966;1992.84;601.337;2.99
967;1958.05;571.795;2.99
968;1950.72;565.935;2.99
969;1987.65;599.384;2.99
970;2007.49;571.795;2.99
971;2020;567.888;3
972;2020;563.738;3
973;2002.61;585.467;3
974;1975.44;577.654;3
975;1992.84;589.618;3
976;2037.09;546.159;3
977;2054.49;575.701;3
978;2064.25;579.608;3
979;2052.05;552.019;3
980;2014.81;571.795;3
981;1990.4;577.654;3
982;1997.72;581.561;3
983;2017.56;561.785;3
984;2022.44;565.935;3
985;2020;559.832;3
986;1990.4;597.43;3.01
987;1955.61;567.888;3.01
988;1948.28;567.888;3.01
989;1987.65;593.524;3.01
990;2012.37;571.795;3.01
991;2022.44;561.785;3.01
992;2022.44;567.888;3.01
993;2002.61;581.561;3.01
994;1977.89;583.514;3.01
995;1995.28;585.467;3.01
996;2041.97;550.066;3.01
997;2059.37;581.561;3.01
998;2066.69;575.701;3.01
999;2054.49;559.832;3.01
1000;2020;571.795;3.01
1001;1990.4;583.514;3.01
1002;2005.05;581.561;3.02
1003;2020;561.785;3.02
1004;2027.33;557.878;3.02
1005;2022.44;565.935;3.02
1006;1995.28;591.571;3.02
1007;1955.61;559.832;3.02
1008;1953.17;573.748;3.02
1009;1992.84;585.467;3.02
1010;2012.37;575.701;3.02
1011;2024.88;559.832;3.02
1012;2022.44;567.888;3.02
1013;2002.61;579.608;3.02
1014;1980.33;591.571;3.02
1015;1997.72;579.608;3.02
1016;2039.53;548.112;3.02
1017;2059.37;579.608;3.02
1018;2066.69;579.608;3.03
1019;2054.49;553.972;3.03
1020;2024.88;571.795;3.03
1021;1995.28;581.561;3.03
1022;2002.61;579.608;3.03
1023;2022.44;563.738;3.03
1024;2027.33;561.785;3.03
1025;2027.33;563.738;3.03
1026;2002.61;595.477;3.03
1027;1963.24;559.832;3.03
1028;1948.28;571.795;3.03
1029;1985.21;589.618;3.03
1030;2012.37;571.795;3.03
1031;2022.44;559.832;3.03
1032;2022.44;567.888;3.03
1033;2007.49;581.561;3.03
1034;1980.33;585.467;3.04
1035;1995.28;581.561;3.04
1036;2034.65;555.925;3.04
1037;2056.93;585.467;3.04
1038;2069.14;577.654;3.04
1039;2056.93;561.785;3.04
1040;2027.33;573.748;3.04
1041;1997.72;581.561;3.04
1042;2000.16;575.701;3.04
1043;2022.44;563.738;3.04
1044;2027.33;553.972;3.04
1045;2024.88;569.842;3.04
1046;2000.16;589.618;3.04
1047;1963.24;573.748;3.04
1048;1948.28;561.785;3.04
1049;1987.65;593.524;3.04
1050;2012.37;571.795;3.05
1051;2022.44;571.795;3.05
1052;2024.88;563.738;3.05
1053;2007.49;587.42;3.05
1054;1980.33;575.701;3.05
1055;1995.28;591.571;3.05
1056;2041.97;546.159;3.05
1057;2061.81;571.795;3.05
1058;2074.32;579.608;3.05
1059;2064.25;553.972;3.05
1060;2029.77;573.748;3.05
1061;2000.16;575.701;3.05
1062;2007.49;583.514;3.05
1063;2024.88;559.832;3.05
1064;2029.77;563.738;3.05
1065;2022.44;557.878;3.05
1066;2000.16;601.337;3.05
1067;1960.49;571.795;3.06001
1068;1948.28;563.738;3.06001
1069;1985.21;601.337;3.06001
1070;2007.49;569.842;3.06001
1071;2020;565.935;3.06001
1072;2020;565.935;3.06001
1073;2002.61;585.467;3.06001
1074;1977.89;579.608;3.06001
1075;1992.84;589.618;3.06001
1076;2037.09;550.066;3.06001
1077;2061.81;577.654;3.06001
1078;2074.32;579.608;3.06001
1079;2061.81;553.972;3.06001
1080;2029.77;573.748;3.06001
1081;1997.72;581.561;3.06001
1082;2007.49;579.608;3.06001
1083;2027.33;561.785;3.06001
1084;2029.77;559.832;3.07
1085;2027.33;561.785;3.07
1086;2002.61;593.524;3.07
1087;1960.49;561.785;3.07
1088;1948.28;571.795;3.07
1089;1987.65;589.618;3.07
1090;2009.93;571.795;3.07
1091;2024.88;559.832;3.07
1092;2020;567.888;3.07
1093;2005.05;581.561;3.07
1094;1977.89;585.467;3.07
1095;1995.28;583.514;3.07
1096;2041.97;555.925;3.07
1097;2061.81;583.514;3.07
1098;2074.32;573.748;3.07
1099;2064.25;561.785;3.07
1100;2029.77;571.795;3.07
1101;2002.61;585.467;3.08
1102;2009.93;577.654;3.08
1103;2027.33;563.738;3.08
1104;2032.21;553.972;3.08
1105;2029.77;569.842;3.08
1106;2002.61;587.42;3.08
1107;1963.24;557.878;3.08
1108;1950.72;573.748;3.08
1109;1990.4;583.514;3.08
1110;2009.93;571.795;3.08
1111;2020;571.795;3.08
1112;2022.44;559.832;3.08
1113;2002.61;587.42;3.08
1114;1980.33;573.748;3.08
1115;1995.28;593.524;3.08
1116;2044.72;546.159;3.08
1117;2061.81;571.795;3.08
1118;2071.88;581.561;3.08
1119;2061.81;552.019;3.09
1120;2029.77;571.795;3.09
1121;2000.16;575.701;3.09
1122;2009.93;583.514;3.09
1123;2027.33;557.878;3.09
1124;2032.21;565.935;3.09
1125;2027.33;555.925;3.09
1126;2000.16;599.384;3.09
1127;1960.49;571.795;3.09
1128;1950.72;563.738;3.09
1129;1987.65;597.43;3.09
1130;2012.37;571.795;3.09
1131;2024.88;565.935;3.09
1132;2022.44;563.738;3.09
1133;2005.05;583.514;3.09
1134;1977.89;579.608;3.09
1135;1997.72;587.42;3.09
1136;2044.72;548.112;3.09
1137;2064.25;579.608;3.1
1138;2074.32;579.608;3.1
1139;2064.25;552.019;3.1
1140;2032.21;573.748;3.1
1141;2002.61;581.561;3.1
1142;2012.37;579.608;3.1
1143;2027.33;561.785;3.1
1144;2034.65;557.878;3.1
1145;2027.33;561.785;3.1
1146;2000.16;593.524;3.1
1147;1960.49;561.785;3.1
1148;1953.17;571.795;3.1
1149;1990.4;591.571;3.1
1150;2009.93;571.795;3.1
1151;2024.88;561.785;3.1
1152;2024.88;567.888;3.1
1153;2002.61;581.561;3.1
1154;1980.33;585.467;3.11
1155;2002.61;581.561;3.11
1156;2047.16;552.019;3.11
1157;2064.25;583.514;3.11
1158;2074.32;575.701;3.11
1159;2061.81;557.878;3.11
1160;2029.77;571.795;3.11
1161;2000.16;583.514;3.11
1162;2012.37;577.654;3.11
1163;2029.77;563.738;3.11
1164;2034.65;553.972;3.11
1165;2027.33;567.888;3.11
1166;2000.16;589.618;3.11
1167;1960.49;559.832;3.11
1168;1955.61;575.701;3.11
1169;1992.84;585.467;3.11
1170;2012.37;573.748;3.11
1171;2022.44;563.738;3.12
1172;2022.44;563.738;3.12
1173;2005.05;579.608;3.12
1174;1977.89;581.561;3.12
1175;2000.16;587.42;3.12
1176;2044.72;552.019;3.12
1177;2064.25;579.608;3.12
1178;2074.32;573.748;3.12
1179;2061.81;557.878;3.12
1180;2029.77;571.795;3.12
1181;2002.61;579.608;3.12
1182;2014.81;581.561;3.12
1183;2029.77;561.785;3.12
1184;2034.65;553.972;3.12
1185;2029.77;563.738;3.12
1186;2000.16;593.524;3.12
1187;1963.24;559.832;3.12
1188;1955.61;571.795;3.13
1189;1995.28;585.467;3.13
1190;2012.37;571.795;3.13
1191;2024.88;557.878;3.13
1192;2020;565.935;3.13
1193;2000.16;577.654;3.13
1194;1975.44;589.618;3.13
1195;1997.72;583.514;3.13
1196;2044.72;555.925;3.13
1197;2066.69;587.42;3.13
1198;2074.32;569.842;3.13
1199;2059.37;563.738;3.13
1200;2029.77;573.748;3.13
1201;2002.61;585.467;3.13
1202;2017.56;585.467;3.13
1203;2034.65;557.878;3.13
1204;2037.09;565.935;3.14
1205;2029.77;552.019;3.14
1206;2002.61;599.384;3.14
1207;1965.68;571.795;3.14
1208;1958.05;561.785;3.14
1209;1995.28;597.43;3.14
1210;2014.81;571.795;3.14
1211;2022.44;565.935;3.14
1212;2022.44;561.785;3.14
1213;2000.16;585.467;3.14
1214;1985.21;575.701;3.14
1215;1985.21;591.571;3.14
1216;2034.65;546.159;3.14
1217;2056.93;573.748;3.14
1218;2074.32;579.608;3.14
1219;2066.69;548.112;3.14
1220;2044.72;571.795;3.14
1221;2007.49;575.701;3.15
1222;2005.05;583.514;3.15
1223;2027.33;557.878;3.15
1224;2034.65;561.785;3.15
1225;2037.09;557.878;3.15
1226;2014.81;599.384;3.15
1227;1977.89;567.888;3.15
1228;1950.72;563.738;3.15
1229;1985.21;593.524;3.15
1230;2009.93;571.795;3.15
1231;2022.44;563.738;3.15
1232;2024.88;563.738;3.15
1233;2012.37;579.608;3.15
1234;1985.21;581.561;3.15
1235;1985.21;585.467;3.15
1236;2032.21;550.066;3.15
1237;2059.37;579.608;3.15
1238;2071.88;575.701;3.16
1239;2069.14;555.925;3.16
1240;2039.53;573.748;3.16
1241;2009.93;581.561;3.16
1242;2007.49;579.608;3.16
1243;2029.77;561.785;3.16
1244;2037.09;555.925;3.16
1245;2034.65;563.738;3.16
1246;2014.81;591.571;3.16
1247;1975.44;561.785;3.16
1248;1953.17;569.842;3.16
1249;1985.21;589.618;3.16
1250;2009.93;569.842;3.16
1251;2024.88;557.878;3.16
1252;2027.33;567.888;3.16
1253;2012.37;577.654;3.16
1254;1985.21;587.42;3.16
1255;1985.21;579.608;3.17
1256;2034.65;555.925;3.17
1257;2061.81;583.514;3.17
1258;2071.88;569.842;3.17
1259;2071.88;563.738;3.17
1260;2044.72;571.795;3.17
1261;2007.49;583.514;3.17
1262;2009.93;577.654;3.17
1263;2034.65;563.738;3.17
1264;2037.09;567.888;3.17
1265;2041.97;553.972;3.17
1266;2017.56;599.384;3.17
1267;1977.89;571.795;3.17
1268;1953.17;563.738;3.17
1269;1985.21;595.477;3.17
1270;2012.37;569.842;3.17
1271;2022.44;569.842;3.18
1272;2024.88;561.785;3.18
1273;2012.37;585.467;3.18
1274;1982.77;571.795;3.18
1275;1987.65;591.571;3.18
1276;2032.21;544.206;3.18
1277;2059.37;573.748;3.18
1278;2074.32;579.608;3.18
1279;2069.14;550.066;3.18
1280;2041.97;569.842;3.18
1281;2007.49;577.654;3.18
1282;2007.49;579.608;3.18
1283;2027.33;561.785;3.18
1284;2029.77;563.738;3.18
1285;2032.21;555.925;3.18
1286;2007.49;597.43;3.18
1287;1968.12;569.842;3.19
1288;1948.28;565.935;3.19
1289;1977.89;595.477;3.19
1290;2005.05;569.842;3.19
1291;2014.81;559.832;3.19
1292;2022.44;563.738;3.19
1293;2002.61;581.561;3.19
1294;1980.33;581.561;3.19
1295;1987.65;587.42;3.19
1296;2034.65;548.112;3.19
1297;2061.81;581.561;3.19
1298;2074.32;573.748;3.19
1299;2071.88;555.925;3.19
1300;2041.97;571.795;3.19
1301;2012.37;579.608;3.19
1302;2012.37;577.654;3.19
1303;2029.77;561.785;3.19
1304;2037.09;555.925;3.2
1305;2034.65;565.935;3.2
1306;2009.93;589.618;3.2
1307;1970.56;561.785;3.2
1308;1945.84;569.842;3.2
1309;1980.33;587.42;3.2
1310;2005.05;569.842;3.2
1311;2017.56;557.878;3.2
1312;2020;567.888;3.2
1313;2005.05;577.654;3.2
1314;1980.33;587.42;3.2
1315;1990.4;579.608;3.2
1316;2039.53;553.972;3.2
1317;2064.25;581.561;3.2
1318;2076.77;569.842;3.2
1319;2071.88;561.785;3.2
1320;2041.97;569.842;3.21
1321;2009.93;581.561;3.21
1322;2009.93;577.654;3.21
1323;2029.77;563.738;3.21
1324;2037.09;552.019;3.21
1325;2032.21;567.888;3.21
1326;2007.49;587.42;3.21
1327;1968.12;563.738;3.21
1328;1948.28;567.888;3.21
1329;1980.33;593.524;3.21
1330;2007.49;569.842;3.21
1331;2014.81;561.785;3.21
1332;2020;565.935;3.21
1333;2002.61;579.608;3.21
1334;1977.89;581.561;3.21
1335;1987.65;579.608;3.21
1336;2037.09;550.066;3.21
1337;2061.81;579.608;3.22
1338;2076.77;571.795;3.22
1339;2069.14;559.832;3.22
1340;2039.53;571.795;3.22
1341;2007.49;581.561;3.22
1342;2009.93;579.608;3.22
1343;2027.33;563.738;3.22
1344;2034.65;552.019;3.22
1345;2032.21;567.888;3.22
1346;2005.05;589.618;3.22
1347;1965.68;559.832;3.22
1348;1945.84;571.795;3.22
1349;1980.33;585.467;3.22
1350;2005.05;569.842;3.22
1351;2017.56;557.878;3.22
1352;2020;567.888;3.22
1353;2005.05;577.654;3.23
1354;1977.89;589.618;3.23
1355;1990.4;579.608;3.23
1356;2034.65;555.925;3.23
1357;2061.81;585.467;3.23
1358;2074.32;581.561;3.23
1359;2069.14;552.019;3.23
1360;2039.53;569.842;3.23
1361;2007.49;571.795;3.23
1362;2012.37;581.561;3.23
1363;2029.77;555.925;3.23
1364;2039.53;565.935;3.23
1365;2034.65;553.972;3.23
1366;2007.49;599.384;3.23
1367;1968.12;571.795;3.23
1368;1948.28;563.738;3.23
1369;1982.77;597.43;3.23
1370;2007.49;569.842;3.24
1371;2020;567.888;3.24
1372;2020;563.738;3.24
1373;2005.05;583.514;3.24
1374;1980.33;575.701;3.24
1375;1990.4;587.42;3.24
1376;2041.97;546.159;3.24
1377;2064.25;573.748;3.24
1378;2076.77;577.654;3.24
1379;2069.14;550.066;3.24
1380;2039.53;569.842;3.24
1381;2009.93;575.701;3.24
1382;2014.81;577.654;3.24
1383;2032.21;559.832;3.24
1384;2034.65;561.785;3.24
1385;2032.21;561.785;3.24
1386;2005.05;593.524;3.25
1387;1965.68;565.935;3.25
1388;1948.28;567.888;3.25
1389;1985.21;591.571;3.25
1390;2007.49;569.842;3.25
1391;2020;557.878;3.25
1392;2020;563.738;3.25
1393;2005.05;577.654;3.25
1394;1977.89;583.514;3.25
1395;1992.84;579.608;3.25
1396;2039.53;552.019;3.25
1397;2064.25;579.608;3.25
1398;2074.32;573.748;3.25
1399;2069.14;555.925;3.25
1400;2037.09;571.795;3.25
1401;2005.05;581.561;3.25
1402;2009.93;577.654;3.25
1403;2029.77;561.785;3.26
1404;2034.65;553.972;3.26
1405;2029.77;565.935;3.26
1406;2002.61;587.42;3.26
1407;1963.24;557.878;3.26
1408;1945.84;571.795;3.26
1409;1982.77;583.514;3.26
1410;2005.05;569.842;3.26
1411;2014.81;557.878;3.26
1412;2020;567.888;3.26
1413;2000.16;573.748;3.26
1414;1975.44;587.42;3.26
1415;1990.4;575.701;3.26
1416;2039.53;553.972;3.26
1417;2061.81;585.467;3.26
1418;2076.77;567.888;3.26
1419;2066.69;550.066;3.26
1420;2039.53;569.842;3.27
1421;2007.49;569.842;3.27
1422;2012.37;579.608;3.27
1423;2032.21;555.925;3.27
1424;2034.65;563.738;3.27
1425;2029.77;552.019;3.27
1426;2002.61;597.43;3.27
1427;1965.68;567.888;3.27
1428;1948.28;561.785;3.27
1429;1985.21;593.524;3.27
1430;2005.05;569.842;3.27
1431;2017.56;563.738;3.27
1432;2020;559.832;3.27
1433;1997.72;583.514;3.27
1434;1975.44;579.608;3.27
1435;1995.28;585.467;3.27
1436;2044.72;544.206;3.28
1437;2064.25;575.701;3.28
1438;2076.77;577.654;3.28
1439;2066.69;548.112;3.28
1440;2037.09;569.842;3.28
1441;2005.05;577.654;3.28
1442;2017.56;579.608;3.28
1443;2032.21;559.832;3.28
1444;2034.65;557.878;3.28
1445;2032.21;559.832;3.28
1446;2002.61;591.571;3.28
1447;1963.24;561.785;3.28
1448;1948.28;567.888;3.28
1449;1985.21;591.571;3.28
1450;2007.49;569.842;3.28
1451;2017.56;559.832;3.28
1452;2014.81;565.935;3.28
1453;2000.16;579.608;3.29
1454;1975.44;585.467;3.29
1455;1995.28;579.608;3.29
1456;2044.72;552.019;3.29
1457;2064.25;577.654;3.29
1458;2076.77;571.795;3.29
1459;2066.69;555.925;3.29
1460;2034.65;567.888;3.29
1461;2005.05;579.608;3.29
1462;2012.37;577.654;3.29
1463;2027.33;559.832;3.29
1464;2032.21;553.972;3.29
1465;2027.33;563.738;3.29
1466;1997.72;585.467;3.29
1467;1955.61;557.878;3.29
1468;1948.28;571.795;3.29
1469;1982.77;585.467;3.29
1470;2005.05;571.795;3.3
1471;2017.56;557.878;3.3
1472;2012.37;565.935;3.3
1473;1997.72;575.701;3.3
1474;1973;587.42;3.3
1475;1995.28;575.701;3.3
1476;2039.53;555.925;3.3
1477;2061.81;583.514;3.3
1478;2071.88;567.888;3.3
1479;2061.81;561.785;3.3
1480;2029.77;571.795;3.3
1481;2002.61;579.608;3.3
1482;2009.93;577.654;3.3
1483;2029.77;557.878;3.3
1484;2029.77;553.972;3.3
1485;2027.33;561.785;3.3
1486;1995.28;591.571;3.31001
1487;1955.61;559.832;3.31001
1488;1948.28;567.888;3.31001
1489;1985.21;587.42;3.31001
1490;2005.05;567.888;3.31001
1491;2014.81;553.972;3.31001
1492;2012.37;563.738;3.31001
1493;1997.72;577.654;3.31001
1494;1973;585.467;3.31001
1495;1995.28;579.608;3.31001
1496;2041.97;552.019;3.31001
1497;2061.81;579.608;3.31001
1498;2074.32;571.795;3.31001
1499;2064.25;559.832;3.31001
1500;2029.77;571.795;3.31001
1501;2000.16;577.654;3.31001
1502;2012.37;575.701;3.31001
1503;2027.33;561.785;3.32
1504;2029.77;550.066;3.32
1505;2024.88;567.888;3.32
1506;1995.28;585.467;3.32
1507;1953.17;553.972;3.32
1508;1945.84;573.748;3.32
1509;1985.21;581.561;3.32
1510;2005.05;569.842;3.32
1511;2014.81;555.925;3.32
1512;2017.56;567.888;3.32
1513;1995.28;583.514;3.32
1514;1973;575.701;3.32
1515;1997.72;589.618;3.32
1516;2041.97;542.009;3.32
1517;2061.81;571.795;3.32
1518;2074.32;579.608;3.32
1519;2064.25;550.066;3.33
1520;2029.77;569.842;3.33
1521;2002.61;569.842;3.33
1522;2012.37;579.608;3.33
1523;2024.88;555.925;3.33
1524;2029.77;559.832;3.33
1525;2022.44;552.019;3.33
1526;1992.84;595.477;3.33
1527;1955.61;563.738;3.33
1528;1948.28;563.738;3.33
1529;1985.21;593.524;3.33
1530;2007.49;567.888;3.33
1531;2017.56;561.785;3.33
1532;2014.81;559.832;3.33
1533;1995.28;579.608;3.33
1534;1973;579.608;3.33
1535;1995.28;583.514;3.33
1536;2039.53;546.159;3.34
1537;2059.37;577.654;3.34
1538;2069.14;573.748;3.34
1539;2056.93;553.972;3.34
1540;2024.88;569.842;3.34
1541;1995.28;577.654;3.34
1542;2007.49;577.654;3.34
1543;2024.88;559.832;3.34
1544;2027.33;555.925;3.34
1545;2022.44;559.832;3.34
1546;1995.28;591.571;3.34
1547;1955.61;559.832;3.34
1548;1950.72;567.888;3.34
1549;1987.65;587.42;3.34
1550;2007.49;567.888;3.34
1551;2014.81;557.878;3.34
1552;2014.81;563.738;3.34
1553;1995.28;577.654;3.35
1554;1975.44;585.467;3.35
1555;1995.28;577.654;3.35
1556;2039.53;548.112;3.35
1557;2059.37;581.561;3.35
1558;2066.69;567.888;3.35
1559;2054.49;555.925;3.35
1560;2022.44;567.888;3.35
1561;1997.72;581.561;3.35
1562;2009.93;573.748;3.35
1563;2024.88;561.785;3.35
1564;2029.77;550.066;3.35
1565;2024.88;565.935;3.35
1566;1995.28;585.467;3.35
1567;1955.61;555.925;3.35
1568;1953.17;569.842;3.35
1569;1990.4;581.561;3.35
1570;2007.49;567.888;3.36
1571;2017.56;553.972;3.36
1572;2012.37;563.738;3.36
1573;1995.28;573.748;3.36
1574;1973;591.571;3.36
1575;1997.72;587.42;3.36
1576;2039.53;542.009;3.36
1577;2059.37;569.842;3.36
1578;2069.14;575.701;3.36
1579;2054.49;546.159;3.36
1580;2020;565.935;3.36
1581;1997.72;571.795;3.36
1582;2014.81;577.654;3.36
1583;2024.88;555.925;3.36
1584;2029.77;559.832;3.36
1585;2022.44;552.019;3.36
1586;1992.84;597.43;3.36
1587;1953.17;565.935;3.37
1588;1950.72;561.785;3.37
1589;1990.4;593.524;3.37
1590;2007.49;569.842;3.37
1591;2014.81;561.785;3.37
1592;2012.37;557.878;3.37
1593;1995.28;579.608;3.37
1594;1973;577.654;3.37
1595;1997.72;583.514;3.37
1596;2037.09;546.159;3.37
1597;2059.37;573.748;3.37
1598;2066.69;573.748;3.37
1599;2052.05;553.972;3.37
1600;2020;569.842;3.37
1601;1992.84;577.654;3.37
1602;1997.72;577.654;3.37
1603;2020;555.925;3.37
1604;2027.33;555.925;3.38
1605;2024.88;559.832;3.38
1606;2005.05;587.42;3.38
1607;1965.68;559.832;3.38
1608;1940.96;565.935;3.38
1609;1973;585.467;3.38
1610;2000.16;567.888;3.38
1611;2012.37;557.878;3.38
1612;2017.56;561.785;3.38
1613;1997.72;577.654;3.38
1614;1975.44;585.467;3.38
1615;1980.33;575.701;3.38
1616;2024.88;552.019;3.38
1617;2052.05;581.561;3.38
1618;2061.81;571.795;3.38
1619;2059.37;555.925;3.38
1620;2029.77;569.842;3.38
1621;1997.72;579.608;3.38
1622;1997.72;573.748;3.39
1623;2020;559.832;3.39
1624;2027.33;550.066;3.39
1625;2024.88;563.738;3.39
1626;2005.05;583.514;3.39
1627;1965.68;555.925;3.39
1628;1940.96;571.795;3.39
1629;1977.89;577.654;3.39
1630;2000.16;567.888;3.39
1631;2009.93;550.066;3.39
1632;2014.81;565.935;3.39
1633;1997.72;575.701;3.39
1634;1975.44;585.467;3.39
1635;1980.33;571.795;3.39
1636;2024.88;555.925;3.39
1637;2052.05;577.654;3.39
1638;2061.81;571.795;3.39
1639;2059.37;553.972;3.4
1640;2027.33;565.935;3.4
1641;1995.28;577.654;3.4
1642;1997.72;575.701;3.4
1643;2020;557.878;3.4
1644;2024.88;552.019;3.4
1645;2024.88;561.785;3.4
1646;2000.16;587.42;3.4
1647;1963.24;557.878;3.4
1648;1940.96;569.842;3.4
1649;1977.89;581.561;3.4
1650;2000.16;567.888;3.4
1651;2012.37;553.972;3.4
1652;2014.81;563.738;3.4
1653;1997.72;573.748;3.4
1654;1973;585.467;3.4
1655;1980.33;573.748;3.4
1656;2024.88;553.972;3.4
1657;2049.6;579.608;3.41
1658;2059.37;567.888;3.41
1659;2054.49;559.832;3.41
1660;2024.88;567.888;3.41
1661;1992.84;581.561;3.41
1662;1995.28;573.748;3.41
1663;2017.56;559.832;3.41
1664;2022.44;550.066;3.41
1665;2022.44;571.795;3.41
1666;1997.72;581.561;3.41
1667;1960.49;552.019;3.41
1668;1940.96;559.832;3.41
1669;1975.44;591.571;3.41
1670;1997.72;567.888;3.41
1671;2007.49;561.785;3.41
1672;2009.93;559.832;3.41
1673;1995.28;581.561;3.41
1674;1968.12;573.748;3.41
1675;1975.44;583.514;3.41
1676;2022.44;542.009;3.42
1677;2044.72;571.795;3.42
1678;2056.93;575.701;3.42
1679;2052.05;546.159;3.42
1680;2024.88;565.935;3.42
1681;1990.4;573.748;3.42
1682;1992.84;577.654;3.42
1683;2014.81;553.972;3.42
1684;2022.44;555.925;3.42
1685;2020;555.925;3.42
1686;1995.28;593.524;3.42
1687;1958.05;561.785;3.42
1688;1936.08;561.785;3.42
1689;1973;587.42;3.42
1690;1997.72;567.888;3.42
1691;2005.05;557.878;3.42
1692;2009.93;559.832;3.42
1693;1995.28;575.701;3.42
1694;1968.12;579.608;3.43
1695;1977.89;581.561;3.43
1696;2022.44;548.112;3.43
1697;2044.72;575.701;3.43
1698;2056.93;571.795;3.43
1699;2052.05;553.972;3.43
1700;2020;569.842;3.43
1701;1987.65;577.654;3.43
1702;1992.84;575.701;3.43
1703;2012.37;557.878;3.43
1704;2017.56;552.019;3.43
1705;2017.56;561.785;3.43
1706;1995.28;585.467;3.43
1707;1955.61;555.925;3.43
1708;1936.08;565.935;3.43
1709;1973;583.514;3.43
1710;1992.84;565.935;3.43
1711;2005.05;553.972;3.43
1712;2005.05;561.785;3.44
1713;1990.4;573.748;3.44
1714;1965.68;583.514;3.44
1715;1977.89;573.748;3.44
1716;2022.44;552.019;3.44
1717;2044.72;581.561;3.44
1718;2052.05;567.888;3.44
1719;2049.6;557.878;3.44
1720;2017.56;567.888;3.44
1721;1987.65;579.608;3.44
1722;1992.84;571.795;3.44
1723;2014.81;561.785;3.44
1724;2017.56;546.159;3.44
1725;2017.56;567.888;3.44
1726;1987.65;581.561;3.44
1727;1950.72;552.019;3.44
1728;1936.08;571.795;3.44
1729;1970.56;577.654;3.45
1730;1992.84;567.888;3.45
1731;2000.16;565.935;3.45
1732;2002.61;559.832;3.45
1733;1985.21;581.561;3.45
1734;1960.49;571.795;3.45
1735;1977.89;585.467;3.45
1736;2020;538.102;3.45
1737;2041.97;571.795;3.45
1738;2052.05;571.795;3.45
1739;2047.16;546.159;3.45
1740;2014.81;563.738;3.45
1741;1982.77;573.748;3.45
1742;1987.65;575.701;3.45
1743;2007.49;555.925;3.45
1744;2012.37;555.925;3.45
1745;2009.93;553.972;3.45
1746;1985.21;593.524;3.45
1747;1945.84;563.738;3.46
1748;1930.89;561.785;3.46
1749;1968.12;591.571;3.46
1750;1987.65;565.935;3.46
1751;1997.72;555.925;3.46
1752;2000.16;559.832;3.46
1753;1982.77;577.654;3.46
1754;1958.05;577.654;3.46
1755;1973;579.608;3.46
1756;2014.81;546.159;3.46
1757;2034.65;575.701;3.46
1758;2049.6;569.842;3.46
1759;2039.53;550.066;3.46
1760;2009.93;563.738;3.46
1761;1977.89;577.654;3.46
1762;1985.21;573.748;3.46
1763;2002.61;557.878;3.46
1764;2007.49;552.019;3.46
1765;2007.49;557.878;3.46
1766;1985.21;585.467;3.47
1767;1943.4;559.832;3.47
1768;1928.45;565.935;3.47
1769;1968.12;581.561;3.47
1770;1987.65;565.935;3.47
1771;1997.72;552.019;3.47
1772;1997.72;561.785;3.47
1773;1985.21;573.748;3.47
1774;1955.61;581.561;3.47
1775;1968.12;573.748;3.47
1776;2012.37;548.112;3.47
1777;2029.77;579.608;3.47
1778;2041.97;563.738;3.47
1779;2032.21;559.832;3.47
