<WeldAnalyseData xmlns:i="http:www.w3.org/2001/XMLSchema-instance">
<WeldParameter>
<TimeStamp>DT#2023-12-05-14:28:12</TimeStamp>
<Generator>SG-22-10000</Generator>
<GenFreq>20</GenFreq>
<MaxForce>8000</MaxForce>
<MaxPower>10000</MaxPower>
<RunupPressure>1.5</RunupPressure>
<RunupDist>10</RunupDist>
<RunPress>0.8</RunPress>
<ShakeDelay>0.03</ShakeDelay>
<ShakeTime>0.3</ShakeTime>
<RunBackPress1>6</RunBackPress1>
<RunBackPress2>2</RunBackPress2>
<RunBackDist>1</RunBackDist>
<TrigValue>500</TrigValue>
<TrigModeUnit>W</TrigModeUnit>
<WeldModeUnit>Ws</WeldModeUnit>
<PressNr>0</PressNr>
<MaxLoss>1500</MaxLoss>
</WeldParameter>
<WeldSets>
<WeldSet>
<PressRiseTime>0</PressRiseTime>
<RunPressure>1</RunPressure>
<Amplitude>86</Amplitude>
<WeldMode>3270</WeldMode>
</WeldSet>
</WeldSets>
<WeldValue>
<WeldNr>2418</WeldNr>
<RecipeName>RickStyle</RecipeName>
<WeldTime>1832</WeldTime>
<DistDiff>3.74</DistDiff>
<DistAbs>78.31</DistAbs>
<Energy>3270.8</Energy>
<MaxPower>2060.86</MaxPower>
<CycleTime>6150</CycleTime>
<TrigForce>504.654</TrigForce>
<TrigDist>74.57</TrigDist>
<RunSpeed>68.2251</RunSpeed>
<MaxForce>605.243</MaxForce>
<LossPower>247.562</LossPower>
</WeldValue>
</WeldAnalyseData>
#CSV-START#
ms;Power[W];Force[N];Distance[mm]
1;0;0;0
2;0;506.607;0.0100021
3;0;506.607;0.0100021
4;0;506.607;0.0100021
5;0;508.56;0.0100021
6;0;508.56;0.0100021
7;0;506.607;0.0100021
8;0;500.748;0.0100021
9;0;482.925;0.0199966
10;0;469.008;0.0299988
11;16.4228;455.336;0.0400009
12;21.3057;447.279;0.0500031
13;31.3768;431.654;0.0699997
14;50.9087;447.279;0.0800018
15;75.6287;433.607;0.0999985
16;100.349;421.644;0.110001
17;129.952;433.607;0.120003
18;157.113;421.644;0.139999
19;179.392;417.737;0.150002
20;201.67;413.831;0.160004
21;221.507;419.691;0.18
22;243.786;417.737;0.190002
23;263.318;427.503;0.199997
24;290.479;407.971;0.220001
25;315.199;419.691;0.230003
26;335.036;429.456;0.239998
27;349.685;409.925;0.260002
28;364.639;419.691;0.269997
29;369.522;423.597;0.279999
30;374.405;431.654;0.290001
31;379.593;419.691;0.300003
32;389.359;425.55;0.32
33;394.242;417.737;0.330002
34;396.683;439.467;0.340004
35;399.125;427.503;0.349998
36;394.242;417.737;0.360001
37;396.683;441.42;0.370003
38;406.755;431.654;0.379997
39;411.638;427.503;0.389999
40;416.52;421.644;0.400002
41;418.962;435.56;0.419998
42;416.52;435.56;0.43
43;414.079;447.279;0.440002
44;426.286;423.597;0.449997
45;433.611;435.56;0.459999
46;433.611;447.279;0.470001
47;436.357;427.503;0.480003
48;433.611;437.513;0.489998
49;431.169;437.513;0.5
50;426.286;441.42;0.510002
51;421.403;433.607;0.519997
52;423.845;437.513;0.529999
53;423.845;425.55;0.540001
54;423.845;451.186;0.550003
55;421.403;443.373;0.559998
56;414.079;431.654;0.580002
57;414.079;457.289;0.590004
58;426.286;445.326;0.599998
59;428.728;447.279;0.610001
60;433.611;441.42;0.620003
61;436.357;451.186;0.629997
62;438.799;449.232;0.639999
63;438.799;463.149;0.650002
64;448.565;437.513;0.660004
65;460.772;451.186;0.669998
66;468.402;461.196;0.68
67;473.285;441.42;0.690002
68;473.285;453.383;0.699997
69;470.843;453.383;0.699997
70;463.519;459.243;0.709999
71;465.96;449.232;0.720001
72;468.402;455.336;0.730003
73;468.402;441.42;0.739998
74;470.843;472.915;0.75
75;468.402;463.149;0.760002
76;460.772;451.186;0.769997
77;465.96;463.149;0.779999
78;478.168;463.149;0.790001
79;483.051;463.149;0.800003
80;487.934;459.243;0.809998
81;493.122;469.008;0.82
82;493.122;465.102;0.82
83;498.005;472.915;0.830002
84;512.654;465.102;0.840004
85;525.166;463.149;0.849998
86;532.491;477.065;0.860001
87;534.932;463.149;0.870003
88;534.932;465.102;0.879997
89;532.491;467.055;0.889999
90;527.608;472.915;0.900002
91;534.932;461.196;0.900002
92;534.932;467.055;0.910004
93;534.932;455.336;0.919998
94;539.815;480.972;0.93
95;532.491;472.915;0.940002
96;525.166;459.243;0.949997
97;527.608;480.972;0.959999
98;537.374;475.112;0.970001
99;542.257;472.915;0.980003
100;545.003;469.008;0.980003
101;547.445;480.972;0.989998
102;545.003;477.065;1
103;545.003;490.738;1.01
104;557.211;465.102;1.02
105;572.165;472.915;1.03
106;574.606;486.831;1.04
107;574.606;467.055;1.04
108;569.418;475.112;1.05
109;562.094;475.112;1.06
110;552.328;482.925;1.07
111;552.328;470.962;1.08
112;549.886;477.065;1.09
113;549.886;463.149;1.1
114;549.886;492.691;1.1
115;542.257;479.019;1.11
116;532.491;469.008;1.12
117;534.932;488.784;1.13
118;542.257;480.972;1.14
119;549.886;480.972;1.15
120;552.328;472.915;1.15
121;557.211;482.925;1.16
122;554.769;480.972;1.17
123;557.211;496.597;1.18
124;574.606;465.102;1.19
125;591.697;479.019;1.2
126;601.768;490.738;1.21
127;606.651;465.102;1.22
128;606.651;480.972;1.23
129;599.326;477.065;1.24
130;594.138;484.878;1.25
131;596.58;472.915;1.26
132;599.326;477.065;1.26
133;601.768;461.196;1.27
134;601.768;494.644;1.28
135;596.58;479.019;1.29
136;589.255;467.055;1.31
137;594.138;492.691;1.31
138;609.092;480.972;1.32
139;616.417;475.112;1.33
140;621.3;475.112;1.34
141;626.488;482.925;1.35
142;628.929;477.065;1.36
143;633.812;486.831;1.37
144;653.649;475.112;1.38
145;670.74;467.055;1.4
146;683.252;484.878;1.41
147;690.577;469.008;1.42
148;693.018;469.008;1.43
149;688.135;472.915;1.44
150;685.694;475.112;1.45
151;690.577;461.196;1.46
152;695.46;469.008;1.48
153;695.46;455.336;1.49
154;697.901;477.065;1.5
155;690.577;470.962;1.51
156;683.252;455.336;1.52
157;690.577;475.112;1.54
158;702.784;467.055;1.55
159;715.297;465.102;1.56
160;722.621;459.243;1.57
161;727.504;475.112;1.59
162;727.504;467.055;1.6
163;729.946;480.972;1.61
164;747.341;457.289;1.62
165;767.178;461.196;1.64
166;776.944;475.112;1.65
167;784.268;453.383;1.66
168;786.71;461.196;1.67
169;779.386;461.196;1.68
170;772.061;469.008;1.69
171;779.386;451.186;1.71
172;781.827;459.243;1.72
173;791.898;445.326;1.73
174;794.34;475.112;1.74
175;784.268;461.196;1.75
176;774.503;447.279;1.77
177;786.71;472.915;1.78
178;804.106;459.243;1.79
179;816.618;459.243;1.8
180;826.384;451.186;1.81
181;836.15;469.008;1.82
182;841.033;459.243;1.83
183;848.663;477.065;1.85
184;875.824;441.42;1.86
185;902.986;455.336;1.87
186;917.634;472.915;1.88
187;930.147;445.326;1.89
188;935.03;455.336;1.9
189;932.588;455.336;1.91
190;935.03;467.055;1.92
191;952.425;447.279;1.93
192;964.633;455.336;1.94
193;979.587;439.467;1.96
194;986.911;480.972;1.97
195;986.911;463.149;1.98
196;982.028;447.279;1.99
197;1004;477.065;2
198;1033.91;461.196;2.01
199;1051;463.149;2.02
200;1068.4;453.383;2.03
201;1083.04;479.019;2.04
202;1090.67;467.055;2.05
203;1100.44;484.878;2.06
204;1134.93;457.289;2.07
205;1164.53;463.149;2.08
206;1184.37;482.925;2.08
207;1201.76;457.289;2.09
208;1204.2;469.008;2.1
209;1194.13;469.008;2.11
210;1196.57;482.925;2.12
211;1216.41;463.149;2.12
212;1233.81;472.915;2.13
213;1246.01;455.336;2.14
214;1250.9;494.644;2.15
215;1241.13;480.972;2.15
216;1228.92;467.055;2.16
217;1253.64;496.597;2.17
218;1288.13;480.972;2.18
219;1302.78;486.831;2.18
220;1317.73;470.962;2.19
221;1332.38;498.795;2.2
222;1332.38;486.831;2.2
223;1335.13;506.607;2.21
224;1372.05;469.008;2.22
225;1401.66;486.831;2.22
226;1421.49;504.654;2.23
227;1438.59;477.065;2.24
228;1433.7;492.691;2.24
229;1416.61;490.738;2.25
230;1416.61;506.607;2.25
231;1438.59;494.644;2.26
232;1453.54;490.738;2.27
233;1463.31;479.019;2.27
234;1463.31;504.654;2.28
235;1448.66;504.654;2.28
236;1428.82;486.831;2.29
237;1448.66;506.607;2.29
238;1478.26;506.607;2.3
239;1492.91;504.654;2.3
240;1507.86;492.691;2.31
241;1512.75;512.467;2.32
242;1502.98;510.514;2.32
243;1505.42;528.336;2.32
244;1542.35;504.654;2.33
245;1569.51;502.701;2.33
246;1586.91;528.336;2.34
247;1594.23;500.748;2.34
248;1586.91;506.607;2.35
249;1564.63;508.56;2.35
250;1557.3;522.477;2.36
251;1576.83;500.748;2.36
252;1589.35;508.56;2.37
253;1594.23;488.784;2.37
254;1589.35;526.383;2.37
255;1567.07;520.524;2.38
256;1539.91;494.644;2.38
257;1562.19;526.383;2.39
258;1591.79;520.524;2.39
259;1601.55;518.326;2.4
260;1614.07;502.701;2.4
261;1616.51;534.196;2.41
262;1604;520.524;2.41
263;1604;542.009;2.41
264;1641.23;508.56;2.42
265;1668.39;516.373;2.42
266;1683.04;540.056;2.43
267;1693.11;504.654;2.43
268;1680.6;518.326;2.43
269;1658.32;516.373;2.44
270;1650.99;532.243;2.44
271;1668.39;506.607;2.45
272;1678.16;520.524;2.45
273;1683.04;498.795;2.45
274;1675.71;540.056;2.46
275;1650.99;526.383;2.46
276;1628.72;510.514;2.47
277;1646.11;540.056;2.47
278;1675.71;526.383;2.47
279;1685.48;528.336;2.48
280;1700.43;512.467;2.48
281;1697.99;542.009;2.48
282;1685.48;526.383;2.49
283;1680.6;550.066;2.49
284;1717.83;510.514;2.5
285;1744.99;522.477;2.5
286;1759.64;540.056;2.5
287;1764.52;512.467;2.51
288;1749.87;526.383;2.51
289;1725.15;524.43;2.51
290;1712.64;540.056;2.52
291;1732.48;512.467;2.52
292;1739.8;530.29;2.52
293;1744.99;508.56;2.53
294;1734.92;530.29;2.53
295;1705.32;538.102;2.53
296;1678.16;514.42;2.54
297;1700.43;536.149;2.54
298;1730.04;538.102;2.54
299;1742.55;532.243;2.55
300;1749.87;520.524;2.55
301;1747.43;538.102;2.55
302;1730.04;534.196;2.56
303;1725.15;555.925;2.56
304;1766.96;530.29;2.56
305;1791.68;524.43;2.57
306;1809.08;552.019;2.57
307;1811.52;524.43;2.57
308;1796.57;528.336;2.57
309;1764.52;530.29;2.58
310;1757.2;546.159;2.58
311;1774.59;526.383;2.58
312;1784.36;530.29;2.59
313;1786.8;514.42;2.59
314;1777.04;542.009;2.59
315;1742.55;540.056;2.59
316;1717.83;518.326;2.6
317;1737.36;546.159;2.6
318;1766.96;540.056;2.6
319;1779.48;542.009;2.61
320;1789.24;524.43;2.61
321;1784.36;553.972;2.61
322;1764.52;540.056;2.61
323;1759.64;563.738;2.62
324;1801.76;530.29;2.62
325;1823.73;532.243;2.62
326;1838.68;559.832;2.62
327;1843.57;526.383;2.63
328;1826.48;534.196;2.63
329;1796.57;536.149;2.63
330;1789.24;553.972;2.63
331;1811.52;524.43;2.64
332;1818.85;538.102;2.64
333;1823.73;512.467;2.64
334;1809.08;555.925;2.64
335;1777.04;546.159;2.65
336;1754.76;526.383;2.65
337;1777.04;553.972;2.65
338;1809.08;542.009;2.65
339;1821.29;546.159;2.66
340;1826.48;530.29;2.66
341;1823.73;559.832;2.66
342;1806.64;544.206;2.66
343;1801.76;565.935;2.66
344;1841.12;528.336;2.67
345;1868.29;538.102;2.67
346;1883.24;559.832;2.67
347;1885.68;528.336;2.67
348;1865.84;542.009;2.67
349;1836.24;538.102;2.68
350;1828.92;553.972;2.68
351;1850.89;526.383;2.68
352;1863.4;544.206;2.68
353;1863.4;522.477;2.68
354;1850.89;569.842;2.69
355;1818.85;550.066;2.69
356;1791.68;526.383;2.69
357;1816.4;557.878;2.69
358;1846.01;548.112;2.7
359;1860.96;550.066;2.7
360;1865.84;530.29;2.7
361;1860.96;565.935;2.7
362;1838.68;548.112;2.7
363;1833.8;573.748;2.7
364;1875.61;538.102;2.71
365;1902.77;542.009;2.71
366;1917.73;563.738;2.71
367;1917.73;536.149;2.71
368;1895.45;548.112;2.71
369;1865.84;542.009;2.72
370;1858.52;563.738;2.72
371;1883.24;530.29;2.72
372;1890.56;544.206;2.72
373;1895.45;526.383;2.72
374;1888.12;567.888;2.73
375;1860.96;553.972;2.73
376;1828.92;536.149;2.73
377;1828.92;565.935;2.73
378;1868.29;553.972;2.73
379;1888.12;552.019;2.73
380;1900.33;538.102;2.74
381;1897.89;569.842;2.74
382;1878.05;552.019;2.74
383;1860.96;575.701;2.74
384;1885.68;530.29;2.74
385;1925.05;548.112;2.74
386;1942.45;567.888;2.75
387;1947.33;548.112;2.75
388;1937.56;544.206;2.75
389;1905.21;553.972;2.75
390;1883.24;567.888;2.75
391;1900.33;557.878;2.75
392;1917.73;550.066;2.76
393;1922.61;530.29;2.76
394;1915.28;555.925;2.76
395;1890.56;561.785;2.76
396;1853.64;538.102;2.76
397;1858.52;561.785;2.76
398;1895.45;561.785;2.77
399;1912.84;555.925;2.77
400;1922.61;540.056;2.77
401;1922.61;563.738;2.77
402;1902.77;557.878;2.77
403;1883.24;579.608;2.77
404;1905.21;552.019;2.78
405;1947.33;548.112;2.78
406;1962.28;575.701;2.78
407;1972.05;548.112;2.78
408;1957.09;553.972;2.78
409;1925.05;553.972;2.78
410;1902.77;571.795;2.79
411;1922.61;548.112;2.79
412;1937.56;552.019;2.79
413;1940;534.196;2.79
414;1937.56;569.842;2.79
415;1905.21;565.935;2.79
416;1873.17;538.102;2.79
417;1878.05;571.795;2.8
418;1915.28;561.785;2.8
419;1932.37;563.738;2.8
420;1944.89;544.206;2.8
421;1940;577.654;2.8
422;1920.17;563.738;2.8
423;1900.33;583.514;2.81
424;1925.05;552.019;2.81
425;1967.17;553.972;2.81
426;1981.81;579.608;2.81
427;1986.7;548.112;2.81
428;1972.05;555.925;2.81
429;1942.45;555.925;2.81
430;1917.73;575.701;2.82
431;1937.56;548.112;2.82
432;1952.21;557.878;2.82
433;1954.65;536.149;2.82
434;1949.77;575.701;2.82
435;1920.17;565.935;2.82
436;1883.24;544.206;2.82
437;1888.12;579.608;2.83
438;1925.05;563.738;2.83
439;1942.45;567.888;2.83
440;1952.21;550.066;2.83
441;1947.33;583.514;2.83
442;1925.05;565.935;2.83
443;1902.77;589.618;2.83
444;1935.12;548.112;2.84
445;1969.61;561.785;2.84
446;1986.7;583.514;2.84
447;1994.33;548.112;2.84
448;1979.37;563.738;2.84
449;1947.33;563.738;2.84
450;1925.05;579.608;2.84
451;1942.45;565.935;2.84
452;1954.65;557.878;2.85
453;1964.72;544.206;2.85
454;1954.65;565.935;2.85
455;1927.49;575.701;2.85
456;1890.56;548.112;2.85
457;1895.45;569.842;2.85
458;1932.37;573.748;2.85
459;1949.77;565.935;2.85
460;1962.28;550.066;2.86
461;1957.09;569.842;2.86
462;1932.37;569.842;2.86
463;1915.28;587.42;2.86
464;1940;563.738;2.86
465;1979.37;555.925;2.86
466;1994.33;583.514;2.86
467;2001.65;559.832;2.86
468;1984.26;559.832;2.87
469;1952.21;563.738;2.87
470;1929.93;581.561;2.87
471;1949.77;559.832;2.87
472;1964.72;561.785;2.87
473;1969.61;538.102;2.87
474;1962.28;573.748;2.87
475;1929.93;571.795;2.87
476;1895.45;548.112;2.87
477;1902.77;579.608;2.88
478;1940;571.795;2.88
479;1954.65;571.795;2.88
480;1964.72;550.066;2.88
481;1962.28;579.608;2.88
482;1940;569.842;2.88
483;1920.17;595.477;2.88
484;1949.77;559.832;2.88
485;1984.26;561.785;2.88
486;2001.65;589.618;2.89
487;2008.98;557.878;2.89
488;1986.7;565.935;2.89
489;1957.09;561.785;2.89
490;1935.12;579.608;2.89
491;1954.65;552.019;2.89
492;1967.17;563.738;2.89
493;1972.05;542.009;2.89
494;1964.72;581.561;2.9
495;1932.37;573.748;2.9
496;1897.89;550.066;2.9
497;1905.21;581.561;2.9
498;1944.89;571.795;2.9
499;1962.28;571.795;2.9
500;1972.05;553.972;2.9
501;1964.72;587.42;2.9
502;1942.45;567.888;2.9
503;1922.61;595.477;2.91
504;1952.21;553.972;2.91
505;1989.44;565.935;2.91
506;2004.09;585.467;2.91
507;2011.42;553.972;2.91
508;1994.33;565.935;2.91
509;1959.54;561.785;2.91
510;1940;583.514;2.91
511;1957.09;557.878;2.91
512;1969.61;565.935;2.92
513;1976.93;544.206;2.92
514;1967.17;579.608;2.92
515;1935.12;573.748;2.92
516;1900.33;550.066;2.92
517;1907.96;583.514;2.92
518;1944.89;573.748;2.92
519;1959.54;573.748;2.92
520;1972.05;553.972;2.92
521;1964.72;587.42;2.93
522;1937.56;571.795;2.93
523;1920.17;595.477;2.93
524;1949.77;559.832;2.93
525;1986.7;563.738;2.93
526;2004.09;587.42;2.93
527;2008.98;555.925;2.93
528;1986.7;567.888;2.93
529;1957.09;563.738;2.93
530;1937.56;581.561;2.94
531;1954.65;550.066;2.94
532;1967.17;565.935;2.94
533;1972.05;544.206;2.94
534;1964.72;585.467;2.94
535;1929.93;575.701;2.94
536;1893.01;552.019;2.94
537;1902.77;585.467;2.94
538;1937.56;571.795;2.94
539;1957.09;573.748;2.95
540;1964.72;555.925;2.95
541;1957.09;567.888;2.95
542;1935.12;573.748;2.95
543;1915.28;589.618;2.95
544;1949.77;573.748;2.95
545;1981.81;557.878;2.95
546;2001.65;585.467;2.95
547;2004.09;567.888;2.95
548;1986.7;563.738;2.95
549;1952.21;567.888;2.96
550;1932.37;579.608;2.96
551;1952.21;573.748;2.96
552;1964.72;563.738;2.96
553;1969.61;548.112;2.96
554;1959.54;573.748;2.96
555;1929.93;581.561;2.96
556;1890.56;552.019;2.96
557;1902.77;577.654;2.96
558;1937.56;577.654;2.96
559;1952.21;573.748;2.97
560;1962.28;555.925;2.97
561;1957.09;571.795;2.97
562;1929.93;571.795;2.97
563;1915.28;595.477;2.97
564;1947.33;569.842;2.97
565;1981.81;563.738;2.97
566;1996.77;593.524;2.97
567;1999.21;561.785;2.97
568;1981.81;567.888;2.97
569;1949.77;567.888;2.98
570;1929.93;585.467;2.98
571;1949.77;565.935;2.98
572;1964.72;565.935;2.98
573;1967.17;546.159;2.98
574;1957.09;577.654;2.98
575;1925.05;579.608;2.98
576;1888.12;552.019;2.98
577;1897.89;581.561;2.98
578;1935.12;573.748;2.98
579;1947.33;573.748;2.99
580;1962.28;555.925;2.99
581;1952.21;585.467;2.99
582;1932.37;573.748;2.99
583;1915.28;599.384;2.99
584;1947.33;563.738;2.99
585;1981.81;565.935;2.99
586;1999.21;593.524;2.99
587;2004.09;559.832;2.99
588;1984.26;569.842;2.99
589;1947.33;565.935;2.99
590;1932.37;583.514;3
591;1952.21;557.878;3
592;1964.72;569.842;3
593;1969.61;546.159;3
594;1959.54;583.514;3
595;1927.49;577.654;3
596;1895.45;553.972;3
597;1905.21;585.467;3
598;1942.45;575.701;3
599;1959.54;577.654;3
600;1967.17;559.832;3
601;1962.28;593.524;3.01
602;1937.56;573.748;3.01
603;1917.73;589.618;3.01
604;1949.77;579.608;3.01
605;1981.81;559.832;3.01
606;1996.77;585.467;3.01
607;2001.65;569.842;3.01
608;1981.81;565.935;3.01
609;1947.33;571.795;3.01
610;1929.93;587.42;3.01
611;1949.77;577.654;3.01
612;1964.72;567.888;3.02
613;1967.17;552.019;3.02
614;1959.54;571.795;3.02
615;1929.93;583.514;3.02
616;1893.01;557.878;3.02
617;1905.21;577.654;3.02
618;1944.89;581.561;3.02
619;1964.72;573.748;3.02
620;1969.61;555.925;3.02
621;1964.72;571.795;3.02
622;1940;577.654;3.02
623;1922.61;595.477;3.03
624;1954.65;573.748;3.03
625;1984.26;561.785;3.03
626;1999.21;591.571;3.03
627;2004.09;567.888;3.03
628;1984.26;567.888;3.03
629;1952.21;569.842;3.03
630;1932.37;587.42;3.03
631;1957.09;573.748;3.03
632;1972.05;569.842;3.03
633;1974.49;550.066;3.03
634;1964.72;579.608;3.03
635;1935.12;581.561;3.04
636;1900.33;555.925;3.04
637;1915.28;583.514;3.04
638;1954.65;577.654;3.04
639;1967.17;577.654;3.04
640;1979.37;559.832;3.04
641;1972.05;589.618;3.04
642;1947.33;575.701;3.04
643;1929.93;597.43;3.04
644;1962.28;569.842;3.04
645;1991.89;567.888;3.04
646;2008.98;593.524;3.04
647;2013.86;565.935;3.05
648;1991.89;573.748;3.05
649;1957.09;569.842;3.05
650;1942.45;589.618;3.05
651;1964.72;561.785;3.05
652;1979.37;569.842;3.05
653;1984.26;548.112;3.05
654;1974.49;585.467;3.05
655;1940;579.608;3.05
656;1907.96;555.925;3.05
657;1925.05;589.618;3.05
658;1959.54;577.654;3.05
659;1974.49;579.608;3.06
660;1984.26;559.832;3.06
661;1979.37;595.477;3.06
662;1952.21;575.701;3.06
663;1937.56;601.337;3.06
664;1972.05;563.738;3.06
665;2001.65;569.842;3.06
666;2016.61;595.477;3.06
667;2021.49;567.888;3.06
668;1999.21;571.795;3.06
669;1967.17;571.795;3.06
670;1949.77;589.618;3.06
671;1974.49;567.888;3.06
672;1986.7;571.795;3.07
673;1989.44;548.112;3.07
674;1981.81;579.608;3.07
675;1947.33;583.514;3.07
676;1915.28;553.972;3.07
677;1935.12;585.467;3.07
678;1969.61;577.654;3.07
679;1984.26;579.608;3.07
680;1994.33;559.832;3.07
681;1986.7;593.524;3.07
682;1959.54;575.701;3.07
683;1944.89;605.243;3.07
684;1979.37;567.888;3.07
685;2011.42;569.842;3.08
686;2028.81;595.477;3.08
687;2028.81;565.935;3.08
688;2008.98;573.748;3.08
689;1974.49;571.795;3.08
690;1959.54;587.42;3.08
691;1981.81;559.832;3.08
692;1994.33;569.842;3.08
693;1996.77;548.112;3.08
694;1984.26;587.42;3.08
695;1952.21;579.608;3.08
696;1917.73;557.878;3.08
697;1937.56;577.654;3.09
698;1976.93;587.42;3.09
699;1989.44;573.748;3.09
700;1999.21;561.785;3.09
701;1989.44;573.748;3.09
702;1964.72;581.561;3.09
703;1952.21;595.477;3.09
704;1984.26;583.514;3.09
705;2019.05;561.785;3.09
706;2033.7;589.618;3.09
707;2033.7;573.748;3.09
708;2013.86;567.888;3.09
709;1979.37;575.701;3.09
710;1964.72;587.42;3.09
711;1984.26;579.608;3.1
712;1999.21;571.795;3.1
713;1999.21;553.972;3.1
714;1989.44;573.748;3.1
715;1957.09;589.618;3.1
716;1927.49;559.832;3.1
717;1944.89;579.608;3.1
718;1981.81;581.561;3.1
719;1996.77;577.654;3.1
720;2004.09;559.832;3.1
721;1996.77;575.701;3.1
722;1972.05;577.654;3.1
723;1957.09;597.43;3.1
724;1989.44;577.654;3.1
725;2021.49;565.935;3.1
726;2036.14;593.524;3.11
727;2036.14;569.842;3.11
728;2013.86;569.842;3.11
729;1981.81;571.795;3.11
730;1967.17;589.618;3.11
731;1986.7;573.748;3.11
732;2004.09;569.842;3.11
733;2006.53;550.066;3.11
734;1994.33;579.608;3.11
735;1962.28;585.467;3.11
736;1929.93;553.972;3.11
737;1947.33;583.514;3.11
738;1984.26;579.608;3.11
739;1994.33;579.608;3.11
740;2006.53;559.832;3.11
741;2001.65;585.467;3.11
742;1976.93;577.654;3.12
743;1957.09;601.337;3.12
744;1984.26;571.795;3.12
745;2021.49;569.842;3.12
746;2038.58;597.43;3.12
747;2046.21;563.738;3.12
748;2026.37;573.748;3.12
749;1991.89;571.795;3.12
750;1969.61;587.42;3.12
751;1989.44;561.785;3.12
752;2004.09;573.748;3.12
753;2008.98;548.112;3.12
754;2001.65;585.467;3.12
755;1974.49;579.608;3.12
756;1935.12;555.925;3.12
757;1942.45;589.618;3.12
758;1981.81;579.608;3.13
759;1999.21;573.748;3.13
760;2008.98;559.832;3.13
761;2006.53;573.748;3.13
762;1981.81;581.561;3.13
763;1962.28;589.618;3.13
764;1984.26;587.42;3.13
765;2023.93;561.785;3.13
766;2036.14;589.618;3.13
767;2043.77;577.654;3.13
768;2023.93;565.935;3.13
769;1991.89;575.701;3.13
770;1967.17;587.42;3.13
771;1989.44;579.608;3.13
772;2004.09;569.842;3.13
773;2008.98;555.925;3.13
774;2001.65;571.795;3.14
775;1972.05;587.42;3.14
776;1935.12;559.832;3.14
777;1944.89;579.608;3.14
778;1984.26;585.467;3.14
779;2004.09;575.701;3.14
780;2011.42;559.832;3.14
781;2006.53;573.748;3.14
782;1981.81;577.654;3.14
783;1962.28;595.477;3.14
784;1989.44;575.701;3.14
785;2023.93;563.738;3.14
786;2043.77;591.571;3.14
787;2048.65;569.842;3.14
788;2023.93;571.795;3.14
789;1991.89;575.701;3.14
790;1974.49;587.42;3.15
791;1994.33;575.701;3.15
792;2006.53;569.842;3.15
793;2011.42;552.019;3.15
794;2004.09;579.608;3.15
795;1972.05;583.514;3.15
796;1940;557.878;3.15
797;1947.33;581.561;3.15
798;1989.44;581.561;3.15
799;2004.09;581.561;3.15
800;2011.42;559.832;3.15
801;2008.98;581.561;3.15
802;1984.26;579.608;3.15
803;1964.72;601.337;3.15
804;1991.89;571.795;3.15
805;2028.81;567.888;3.15
806;2046.21;595.477;3.16
807;2048.65;565.935;3.16
808;2028.81;573.748;3.16
809;1994.33;571.795;3.16
810;1974.49;591.571;3.16
811;1996.77;565.935;3.16
812;2008.98;571.795;3.16
813;2016.61;548.112;3.16
814;2004.09;587.42;3.16
815;1974.49;583.514;3.16
816;1940;555.925;3.16
817;1947.33;587.42;3.16
818;1989.44;577.654;3.16
819;2004.09;577.654;3.16
820;2016.61;559.832;3.16
821;2006.53;575.701;3.16
822;1984.26;577.654;3.17
823;1964.72;597.43;3.17
824;1991.89;575.701;3.17
825;2031.25;565.935;3.17
826;2048.65;593.524;3.17
827;2051.09;569.842;3.17
828;2028.81;569.842;3.17
829;1991.89;573.748;3.17
830;1979.37;589.618;3.17
831;1991.89;573.748;3.17
832;2008.98;571.795;3.17
833;2016.61;550.066;3.17
834;2006.53;579.608;3.17
835;1976.93;585.467;3.17
836;1940;557.878;3.17
837;1949.77;585.467;3.17
838;1989.44;579.608;3.17
839;2004.09;579.608;3.18
840;2013.86;561.785;3.18
841;2011.42;585.467;3.18
842;1984.26;579.608;3.18
843;1964.72;601.337;3.18
844;1994.33;573.748;3.18
845;2028.81;567.888;3.18
846;2046.21;595.477;3.18
847;2051.09;565.935;3.18
848;2028.81;573.748;3.18
849;1994.33;569.842;3.18
850;1976.93;589.618;3.18
851;1996.77;559.832;3.18
852;2011.42;567.888;3.18
853;2016.61;561.785;3.18
854;2006.53;567.888;3.18
855;1974.49;593.524;3.19
856;1940;565.935;3.19
857;1949.77;577.654;3.19
858;1989.44;591.571;3.19
859;2004.09;575.701;3.19
860;2016.61;559.832;3.19
861;2008.98;573.748;3.19
862;1981.81;581.561;3.19
863;1964.72;591.571;3.19
864;1996.77;583.514;3.19
865;2036.14;561.785;3.19
866;2048.65;589.618;3.19
867;2055.97;573.748;3.19
868;2036.14;567.888;3.19
869;1999.21;575.701;3.19
870;1984.26;587.42;3.19
871;2001.65;579.608;3.2
872;2016.61;569.842;3.2
873;2019.05;555.925;3.2
874;2006.53;575.701;3.2
875;1974.49;587.42;3.2
876;1937.56;561.785;3.2
877;1949.77;579.608;3.2
878;1986.7;585.467;3.2
879;2004.09;573.748;3.2
880;2013.86;561.785;3.2
881;2006.53;575.701;3.2
882;1981.81;579.608;3.2
883;1964.72;599.384;3.2
884;1999.21;581.561;3.2
885;2033.7;565.935;3.2
886;2053.53;591.571;3.2
887;2058.42;569.842;3.21
888;2033.7;571.795;3.21
889;1999.21;573.748;3.21
890;1981.81;589.618;3.21
891;2001.65;575.701;3.21
892;2016.61;571.795;3.21
893;2021.49;552.019;3.21
894;2008.98;581.561;3.21
895;1974.49;585.467;3.21
896;1940;555.925;3.21
897;1952.21;583.514;3.21
898;1989.44;581.561;3.21
899;2004.09;575.701;3.21
900;2013.86;561.785;3.21
901;2006.53;585.467;3.21
902;1984.26;579.608;3.21
903;1967.17;601.337;3.21
904;2001.65;571.795;3.22
905;2033.7;567.888;3.22
906;2053.53;595.477;3.22
907;2058.42;565.935;3.22
908;2033.7;573.748;3.22
909;2001.65;571.795;3.22
910;1984.26;587.42;3.22
911;2001.65;565.935;3.22
912;2013.86;571.795;3.22
913;2019.05;552.019;3.22
914;2006.53;565.935;3.22
915;1974.49;593.524;3.22
916;1937.56;565.935;3.22
917;1952.21;573.748;3.22
918;1986.7;591.571;3.22
919;2004.09;573.748;3.22
920;2013.86;561.785;3.23
921;2004.09;571.795;3.23
922;1981.81;583.514;3.23
923;1967.17;589.618;3.23
924;1981.81;583.514;3.23
925;2026.37;557.878;3.23
926;2046.21;587.42;3.23
927;2055.97;575.701;3.23
928;2043.77;565.935;3.23
929;2013.86;575.701;3.23
930;1986.7;587.42;3.23
931;1994.33;577.654;3.23
932;2016.61;569.842;3.23
933;2021.49;557.878;3.23
934;2016.61;575.701;3.23
935;1991.89;589.618;3.23
936;1952.21;559.832;3.23
937;1940;579.608;3.24
938;1979.37;585.467;3.24
939;2004.09;573.748;3.24
940;2016.61;561.785;3.24
941;2013.86;575.701;3.24
942;1994.33;581.561;3.24
943;1969.61;595.477;3.24
944;1984.26;579.608;3.24
945;2023.93;565.935;3.24
946;2048.65;591.571;3.24
947;2058.42;571.795;3.24
948;2046.21;567.888;3.24
949;2013.86;575.701;3.24
950;1984.26;589.618;3.24
951;1994.33;577.654;3.24
952;2013.86;571.795;3.24
953;2021.49;552.019;3.25
954;2013.86;577.654;3.25
955;1989.44;587.42;3.25
956;1949.77;557.878;3.25
957;1937.56;583.514;3.25
958;1979.37;581.561;3.25
959;2001.65;577.654;3.25
960;2008.98;557.878;3.25
961;2011.42;581.561;3.25
962;1994.33;579.608;3.25
963;1969.61;599.384;3.25
964;1984.26;571.795;3.25
965;2028.81;567.888;3.25
966;2048.65;595.477;3.25
967;2058.42;567.888;3.25
968;2046.21;571.795;3.25
969;2013.86;573.748;3.25
970;1984.26;589.618;3.26
971;1996.77;567.888;3.26
972;2013.86;571.795;3.26
973;2019.05;548.112;3.26
974;2016.61;583.514;3.26
975;1989.44;581.561;3.26
976;1949.77;561.785;3.26
977;1940;581.561;3.26
978;1979.37;585.467;3.26
979;1999.21;573.748;3.26
980;2011.42;561.785;3.26
981;2008.98;573.748;3.26
982;1991.89;579.608;3.26
983;1964.72;597.43;3.26
984;1984.26;577.654;3.26
985;2028.81;563.738;3.26
986;2048.65;593.524;3.26
987;2060.86;567.888;3.27
988;2048.65;569.842;3.27
989;2013.86;571.795;3.27
990;1984.26;589.618;3.27
991;1994.33;577.654;3.27
992;2016.61;571.795;3.27
993;2021.49;550.066;3.27
994;2016.61;581.561;3.27
995;1989.44;585.467;3.27
996;1952.21;555.925;3.27
997;1942.45;581.561;3.27
998;1981.81;581.561;3.27
999;1999.21;577.654;3.27
1000;2008.98;557.878;3.27
1001;2008.98;581.561;3.27
1002;1991.89;577.654;3.27
1003;1967.17;601.337;3.27
1004;1984.26;571.795;3.28
1005;2028.81;567.888;3.28
1006;2051.09;591.571;3.28
1007;2060.86;577.654;3.28
1008;2051.09;559.832;3.28
1009;2016.61;575.701;3.28
1010;1986.7;585.467;3.28
1011;1996.77;579.608;3.28
1012;2016.61;563.738;3.28
1013;2019.05;561.785;3.28
1014;2016.61;565.935;3.28
1015;1989.44;593.524;3.28
1016;1947.33;565.935;3.28
1017;1940;575.701;3.28
1018;1981.81;591.571;3.28
1019;2001.65;573.748;3.28
1020;2011.42;559.832;3.28
1021;2011.42;571.795;3.29
1022;1991.89;581.561;3.29
1023;1967.17;585.467;3.29
1024;1984.26;585.467;3.29
1025;2028.81;555.925;3.29
1026;2048.65;585.467;3.29
1027;2058.42;573.748;3.29
1028;2046.21;563.738;3.29
1029;2011.42;573.748;3.29
1030;1984.26;587.42;3.29
1031;1996.77;577.654;3.29
1032;2016.61;567.888;3.29
1033;2019.05;555.925;3.29
1034;2013.86;573.748;3.29
1035;1984.26;589.618;3.29
1036;1949.77;559.832;3.29
1037;1940;577.654;3.29
1038;1981.81;585.467;3.3
1039;1999.21;573.748;3.3
1040;2006.53;559.832;3.3
1041;2008.98;575.701;3.3
1042;1989.44;581.561;3.3
1043;1967.17;595.477;3.3
1044;1984.26;577.654;3.3
1045;2028.81;563.738;3.3
1046;2048.65;593.524;3.3
1047;2058.42;571.795;3.3
1048;2048.65;567.888;3.3
1049;2011.42;571.795;3.3
1050;1986.7;585.467;3.3
1051;1996.77;577.654;3.3
1052;2016.61;569.842;3.3
1053;2021.49;552.019;3.3
1054;2013.86;577.654;3.3
1055;1986.7;585.467;3.31
1056;1947.33;557.878;3.31
1057;1942.45;579.608;3.31
1058;1981.81;583.514;3.31
1059;2001.65;575.701;3.31
1060;2013.86;559.832;3.31
1061;2008.98;579.608;3.31
1062;1989.44;577.654;3.31
1063;1967.17;601.337;3.31
1064;1986.7;573.748;3.31
1065;2028.81;565.935;3.31
1066;2048.65;595.477;3.31
1067;2055.97;565.935;3.31
1068;2043.77;571.795;3.31
1069;2008.98;575.701;3.31
1070;1984.26;583.514;3.31
1071;1994.33;581.561;3.31
1072;2011.42;565.935;3.31
1073;2021.49;565.935;3.32
1074;2016.61;563.738;3.32
1075;1986.7;597.43;3.32
1076;1944.89;569.842;3.32
1077;1940;569.842;3.32
1078;1979.37;593.524;3.32
1079;1996.77;573.748;3.32
1080;2008.98;559.832;3.32
1081;2004.09;571.795;3.32
1082;1989.44;579.608;3.32
1083;1964.72;589.618;3.32
1084;1989.44;585.467;3.32
1085;2028.81;555.925;3.32
1086;2051.09;583.514;3.32
1087;2060.86;575.701;3.32
1088;2048.65;565.935;3.32
1089;2013.86;573.748;3.32
1090;1986.7;583.514;3.33
1091;2001.65;579.608;3.33
1092;2013.86;565.935;3.33
1093;2019.05;557.878;3.33
1094;2011.42;569.842;3.33
1095;1981.81;591.571;3.33
1096;1940;561.785;3.33
1097;1937.56;577.654;3.33
1098;1976.93;585.467;3.33
1099;1994.33;573.748;3.33
1100;2006.53;559.832;3.33
1101;2004.09;573.748;3.33
1102;1986.7;579.608;3.33
1103;1962.28;593.524;3.33
1104;1986.7;579.608;3.33
1105;2031.25;559.832;3.33
1106;2051.09;589.618;3.33
1107;2060.86;571.795;3.33
1108;2048.65;567.888;3.34
1109;2016.61;573.748;3.34
1110;1986.7;585.467;3.34
1111;1999.21;577.654;3.34
1112;2013.86;567.888;3.34
1113;2016.61;552.019;3.34
1114;2008.98;575.701;3.34
1115;1981.81;585.467;3.34
1116;1940;557.878;3.34
1117;1937.56;579.608;3.34
1118;1976.93;583.514;3.34
1119;1994.33;575.701;3.34
1120;2006.53;559.832;3.34
1121;2006.53;575.701;3.34
1122;1986.7;579.608;3.34
1123;1962.28;599.384;3.34
1124;1989.44;573.748;3.34
1125;2031.25;563.738;3.34
1126;2051.09;591.571;3.35
1127;2060.86;567.888;3.35
1128;2046.21;569.842;3.35
1129;2013.86;571.795;3.35
1130;1986.7;587.42;3.35
1131;2001.65;579.608;3.35
1132;2013.86;567.888;3.35
1133;2019.05;555.925;3.35
1134;2008.98;573.748;3.35
1135;1981.81;585.467;3.35
1136;1944.89;559.832;3.35
1137;1937.56;579.608;3.35
1138;1976.93;585.467;3.35
1139;1994.33;573.748;3.35
1140;2006.53;561.785;3.35
1141;2004.09;573.748;3.35
1142;1984.26;579.608;3.35
1143;1962.28;595.477;3.35
1144;1986.7;575.701;3.36
1145;2031.25;561.785;3.36
1146;2051.09;591.571;3.36
1147;2060.86;571.795;3.36
1148;2046.21;565.935;3.36
1149;2011.42;573.748;3.36
1150;1984.26;585.467;3.36
1151;1996.77;575.701;3.36
1152;2008.98;567.888;3.36
1153;2016.61;550.066;3.36
1154;2008.98;579.608;3.36
1155;1976.93;585.467;3.36
1156;1937.56;555.925;3.36
1157;1935.12;581.561;3.36
1158;1974.49;579.608;3.36
1159;1994.33;575.701;3.36
1160;2006.53;559.832;3.36
1161;2001.65;583.514;3.36
1162;1979.37;585.467;3.37
1163;1962.28;581.561;3.37
1164;1986.7;589.618;3.37
1165;2026.37;550.066;3.37
1166;2048.65;581.561;3.37
1167;2058.42;579.608;3.37
1168;2041.02;557.878;3.37
1169;2006.53;573.748;3.37
1170;1984.26;581.561;3.37
1171;1996.77;581.561;3.37
1172;2011.42;563.738;3.37
1173;2019.05;559.832;3.37
1174;2008.98;563.738;3.37
1175;1976.93;593.524;3.37
1176;1937.56;563.738;3.37
1177;1937.56;571.795;3.37
1178;1976.93;591.571;3.37
1179;1994.33;571.795;3.37
1180;2006.53;561.785;3.37
1181;2004.09;569.842;3.38
1182;1984.26;581.561;3.38
1183;1962.28;585.467;3.38
1184;1986.7;583.514;3.38
1185;2028.81;553.972;3.38
1186;2046.21;585.467;3.38
1187;2058.42;573.748;3.38
1188;2041.02;561.785;3.38
1189;2006.53;573.748;3.38
1190;1981.81;585.467;3.38
1191;1994.33;579.608;3.38
1192;2006.53;565.935;3.38
1193;2011.42;553.972;3.38
1194;2004.09;569.842;3.38
1195;1972.05;589.618;3.38
1196;1935.12;561.785;3.38
1197;1935.12;577.654;3.38
1198;1974.49;587.42;3.38
1199;1991.89;571.795;3.39
1200;2001.65;559.832;3.39
1201;2001.65;569.842;3.39
1202;1981.81;579.608;3.39
1203;1962.28;593.524;3.39
1204;1984.26;577.654;3.39
1205;2023.93;559.832;3.39
1206;2043.77;589.618;3.39
1207;2053.53;569.842;3.39
1208;2036.14;565.935;3.39
1209;2001.65;575.701;3.39
1210;1979.37;585.467;3.39
1211;1994.33;575.701;3.39
1212;2008.98;567.888;3.39
1213;2011.42;550.066;3.39
1214;2004.09;575.701;3.39
1215;1972.05;583.514;3.39
1216;1932.37;555.925;3.39
1217;1935.12;579.608;3.4
1218;1974.49;579.608;3.4
1219;1991.89;573.748;3.4
1220;2004.09;557.878;3.4
1221;1999.21;577.654;3.4
1222;1981.81;577.654;3.4
1223;1959.54;579.608;3.4
1224;1984.26;591.571;3.4
1225;2026.37;548.112;3.4
1226;2046.21;579.608;3.4
1227;2053.53;581.561;3.4
1228;2038.58;550.066;3.4
1229;2006.53;571.795;3.4
1230;1981.81;581.561;3.4
1231;1994.33;583.514;3.4
1232;2008.98;559.832;3.4
1233;2013.86;561.785;3.4
1234;2001.65;559.832;3.41
1235;1969.61;593.524;3.41
1236;1929.93;565.935;3.41
1237;1932.37;567.888;3.41
1238;1972.05;593.524;3.41
1239;1989.44;571.795;3.41
1240;2001.65;559.832;3.41
1241;1996.77;567.888;3.41
1242;1976.93;581.561;3.41
1243;1957.09;587.42;3.41
1244;1986.7;583.514;3.41
1245;2026.37;553.972;3.41
1246;2046.21;581.561;3.41
1247;2053.53;575.701;3.41
1248;2036.14;557.878;3.41
1249;2004.09;571.795;3.41
1250;1979.37;583.514;3.41
1251;1994.33;579.608;3.42
1252;2006.53;565.935;3.42
1253;2008.98;555.925;3.42
1254;1999.21;565.935;3.42
1255;1969.61;593.524;3.42
1256;1929.93;559.832;3.42
1257;1929.93;571.795;3.42
1258;1967.17;587.42;3.42
1259;1984.26;571.795;3.42
1260;1996.77;561.785;3.42
1261;1991.89;567.888;3.42
1262;1974.49;579.608;3.42
1263;1949.77;589.618;3.42
1264;1979.37;579.608;3.42
1265;2023.93;555.925;3.42
1266;2041.02;587.42;3.42
1267;2051.09;569.842;3.42
1268;2036.14;565.935;3.43
1269;1996.77;571.795;3.43
1270;1976.93;583.514;3.43
1271;1991.89;577.654;3.43
1272;2004.09;567.888;3.43
1273;2006.53;550.066;3.43
1274;1996.77;573.748;3.43
1275;1964.72;585.467;3.43
1276;1927.49;557.878;3.43
1277;1925.05;577.654;3.43
1278;1967.17;581.561;3.43
1279;1984.26;569.842;3.43
1280;1991.89;557.878;3.43
1281;1991.89;569.842;3.43
1282;1972.05;577.654;3.43
1283;1947.33;595.477;3.43
1284;1979.37;573.748;3.43
1285;2019.05;552.019;3.43
1286;2038.58;585.467;3.44
1287;2046.21;575.701;3.44
1288;2031.25;559.832;3.44
1289;1996.77;571.795;3.44
1290;1974.49;579.608;3.44
1291;1989.44;577.654;3.44
1292;2001.65;567.888;3.44
1293;2004.09;553.972;3.44
1294;2001.65;569.842;3.44
1295;1979.37;589.618;3.44
1296;1942.45;559.832;3.44
1297;1917.73;575.701;3.44
1298;1954.65;583.514;3.44
1299;1979.37;571.795;3.44
1300;1989.44;557.878;3.44
1301;1994.33;569.842;3.44
1302;1981.81;579.608;3.44
1303;1957.09;589.618;3.45
1304;1962.28;575.701;3.45
1305;2011.42;559.832;3.45
1306;2033.7;585.467;3.45
1307;2046.21;567.888;3.45
1308;2043.77;565.935;3.45
1309;2011.42;571.795;3.45
1310;1979.37;583.514;3.45
1311;1979.37;575.701;3.45
1312;1999.21;567.888;3.45
1313;2001.65;552.019;3.45
1314;1996.77;573.748;3.45
1315;1976.93;583.514;3.45
1316;1937.56;569.842;3.45
1317;1915.28;563.738;3.45
1318;1949.77;597.43;3.45
1319;1976.93;571.795;3.45
1320;1989.44;565.935;3.46
1321;1991.89;561.785;3.46
1322;1979.37;585.467;3.46
1323;1952.21;577.654;3.46
1324;1959.54;587.42;3.46
1325;2006.53;546.159;3.46
1326;2031.25;577.654;3.46
1327;2041.02;577.654;3.46
1328;2036.14;553.972;3.46
1329;2004.09;571.795;3.46
1330;1974.49;579.608;3.46
1331;1979.37;579.608;3.46
1332;1996.77;561.785;3.46
1333;1999.21;555.925;3.46
1334;1999.21;557.878;3.46
1335;1976.93;593.524;3.46
1336;1935.12;565.935;3.46
1337;1917.73;567.888;3.47
1338;1952.21;593.524;3.47
1339;1979.37;571.795;3.47
1340;1989.44;559.832;3.47
1341;1991.89;565.935;3.47
1342;1976.93;581.561;3.47
1343;1949.77;587.42;3.47
1344;1957.09;585.467;3.47
1345;2004.09;550.066;3.47
1346;2023.93;581.561;3.47
1347;2036.14;573.748;3.47
1348;2028.81;559.832;3.47
1349;1996.77;571.795;3.47
1350;1969.61;583.514;3.47
1351;1972.05;577.654;3.47
1352;1989.44;563.738;3.47
1353;1996.77;555.925;3.47
1354;1994.33;565.935;3.48
1355;1974.49;589.618;3.48
1356;1935.12;559.832;3.48
1357;1917.73;571.795;3.48
1358;1957.09;585.467;3.48
1359;1979.37;571.795;3.48
1360;1991.89;557.878;3.48
1361;1994.33;569.842;3.48
1362;1976.93;577.654;3.48
1363;1952.21;587.42;3.48
1364;1959.54;577.654;3.48
1365;1999.21;555.925;3.48
1366;2023.93;585.467;3.48
1367;2033.7;571.795;3.48
1368;2026.37;561.785;3.48
1369;1999.21;571.795;3.48
1370;1967.17;583.514;3.48
1371;1969.61;573.748;3.49
1372;1989.44;565.935;3.49
1373;1996.77;552.019;3.49
1374;1994.33;571.795;3.49
1375;1969.61;583.514;3.49
1376;1932.37;555.925;3.49
1377;1915.28;579.608;3.49
1378;1949.77;577.654;3.49
1379;1976.93;571.795;3.49
1380;1984.26;567.888;3.49
1381;1989.44;559.832;3.49
1382;1972.05;583.514;3.49
1383;1949.77;575.701;3.49
1384;1954.65;591.571;3.49
1385;1999.21;544.206;3.49
1386;2021.49;573.748;3.49
1387;2028.81;579.608;3.49
1388;2026.37;550.066;3.49
1389;1991.89;571.795;3.5
1390;1962.28;579.608;3.5
1391;1969.61;579.608;3.5
1392;1986.7;561.785;3.5
1393;1991.89;559.832;3.5
1394;1991.89;559.832;3.5
1395;1969.61;595.477;3.5
1396;1932.37;563.738;3.5
1397;1912.84;565.935;3.5
1398;1949.77;593.524;3.5
1399;1972.05;571.795;3.5
1400;1984.26;563.738;3.5
1401;1984.26;563.738;3.5
1402;1969.61;579.608;3.5
1403;1942.45;579.608;3.5
1404;1949.77;583.514;3.5
1405;1996.77;548.112;3.5
1406;2016.61;579.608;3.51
1407;2028.81;575.701;3.51
1408;2021.49;555.925;3.51
1409;1991.89;571.795;3.51
1410;1962.28;579.608;3.51
1411;1967.17;577.654;3.51
1412;1981.81;561.785;3.51
1413;1991.89;557.878;3.51
1414;1986.7;561.785;3.51
1415;1967.17;591.571;3.51
1416;1927.49;561.785;3.51
1417;1910.4;567.888;3.51
1418;1947.33;585.467;3.51
1419;1972.05;569.842;3.51
1420;1981.81;555.925;3.51
1421;1984.26;565.935;3.51
1422;1969.61;577.654;3.51
1423;1944.89;587.42;3.52
1424;1957.09;581.561;3.52
1425;1996.77;555.925;3.52
1426;2019.05;583.514;3.52
1427;2026.37;569.842;3.52
1428;2019.05;559.832;3.52
1429;1989.44;571.795;3.52
1430;1959.54;579.608;3.52
1431;1964.72;575.701;3.52
1432;1984.26;563.738;3.52
1433;1989.44;553.972;3.52
1434;1986.7;567.888;3.52
1435;1962.28;587.42;3.52
1436;1925.05;553.972;3.52
1437;1910.4;573.748;3.52
1438;1947.33;579.608;3.52
1439;1967.17;569.842;3.52
1440;1981.81;557.878;3.53
1441;1984.26;565.935;3.53
1442;1967.17;579.608;3.53
1443;1940;585.467;3.53
1444;1952.21;581.561;3.53
1445;1994.33;552.019;3.53
1446;2013.86;581.561;3.53
1447;2026.37;573.748;3.53
1448;2016.61;561.785;3.53
1449;1986.7;571.795;3.53
1450;1957.09;581.561;3.53
1451;1967.17;577.654;3.53
1452;1984.26;565.935;3.53
1453;1984.26;553.972;3.53
1454;1984.26;563.738;3.53
1455;1962.28;587.42;3.53
1456;1922.61;557.878;3.53
1457;1907.96;569.842;3.54
1458;1944.89;585.467;3.54
1459;1967.17;569.842;3.54
1460;1976.93;557.878;3.54
1461;1979.37;567.888;3.54
1462;1962.28;577.654;3.54
1463;1935.12;587.42;3.54
1464;1949.77;579.608;3.54
1465;1991.89;555.925;3.54
1466;2011.42;585.467;3.54
1467;2023.93;567.888;3.54
1468;2016.61;561.785;3.54
1469;1984.26;571.795;3.54
1470;1954.65;583.514;3.54
1471;1962.28;575.701;3.54
1472;1981.81;555.925;3.54
1473;1984.26;565.935;3.54
1474;1984.26;552.019;3.54
1475;1962.28;599.384;3.55
1476;1922.61;569.842;3.55
1477;1907.96;561.785;3.55
1478;1942.45;591.571;3.55
1479;1967.17;571.795;3.55
1480;1976.93;563.738;3.55
1481;1976.93;559.832;3.55
1482;1962.28;583.514;3.55
1483;1937.56;575.701;3.55
1484;1949.77;589.618;3.55
1485;1991.89;544.206;3.55
1486;2013.86;573.748;3.55
1487;2023.93;581.561;3.55
1488;2013.86;548.112;3.55
1489;1981.81;571.795;3.55
1490;1952.21;571.795;3.55
1491;1962.28;579.608;3.55
1492;1976.93;559.832;3.56
1493;1984.26;563.738;3.56
1494;1981.81;555.925;3.56
1495;1957.09;593.524;3.56
1496;1917.73;565.935;3.56
1497;1905.21;565.935;3.56
1498;1942.45;593.524;3.56
1499;1967.17;569.842;3.56
1500;1976.93;557.878;3.56
1501;1979.37;563.738;3.56
1502;1962.28;579.608;3.56
1503;1935.12;579.608;3.56
1504;1944.89;585.467;3.56
1505;1991.89;550.066;3.56
1506;2008.98;579.608;3.56
1507;2016.61;573.748;3.56
1508;2008.98;557.878;3.56
1509;1976.93;571.795;3.56
1510;1947.33;579.608;3.57
1511;1954.65;575.701;3.57
1512;1976.93;559.832;3.57
1513;1979.37;559.832;3.57
1514;1974.49;561.785;3.57
1515;1952.21;587.42;3.57
1516;1912.84;561.785;3.57
1517;1902.77;571.795;3.57
1518;1937.56;585.467;3.57
1519;1962.28;569.842;3.57
1520;1972.05;553.972;3.57
1521;1974.49;567.888;3.57
1522;1957.09;577.654;3.57
1523;1929.93;583.514;3.57
1524;1947.33;577.654;3.57
1525;1986.7;553.972;3.57
1526;2004.09;581.561;3.57
1527;2016.61;569.842;3.58
1528;2006.53;559.832;3.58
1529;1976.93;569.842;3.58
1530;1947.33;581.561;3.58
1531;1957.09;575.701;3.58
1532;1974.49;561.785;3.58
1533;1976.93;552.019;3.58
1534;1976.93;550.066;3.58
1535;1952.21;597.43;3.58
1536;1912.84;571.795;3.58
1537;1897.89;559.832;3.58
1538;1937.56;593.524;3.58
1539;1959.54;569.842;3.58
1540;1969.61;565.935;3.58
1541;1972.05;561.785;3.58
1542;1954.65;585.467;3.58
1543;1929.93;573.748;3.58
1544;1944.89;591.571;3.58
1545;1986.7;542.009;3.59
1546;2004.09;571.795;3.59
1547;2016.61;577.654;3.59
1548;2004.09;548.112;3.59
1549;1976.93;569.842;3.59
1550;1947.33;573.748;3.59
1551;1959.54;577.654;3.59
1552;1974.49;555.925;3.59
1553;1979.37;565.935;3.59
1554;1976.93;552.019;3.59
1555;1949.77;597.43;3.59
1556;1912.84;567.888;3.59
1557;1905.21;565.935;3.59
1558;1942.45;593.524;3.59
1559;1962.28;569.842;3.59
1560;1969.61;561.785;3.59
1561;1969.61;563.738;3.59
1562;1949.77;579.608;3.6
1563;1925.05;577.654;3.6
1564;1940;587.42;3.6
1565;1981.81;548.112;3.6
1566;1999.21;575.701;3.6
1567;2008.98;573.748;3.6
1568;1996.77;553.972;3.6
1569;1964.72;569.842;3.6
1570;1937.56;575.701;3.6
1571;1947.33;579.608;3.6
1572;1964.72;557.878;3.6
1573;1972.05;557.878;3.6
1574;1967.17;559.832;3.6
1575;1942.45;589.618;3.6
1576;1902.77;561.785;3.6
1577;1897.89;567.888;3.6
1578;1937.56;587.42;3.6
1579;1957.09;569.842;3.6
1580;1967.17;557.878;3.61
1581;1969.61;565.935;3.61
1582;1952.21;577.654;3.61
1583;1925.05;581.561;3.61
1584;1942.45;579.608;3.61
1585;1981.81;553.972;3.61
1586;1999.21;579.608;3.61
1587;2008.98;569.842;3.61
1588;1994.33;557.878;3.61
1589;1964.72;569.842;3.61
1590;1935.12;581.561;3.61
1591;1949.77;575.701;3.61
1592;1964.72;561.785;3.61
1593;1969.61;553.972;3.61
1594;1964.72;565.935;3.61
1595;1942.45;585.467;3.61
1596;1902.77;563.738;3.61
1597;1897.89;563.738;3.61
1598;1935.12;587.42;3.62
1599;1954.65;567.888;3.62
1600;1969.61;557.878;3.62
1601;1967.17;561.785;3.62
1602;1947.33;577.654;3.62
1603;1922.61;579.608;3.62
1604;1937.56;583.514;3.62
1605;1979.37;550.066;3.62
1606;1996.77;577.654;3.62
1607;2004.09;575.701;3.62
1608;1991.89;555.925;3.62
1609;1962.28;569.842;3.62
1610;1932.37;579.608;3.62
1611;1942.45;575.701;3.62
1612;1959.54;561.785;3.62
1613;1964.72;557.878;3.62
1614;1959.54;561.785;3.62
1615;1937.56;589.618;3.62
1616;1900.33;557.878;3.62
1617;1895.45;567.888;3.63
1618;1932.37;585.467;3.63
1619;1949.77;569.842;3.63
1620;1964.72;557.878;3.63
1621;1962.28;565.935;3.63
1622;1942.45;577.654;3.63
1623;1920.17;583.514;3.63
1624;1935.12;577.654;3.63
1625;1976.93;553.972;3.63
1626;1989.44;581.561;3.63
1627;2001.65;569.842;3.63
1628;1986.7;552.019;3.63
1629;1957.09;571.795;3.63
1630;1929.93;567.888;3.63
1631;1942.45;581.561;3.63
1632;1954.65;550.066;3.63
1633;1962.28;565.935;3.63
1634;1957.09;550.066;3.63
1635;1935.12;595.477;3.64
1636;1895.45;569.842;3.64
1637;1890.56;559.832;3.64
1638;1929.93;593.524;3.64
1639;1949.77;569.842;3.64
1640;1959.54;565.935;3.64
1641;1957.09;561.785;3.64
1642;1940;585.467;3.64
1643;1917.73;573.748;3.64
1644;1932.37;591.571;3.64
1645;1974.49;542.009;3.64
1646;1986.7;571.795;3.64
1647;1996.77;577.654;3.64
1648;1981.81;548.112;3.64
1649;1949.77;569.842;3.64
1650;1925.05;573.748;3.64
1651;1937.56;579.608;3.64
1652;1952.21;555.925;3.64
1653;1959.54;563.738;3.64
1654;1954.65;555.925;3.65
1655;1929.93;593.524;3.65
1656;1893.01;567.888;3.65
1657;1890.56;563.738;3.65
1658;1929.93;591.571;3.65
1659;1949.77;567.888;3.65
1660;1957.09;559.832;3.65
1661;1962.28;563.738;3.65
1662;1944.89;577.654;3.65
1663;1920.17;575.701;3.65
1664;1925.05;585.467;3.65
1665;1964.72;548.112;3.65
1666;1984.26;575.701;3.65
1667;1994.33;573.748;3.65
1668;1984.26;553.972;3.65
1669;1954.65;569.842;3.65
1670;1925.05;579.608;3.65
1671;1929.93;575.701;3.65
1672;1949.77;559.832;3.66
1673;1957.09;559.832;3.66
1674;1954.65;557.878;3.66
1675;1935.12;589.618;3.66
1676;1895.45;559.832;3.66
1677;1880.8;567.888;3.66
1678;1917.73;585.467;3.66
1679;1940;567.888;3.66
1680;1952.21;553.972;3.66
1681;1957.09;563.738;3.66
1682;1937.56;575.701;3.66
1683;1912.84;579.608;3.66
1684;1920.17;579.608;3.66
1685;1962.28;552.019;3.66
1686;1979.37;581.561;3.66
1687;1989.44;569.842;3.66
1688;1981.81;557.878;3.66
1689;1952.21;569.842;3.66
1690;1920.17;565.935;3.66
1691;1925.05;581.561;3.67
1692;1944.89;552.019;3.67
1693;1949.77;565.935;3.67
1694;1954.65;546.159;3.67
1695;1927.49;595.477;3.67
1696;1893.01;571.795;3.67
1697;1878.05;559.832;3.67
1698;1912.84;591.571;3.67
1699;1937.56;567.888;3.67
1700;1947.33;567.888;3.67
1701;1949.77;557.878;3.67
1702;1935.12;585.467;3.67
1703;1910.4;567.888;3.67
1704;1917.73;589.618;3.67
1705;1959.54;544.206;3.67
1706;1976.93;567.888;3.67
1707;1986.7;577.654;3.67
1708;1981.81;546.159;3.67
1709;1947.33;567.888;3.67
1710;1917.73;573.748;3.68
1711;1927.49;577.654;3.68
1712;1944.89;553.972;3.68
1713;1949.77;563.738;3.68
1714;1944.89;552.019;3.68
1715;1927.49;593.524;3.68
1716;1890.56;565.935;3.68
1717;1875.61;559.832;3.68
1718;1912.84;593.524;3.68
1719;1935.12;567.888;3.68
1720;1947.33;559.832;3.68
1721;1949.77;561.785;3.68
1722;1935.12;581.561;3.68
1723;1907.96;573.748;3.68
1724;1915.28;585.467;3.68
1725;1957.09;546.159;3.68
1726;1974.49;573.748;3.68
1727;1981.81;573.748;3.68
1728;1974.49;550.066;3.68
1729;1944.89;569.842;3.68
1730;1912.84;575.701;3.69
1731;1922.61;575.701;3.69
1732;1942.45;555.925;3.69
1733;1947.33;561.785;3.69
1734;1944.89;555.925;3.69
1735;1925.05;591.571;3.69
1736;1888.12;557.878;3.69
1737;1873.17;565.935;3.69
1738;1910.4;587.42;3.69
1739;1932.37;567.888;3.69
1740;1940;557.878;3.69
1741;1944.89;563.738;3.69
1742;1925.05;577.654;3.69
1743;1902.77;579.608;3.69
1744;1910.4;581.561;3.69
1745;1952.21;550.066;3.69
1746;1972.05;577.654;3.69
1747;1981.81;569.842;3.69
1748;1974.49;555.925;3.69
1749;1944.89;567.888;3.69
1750;1915.28;577.654;3.69
1751;1917.73;573.748;3.7
1752;1940;553.972;3.7
1753;1942.45;561.785;3.7
1754;1940;552.019;3.7
1755;1920.17;593.524;3.7
1756;1883.24;563.738;3.7
1757;1868.29;563.738;3.7
1758;1910.4;591.571;3.7
1759;1929.93;565.935;3.7
1760;1942.45;559.832;3.7
1761;1944.89;559.832;3.7
1762;1927.49;577.654;3.7
1763;1902.77;573.748;3.7
1764;1912.84;583.514;3.7
1765;1954.65;548.112;3.7
1766;1969.61;575.701;3.7
1767;1979.37;573.748;3.7
1768;1969.61;553.972;3.7
1769;1937.56;567.888;3.7
1770;1905.21;577.654;3.7
1771;1915.28;575.701;3.71
1772;1932.37;559.832;3.71
1773;1940;557.878;3.71
1774;1940;557.878;3.71
1775;1917.73;589.618;3.71
1776;1883.24;559.832;3.71
1777;1870.73;565.935;3.71
1778;1905.21;585.467;3.71
1779;1929.93;569.842;3.71
1780;1940;553.972;3.71
1781;1944.89;565.935;3.71
1782;1927.49;575.701;3.71
1783;1897.89;579.608;3.71
1784;1910.4;587.42;3.71
1785;1947.33;548.112;3.71
1786;1967.17;565.935;3.71
1787;1974.49;579.608;3.71
1788;1967.17;552.019;3.71
1789;1937.56;567.888;3.71
1790;1907.96;565.935;3.72
1791;1917.73;579.608;3.72
1792;1932.37;552.019;3.72
1793;1940;567.888;3.72
1794;1940;548.112;3.72
1795;1917.73;595.477;3.72
1796;1880.8;569.842;3.72
1797;1870.73;559.832;3.72
1798;1907.96;591.571;3.72
1799;1925.05;565.935;3.72
1800;1937.56;565.935;3.72
1801;1940;557.878;3.72
1802;1920.17;583.514;3.72
1803;1893.01;569.842;3.72
1804;1905.21;589.618;3.72
1805;1947.33;544.206;3.72
1806;1962.28;567.888;3.72
1807;1974.49;575.701;3.72
1808;1964.72;548.112;3.72
1809;1932.37;569.842;3.72
1810;1902.77;571.795;3.73
1811;1910.4;575.701;3.73
1812;1929.93;553.972;3.73
1813;1937.56;563.738;3.73
1814;1935.12;550.066;3.73
1815;1912.84;593.524;3.73
1816;1875.61;565.935;3.73
1817;1863.4;561.785;3.73
1818;1900.33;593.524;3.73
1819;1920.17;567.888;3.73
1820;1932.37;557.878;3.73
1821;1935.12;559.832;3.73
1822;1915.28;577.654;3.73
1823;1895.45;573.748;3.73
1824;1907.96;585.467;3.73
1825;1947.33;546.159;3.73
1826;1967.17;571.795;3.73
1827;1976.93;575.701;3.73
1828;1967.17;550.066;3.73
1829;1935.12;567.888;3.73
1830;1905.21;573.748;3.73
1831;1915.28;575.701;3.74
1832;1932.37;557.878;3.74
