<WeldAnalyseData xmlns:i="http:www.w3.org/2001/XMLSchema-instance">
<WeldParameter>
<TimeStamp>DT#2023-12-05-15:12:53</TimeStamp>
<Generator>SG-22-10000</Generator>
<GenFreq>20</GenFreq>
<MaxForce>8000</MaxForce>
<MaxPower>10000</MaxPower>
<RunupPressure>1.5</RunupPressure>
<RunupDist>10</RunupDist>
<RunPress>0.8</RunPress>
<ShakeDelay>0.03</ShakeDelay>
<ShakeTime>0.3</ShakeTime>
<RunBackPress1>6</RunBackPress1>
<RunBackPress2>2</RunBackPress2>
<RunBackDist>1</RunBackDist>
<TrigValue>500</TrigValue>
<TrigModeUnit>W</TrigModeUnit>
<WeldModeUnit>Ws</WeldModeUnit>
<PressNr>0</PressNr>
<MaxLoss>1500</MaxLoss>
</WeldParameter>
<WeldSets>
<WeldSet>
<PressRiseTime>0</PressRiseTime>
<RunPressure>1</RunPressure>
<Amplitude>86</Amplitude>
<WeldMode>3270</WeldMode>
</WeldSet>
</WeldSets>
<WeldValue>
<WeldNr>2432</WeldNr>
<RecipeName>RickStyle</RecipeName>
<WeldTime>1863</WeldTime>
<DistDiff>3.87</DistDiff>
<DistAbs>78.33</DistAbs>
<Energy>3270.05</Energy>
<MaxPower>2053.5</MaxPower>
<CycleTime>6190</CycleTime>
<TrigForce>506.607</TrigForce>
<TrigDist>74.46</TrigDist>
<RunSpeed>67.876</RunSpeed>
<MaxForce>605.243</MaxForce>
<LossPower>250.042</LossPower>
</WeldValue>
</WeldAnalyseData>
#CSV-START#
ms;Power[W];Force[N];Distance[mm]
1;0;0;0
2;0;506.607;0
3;0;508.56;0
4;0;508.56;0
5;0;510.514;0
6;0;510.514;0
7;0;506.607;0
8;0;502.701;0.0100021
9;0;482.925;0.0100021
10;0;469.008;0.0200043
11;11.5016;455.336;0.0299988
12;16.3846;445.326;0.0500031
13;26.4557;447.279;0.0599976
14;43.5461;439.467;0.0800018
15;65.8246;431.654;0.090004
16;90.5446;433.607;0.110001
17;115.265;427.503;0.120003
18;132.66;427.503;0.129997
19;152.192;421.644;0.150002
20;169.588;423.597;0.160004
21;186.983;425.55;0.169998
22;214.145;427.503;0.190002
23;238.559;415.784;0.200005
24;258.396;425.55;0.209999
25;270.909;421.644;0.220001
26;287.999;421.644;0.239998
27;298.07;421.644;0.25
28;302.953;423.597;0.260002
29;310.278;423.597;0.270004
30;320.044;427.503;0.279999
31;322.79;423.597;0.290001
32;330.115;429.456;0.300003
33;332.556;437.513;0.309998
34;327.673;429.456;0.32
35;332.556;433.607;0.330002
36;342.322;435.56;0.340004
37;349.952;431.654;0.349998
38;357.276;431.654;0.360001
39;362.159;441.42;0.370003
40;367.042;439.467;0.379997
41;369.484;445.326;0.389999
42;379.555;439.467;0.400002
43;391.762;435.56;0.410004
44;401.528;451.186;0.419998
45;401.528;437.513;0.43
46;401.528;441.42;0.440002
47;394.204;443.373;0.450005
48;389.321;445.326;0.459999
49;386.879;439.467;0.459999
50;384.438;443.373;0.470001
51;384.438;433.607;0.480003
52;381.996;451.186;0.489998
53;379.555;451.186;0.5
54;369.484;439.467;0.510002
55;371.925;455.336;0.520004
56;377.113;455.336;0.529999
57;374.367;451.186;0.540001
58;369.484;451.186;0.550003
59;367.042;463.149;0.550003
60;364.601;459.243;0.559998
61;364.601;472.915;0.57
62;367.042;457.289;0.580002
63;374.367;461.196;0.590004
64;377.113;475.112;0.590004
65;374.367;457.289;0.599998
66;371.925;461.196;0.610001
67;369.484;463.149;0.620003
68;362.159;465.102;0.629997
69;362.159;463.149;0.639999
70;359.718;467.055;0.639999
71;364.601;461.196;0.650002
72;364.601;467.055;0.660004
73;362.159;470.962;0.669998
74;352.393;461.196;0.68
75;357.276;475.112;0.690002
76;364.601;475.112;0.690002
77;367.042;475.112;0.700005
78;369.484;470.962;0.709999
79;369.484;479.019;0.720001
80;369.484;479.019;0.730003
81;369.484;488.784;0.730003
82;377.113;477.065;0.739998
83;381.996;477.065;0.75
84;384.438;490.738;0.760002
85;384.438;477.065;0.760002
86;381.996;480.972;0.770004
87;374.367;479.019;0.779999
88;367.042;484.878;0.790001
89;367.042;477.065;0.790001
90;369.484;482.925;0.800003
91;369.484;469.008;0.809998
92;371.925;494.644;0.82
93;369.484;488.784;0.82
94;367.042;477.065;0.830002
95;371.925;496.597;0.840004
96;381.996;488.784;0.840004
97;391.762;488.784;0.849998
98;396.645;486.831;0.860001
99;399.087;482.925;0.870003
100;401.528;486.831;0.870003
101;406.716;490.738;0.879997
102;418.924;494.644;0.889999
103;431.131;482.925;0.900002
104;436.319;492.691;0.900002
105;438.761;488.784;0.910004
106;441.202;484.878;0.919998
107;436.319;484.878;0.93
108;436.319;482.925;0.93
109;438.761;486.831;0.940002
110;438.761;484.878;0.950005
111;443.644;482.925;0.959999
112;443.644;482.925;0.970001
113;441.202;492.691;0.970001
114;436.319;479.019;0.980003
115;438.761;484.878;0.989998
116;448.527;488.784;1
117;455.851;484.878;1.01
118;458.293;482.925;1.01
119;465.922;490.738;1.02
120;465.922;486.831;1.03
121;468.364;490.738;1.04
122;480.571;492.691;1.04
123;490.642;482.925;1.05
124;502.85;492.691;1.06
125;505.291;484.878;1.07
126;510.174;484.878;1.08
127;505.291;484.878;1.08
128;502.85;486.831;1.09
129;505.291;482.925;1.1
130;507.733;484.878;1.11
131;510.174;479.019;1.12
132;510.174;482.925;1.12
133;510.174;488.784;1.13
134;502.85;475.112;1.14
135;505.291;486.831;1.15
136;517.804;486.831;1.16
137;525.128;484.878;1.17
138;532.453;480.972;1.17
139;534.894;492.691;1.18
140;537.336;486.831;1.19
141;539.777;494.644;1.2
142;552.29;488.784;1.21
143;566.938;482.925;1.21
144;572.127;496.597;1.22
145;577.01;479.019;1.23
146;577.01;482.925;1.24
147;569.685;482.925;1.24
148;559.614;486.831;1.25
149;564.497;472.915;1.26
150;566.938;482.925;1.27
151;566.938;472.915;1.28
152;564.497;488.784;1.29
153;559.614;484.878;1.29
154;549.848;470.962;1.3
155;549.848;490.738;1.31
156;562.056;482.925;1.32
157;569.685;479.019;1.33
158;574.568;472.915;1.34
159;577.01;470.962;1.35
160;574.568;482.925;1.36
161;572.127;480.972;1.37
162;584.334;486.831;1.38
163;596.847;469.008;1.39
164;604.171;480.972;1.4
165;606.613;477.065;1.41
166;604.171;469.008;1.42
167;596.847;477.065;1.43
168;591.659;477.065;1.44
169;591.659;475.112;1.45
170;596.847;470.962;1.46
171;596.847;469.008;1.47
172;594.1;465.102;1.48
173;591.659;475.112;1.49
174;584.334;463.149;1.51
175;586.776;469.008;1.52
176;604.171;470.962;1.53
177;606.613;465.102;1.54
178;611.496;463.149;1.56
179;613.937;469.008;1.57
180;616.379;467.055;1.58
181;618.82;472.915;1.59
182;631.333;470.962;1.61
183;648.423;461.196;1.62
184;660.936;475.112;1.63
185;665.818;461.196;1.64
186;665.818;461.196;1.66
187;660.936;465.102;1.67
188;658.494;467.055;1.68
189;658.494;459.243;1.69
190;660.936;463.149;1.71
191;668.26;451.186;1.72
192;670.701;463.149;1.73
193;665.818;469.008;1.74
194;660.936;451.186;1.76
195;665.818;465.102;1.77
196;688.097;465.102;1.78
197;700.304;463.149;1.79
198;710.375;457.289;1.8
199;717.7;470.962;1.82
200;717.7;465.102;1.83
201;720.141;477.065;1.84
202;744.861;461.196;1.85
203;764.698;459.243;1.86
204;776.906;475.112;1.87
205;789.418;459.243;1.88
206;789.418;463.149;1.9
207;786.977;465.102;1.91
208;781.789;469.008;1.92
209;791.86;455.336;1.93
210;799.184;463.149;1.94
211;806.509;451.186;1.95
212;806.509;470.962;1.96
213;806.509;469.008;1.97
214;801.626;453.383;1.98
215;811.392;475.112;1.99
216;836.112;469.008;2
217;851.066;467.055;2.01
218;865.715;461.196;2.02
219;880.669;480.972;2.03
220;883.11;469.008;2.04
221;892.876;484.878;2.05
222;920.038;472.915;2.06
223;947.199;467.055;2.07
224;964.595;484.878;2.08
225;979.549;467.055;2.09
226;989.315;470.962;2.1
227;984.432;475.112;2.1
228;984.432;480.972;2.11
229;1006.71;469.008;2.12
230;1026.24;477.065;2.13
231;1041.2;461.196;2.14
232;1046.08;482.925;2.15
233;1046.08;484.878;2.16
234;1041.2;465.102;2.16
235;1061.03;488.784;2.17
236;1093.08;482.925;2.18
237;1105.29;484.878;2.19
238;1125.12;470.962;2.2
239;1137.33;496.597;2.2
240;1137.33;484.878;2.21
241;1147.4;504.654;2.22
242;1179.44;482.925;2.23
243;1209.05;480.972;2.23
244;1226.44;500.748;2.24
245;1241.09;477.065;2.25
246;1243.53;486.831;2.25
247;1236.21;486.831;2.26
248;1238.65;498.795;2.27
249;1260.93;475.112;2.28
250;1275.58;488.784;2.28
251;1288.09;484.878;2.29
252;1297.86;484.878;2.3
253;1288.09;506.607;2.3
254;1275.58;488.784;2.31
255;1295.42;496.597;2.32
256;1332.65;504.654;2.32
257;1347.3;496.597;2.33
258;1364.69;484.878;2.34
259;1376.9;496.597;2.34
260;1372.02;504.654;2.35
261;1372.02;510.514;2.35
262;1406.5;506.607;2.36
263;1433.66;490.738;2.37
264;1448.62;512.467;2.37
265;1463.27;498.795;2.38
266;1455.94;498.795;2.38
267;1438.55;504.654;2.39
268;1431.22;514.42;2.4
269;1453.5;510.514;2.4
270;1463.27;502.701;2.41
271;1470.9;492.691;2.41
272;1470.9;508.56;2.42
273;1451.06;518.326;2.42
274;1431.22;496.597;2.43
275;1451.06;518.326;2.43
276;1480.66;518.326;2.44
277;1495.62;512.467;2.44
278;1505.38;502.701;2.45
279;1510.27;518.326;2.45
280;1505.38;516.373;2.45
281;1498.06;536.149;2.46
282;1525.22;516.373;2.46
283;1547.19;508.56;2.47
284;1564.59;532.243;2.47
285;1574.35;510.514;2.48
286;1562.15;516.373;2.48
287;1539.87;516.373;2.48
288;1532.54;530.29;2.49
289;1552.38;514.42;2.49
290;1564.59;518.326;2.49
291;1571.91;500.748;2.5
292;1569.47;528.336;2.5
293;1559.71;528.336;2.51
294;1534.99;504.654;2.51
295;1537.43;534.196;2.51
296;1569.47;526.383;2.52
297;1589.31;526.383;2.52
298;1599.07;512.467;2.52
299;1609.15;540.056;2.53
300;1599.07;528.336;2.53
301;1586.87;550.066;2.54
302;1601.52;518.326;2.54
303;1636.31;522.477;2.54
304;1653.4;546.159;2.55
305;1665.91;514.42;2.55
306;1658.59;526.383;2.55
307;1636.31;524.43;2.56
308;1616.47;540.056;2.56
309;1628.68;514.42;2.56
310;1643.63;528.336;2.57
311;1653.4;516.373;2.57
312;1653.4;526.383;2.57
313;1633.87;546.159;2.58
314;1609.15;518.326;2.58
315;1609.15;534.196;2.58
316;1646.07;542.009;2.59
317;1663.47;530.29;2.59
318;1673.23;522.477;2.59
319;1680.56;528.336;2.6
320;1668.35;538.102;2.6
321;1655.84;548.112;2.6
322;1670.79;536.149;2.6
323;1705.28;522.477;2.61
324;1717.79;550.066;2.61
325;1732.44;528.336;2.61
326;1722.67;528.336;2.62
327;1697.95;532.243;2.62
328;1675.68;544.206;2.62
329;1690.63;536.149;2.63
330;1707.72;532.243;2.63
331;1715.35;516.373;2.63
332;1712.91;538.102;2.63
333;1695.51;546.159;2.64
334;1665.91;520.524;2.64
335;1668.35;544.206;2.64
336;1705.28;542.009;2.65
337;1725.12;538.102;2.65
338;1734.88;524.43;2.65
339;1740.07;544.206;2.65
340;1730;546.159;2.66
341;1712.91;559.832;2.66
342;1732.44;538.102;2.66
343;1764.48;532.243;2.66
344;1781.88;557.878;2.67
345;1791.65;526.383;2.67
346;1781.88;538.102;2.67
347;1754.72;536.149;2.68
348;1732.44;553.972;2.68
349;1749.84;530.29;2.68
350;1764.48;536.149;2.68
351;1772.11;520.524;2.69
352;1769.67;550.066;2.69
353;1749.84;548.112;2.69
354;1720.23;524.43;2.69
355;1725.12;553.972;2.7
356;1762.04;544.206;2.7
357;1777;546.159;2.7
358;1791.65;528.336;2.7
359;1794.09;559.832;2.7
360;1781.88;546.159;2.71
361;1762.04;567.888;2.71
362;1781.88;538.102;2.71
363;1816.37;538.102;2.71
364;1831.32;565.935;2.72
365;1838.64;532.243;2.72
366;1826.44;542.009;2.72
367;1799.28;538.102;2.72
368;1774.56;557.878;2.73
369;1791.65;528.336;2.73
370;1806.6;544.206;2.73
371;1813.92;520.524;2.73
372;1811.48;550.066;2.73
373;1786.76;553.972;2.74
374;1757.16;528.336;2.74
375;1762.04;557.878;2.74
376;1799.28;552.019;2.74
377;1816.37;550.066;2.75
378;1828.88;532.243;2.75
379;1831.32;561.785;2.75
380;1816.37;552.019;2.75
381;1796.83;573.748;2.75
382;1818.81;542.009;2.76
383;1853.6;544.206;2.76
384;1868.25;569.842;2.76
385;1878.32;538.102;2.76
386;1863.36;546.159;2.76
387;1828.88;546.159;2.77
388;1811.48;563.738;2.77
389;1828.88;536.149;2.77
390;1845.97;546.159;2.77
391;1845.97;524.43;2.77
392;1843.53;563.738;2.78
393;1821.25;555.925;2.78
394;1786.76;530.29;2.78
395;1794.09;565.935;2.78
396;1833.76;553.972;2.78
397;1853.6;557.878;2.79
398;1863.36;536.149;2.79
399;1863.36;573.748;2.79
400;1843.53;553.972;2.79
401;1824;579.608;2.79
402;1845.97;542.009;2.79
403;1880.76;540.056;2.8
404;1895.41;565.935;2.8
405;1902.73;550.066;2.8
406;1888.08;544.206;2.8
407;1856.04;553.972;2.8
408;1831.32;565.935;2.81
409;1851.16;557.878;2.81
410;1865.81;546.159;2.81
411;1870.69;538.102;2.81
412;1865.81;553.972;2.81
413;1838.64;565.935;2.81
414;1806.6;536.149;2.82
415;1813.92;559.832;2.82
416;1851.16;561.785;2.82
417;1868.25;557.878;2.82
418;1880.76;542.009;2.82
419;1880.76;553.972;2.82
420;1860.92;557.878;2.83
421;1845.97;579.608;2.83
422;1868.25;557.878;2.83
423;1902.73;550.066;2.83
424;1920.13;575.701;2.83
425;1925.01;550.066;2.83
426;1910.36;557.878;2.84
427;1875.57;555.925;2.84
428;1856.04;573.748;2.84
429;1873.13;555.925;2.84
430;1883.2;557.878;2.84
431;1888.08;534.196;2.84
432;1883.2;565.935;2.85
433;1856.04;565.935;2.85
434;1824;538.102;2.85
435;1833.76;569.842;2.85
436;1868.25;563.738;2.85
437;1890.53;561.785;2.85
438;1900.29;546.159;2.86
439;1897.85;573.748;2.86
440;1880.76;561.785;2.86
441;1860.92;585.467;2.86
442;1890.53;555.925;2.86
443;1922.57;553.972;2.86
444;1935.08;581.561;2.86
445;1942.41;550.066;2.87
446;1925.01;559.832;2.87
447;1892.97;557.878;2.87
448;1868.25;577.654;2.87
449;1888.08;546.159;2.87
450;1902.73;557.878;2.87
451;1905.48;538.102;2.88
452;1900.29;571.795;2.88
453;1870.69;567.888;2.88
454;1838.64;544.206;2.88
455;1845.97;577.654;2.88
456;1888.08;565.935;2.88
457;1905.48;567.888;2.88
458;1915.25;550.066;2.89
459;1912.8;583.514;2.89
460;1892.97;563.738;2.89
461;1875.57;589.618;2.89
462;1902.73;553.972;2.89
463;1935.08;561.785;2.89
464;1952.17;579.608;2.89
465;1957.06;559.832;2.9
466;1937.52;557.878;2.9
467;1905.48;565.935;2.9
468;1883.2;575.701;2.9
469;1902.73;565.935;2.9
470;1917.69;557.878;2.9
471;1920.13;546.159;2.9
472;1912.8;563.738;2.91
473;1885.64;575.701;2.91
474;1851.16;548.112;2.91
475;1863.36;571.795;2.91
476;1900.29;573.748;2.91
477;1920.13;565.935;2.91
478;1929.9;552.019;2.91
479;1925.01;565.935;2.92
480;1902.73;569.842;2.92
481;1888.08;587.42;2.92
482;1915.25;567.888;2.92
483;1949.73;555.925;2.92
484;1962.24;583.514;2.92
485;1969.57;559.832;2.92
486;1949.73;563.738;2.92
487;1915.25;565.935;2.93
488;1895.41;579.608;2.93
489;1912.8;565.935;2.93
490;1927.45;561.785;2.93
491;1929.9;542.009;2.93
492;1922.57;571.795;2.93
493;1892.97;575.701;2.93
494;1860.92;546.159;2.93
495;1873.13;577.654;2.94
496;1912.8;573.748;2.94
497;1932.64;571.795;2.94
498;1939.97;553.972;2.94
499;1937.52;579.608;2.94
500;1912.8;569.842;2.94
501;1897.85;591.571;2.94
502;1927.45;561.785;2.94
503;1962.24;563.738;2.95
504;1974.45;587.42;2.95
505;1979.34;557.878;2.95
506;1954.62;565.935;2.95
507;1922.57;565.935;2.95
508;1905.48;581.561;2.95
509;1925.01;553.972;2.95
510;1937.52;565.935;2.95
511;1942.41;542.009;2.96
512;1932.64;579.608;2.96
513;1900.29;571.795;2.96
514;1870.69;546.159;2.96
515;1883.2;583.514;2.96
516;1922.57;571.795;2.96
517;1939.97;571.795;2.96
518;1947.29;553.972;2.96
519;1944.85;587.42;2.96
520;1922.57;573.748;2.97
521;1905.48;597.43;2.97
522;1937.52;557.878;2.97
523;1972.01;565.935;2.97
524;1986.96;587.42;2.97
525;1989.41;561.785;2.97
526;1964.69;565.935;2.97
527;1932.64;565.935;2.97
528;1915.25;583.514;2.97
529;1935.08;563.738;2.98
530;1947.29;565.935;2.98
531;1952.17;544.206;2.98
532;1942.41;577.654;2.98
533;1910.36;577.654;2.98
534;1878.32;550.066;2.98
535;1895.41;583.514;2.98
536;1932.64;573.748;2.98
537;1949.73;573.748;2.98
538;1957.06;555.925;2.99
539;1949.73;587.42;2.99
540;1927.45;573.748;2.99
541;1912.8;601.337;2.99
542;1952.17;561.785;2.99
543;1981.78;565.935;2.99
544;1999.17;591.571;2.99
545;2001.61;557.878;2.99
546;1981.78;567.888;2.99
547;1947.29;563.738;2.99
548;1929.9;585.467;3
549;1949.73;553.972;3
550;1959.8;567.888;3
551;1962.24;544.206;3
552;1949.73;591.571;3
553;1917.69;577.654;3
554;1880.76;553.972;3
555;1897.85;587.42;3
556;1932.64;581.561;3
557;1952.17;571.795;3
558;1957.06;555.925;3.01
559;1954.62;569.842;3.01
560;1932.64;577.654;3.01
561;1917.69;591.571;3.01
562;1954.62;575.701;3.01
563;1984.22;557.878;3.01
564;2001.61;587.42;3.01
565;2004.06;563.738;3.01
566;1981.78;565.935;3.01
567;1947.29;569.842;3.01
568;1935.08;583.514;3.02
569;1952.17;575.701;3.02
570;1964.69;565.935;3.02
571;1964.69;548.112;3.02
572;1952.17;577.654;3.02
573;1917.69;579.608;3.02
574;1888.08;552.019;3.02
575;1902.73;579.608;3.02
576;1939.97;579.608;3.02
577;1957.06;571.795;3.02
578;1964.69;555.925;3.03
579;1959.8;577.654;3.03
580;1937.52;575.701;3.03
581;1925.01;597.43;3.03
582;1964.69;567.888;3.03
583;1994.29;561.785;3.03
584;2011.38;591.571;3.03
585;2011.38;563.738;3.03
586;1986.96;567.888;3.03
587;1954.62;567.888;3.03
588;1939.97;585.467;3.04
589;1959.8;565.935;3.04
590;1969.57;569.842;3.04
591;1972.01;546.159;3.04
592;1957.06;583.514;3.04
593;1922.57;577.654;3.04
594;1890.53;552.019;3.04
595;1907.92;583.514;3.04
596;1944.85;575.701;3.04
597;1962.24;573.748;3.04
598;1969.57;555.925;3.05
599;1962.24;589.618;3.05
600;1935.08;575.701;3.05
601;1925.01;603.29;3.05
602;1964.69;561.785;3.05
603;1994.29;567.888;3.05
604;2011.38;591.571;3.05
605;2014.13;559.832;3.05
606;1989.41;571.795;3.05
607;1957.06;567.888;3.05
608;1939.97;587.42;3.06
609;1962.24;552.019;3.06
610;1969.57;571.795;3.06
611;1976.89;546.159;3.06
612;1959.8;589.618;3.06
613;1925.01;577.654;3.06
614;1895.41;552.019;3.06
615;1915.25;589.618;3.06
616;1949.73;583.514;3.06
617;1967.13;573.748;3.06
618;1974.45;557.878;3.06
619;1962.24;571.795;3.07
620;1942.41;577.654;3.07
621;1929.9;591.571;3.07
622;1969.57;573.748;3.07
623;1996.73;561.785;3.07
624;2011.38;589.618;3.07
625;2011.38;569.842;3.07
626;1989.41;563.738;3.07
627;1957.06;571.795;3.07
628;1942.41;585.467;3.07
629;1962.24;575.701;3.08
630;1969.57;567.888;3.08
631;1974.45;550.066;3.08
632;1957.06;577.654;3.08
633;1922.57;583.514;3.08
634;1892.97;553.972;3.08
635;1912.8;579.608;3.08
636;1949.73;579.608;3.08
637;1959.8;573.748;3.08
638;1972.01;557.878;3.08
639;1967.13;577.654;3.08
640;1947.29;577.654;3.09
641;1927.45;599.384;3.09
642;1947.29;569.842;3.09
643;1986.96;565.935;3.09
644;2008.94;591.571;3.09
645;2014.13;565.935;3.09
646;2001.61;569.842;3.09
647;1967.13;569.842;3.09
648;1942.41;587.42;3.09
649;1952.17;567.888;3.09
650;1972.01;569.842;3.09
651;1974.45;548.112;3.1
652;1969.57;583.514;3.1
653;1939.97;579.608;3.1
654;1902.73;553.972;3.1
655;1902.73;585.467;3.1
656;1942.41;575.701;3.1
657;1962.24;577.654;3.1
658;1974.45;559.832;3.1
659;1974.45;591.571;3.1
660;1949.73;577.654;3.1
661;1927.45;603.29;3.1
662;1954.62;565.935;3.11
663;1991.85;569.842;3.11
664;2011.38;593.524;3.11
665;2016.57;559.832;3.11
666;2001.61;571.795;3.11
667;1969.57;569.842;3.11
668;1944.85;589.618;3.11
669;1959.8;557.878;3.11
670;1972.01;571.795;3.11
671;1976.89;548.112;3.11
672;1969.57;587.42;3.11
673;1939.97;579.608;3.11
674;1902.73;557.878;3.12
675;1902.73;591.571;3.12
676;1944.85;575.701;3.12
677;1964.69;575.701;3.12
678;1972.01;559.832;3.12
679;1969.57;585.467;3.12
680;1949.73;575.701;3.12
681;1932.64;601.337;3.12
682;1954.62;567.888;3.12
683;1996.73;567.888;3.12
684;2014.13;595.477;3.12
685;2019.01;563.738;3.12
686;2004.06;571.795;3.13
687;1972.01;571.795;3.13
688;1944.85;587.42;3.13
689;1962.24;561.785;3.13
690;1974.45;569.842;3.13
691;1976.89;546.159;3.13
692;1972.01;587.42;3.13
693;1939.97;577.654;3.13
694;1900.29;553.972;3.13
695;1905.48;589.618;3.13
696;1947.29;575.701;3.13
697;1964.69;579.608;3.13
698;1976.89;559.832;3.14
699;1974.45;593.524;3.14
700;1952.17;577.654;3.14
701;1935.08;601.337;3.14
702;1959.8;563.738;3.14
703;1996.73;569.842;3.14
704;2014.13;589.618;3.14
705;2019.01;559.832;3.14
706;2004.06;573.748;3.14
707;1967.13;571.795;3.14
708;1944.85;587.42;3.14
709;1959.8;579.608;3.14
710;1976.89;569.842;3.15
711;1979.34;553.972;3.15
712;1972.01;575.701;3.15
713;1939.97;587.42;3.15
714;1900.29;557.878;3.15
715;1907.92;579.608;3.15
716;1949.73;583.514;3.15
717;1967.13;575.701;3.15
718;1979.34;557.878;3.15
719;1974.45;573.748;3.15
720;1952.17;577.654;3.15
721;1932.64;597.43;3.15
722;1962.24;575.701;3.16
723;2001.61;563.738;3.16
724;2014.13;593.524;3.16
725;2021.45;569.842;3.16
726;2006.5;567.888;3.16
727;1972.01;569.842;3.16
728;1947.29;587.42;3.16
729;1964.69;575.701;3.16
730;1976.89;571.795;3.16
731;1981.78;550.066;3.16
732;1969.57;581.561;3.16
733;1942.41;583.514;3.16
734;1902.73;555.925;3.16
735;1910.36;581.561;3.17
736;1949.73;579.608;3.17
737;1967.13;575.701;3.17
738;1979.34;559.832;3.17
739;1972.01;583.514;3.17
740;1952.17;575.701;3.17
741;1929.9;601.337;3.17
742;1962.24;567.888;3.17
743;1994.29;565.935;3.17
744;2014.13;593.524;3.17
745;2021.45;563.738;3.17
746;2001.61;571.795;3.17
747;1969.57;569.842;3.18
748;1944.85;589.618;3.18
749;1962.24;559.832;3.18
750;1979.34;573.748;3.18
751;1979.34;546.159;3.18
752;1969.57;589.618;3.18
753;1937.52;579.608;3.18
754;1900.29;553.972;3.18
755;1907.92;589.618;3.18
756;1947.29;575.701;3.18
757;1964.69;579.608;3.18
758;1974.45;559.832;3.18
759;1969.57;593.524;3.18
760;1947.29;575.701;3.19
761;1932.64;601.337;3.19
762;1964.69;563.738;3.19
763;2001.61;569.842;3.19
764;2019.01;597.43;3.19
765;2026.33;559.832;3.19
766;2006.5;575.701;3.19
767;1972.01;569.842;3.19
768;1949.73;587.42;3.19
769;1964.69;579.608;3.19
770;1976.89;567.888;3.19
771;1979.34;553.972;3.19
772;1967.13;573.748;3.19
773;1935.08;587.42;3.2
774;1897.85;557.878;3.2
775;1907.92;579.608;3.2
776;1947.29;583.514;3.2
777;1969.57;575.701;3.2
778;1979.34;561.785;3.2
779;1974.45;575.701;3.2
780;1949.73;577.654;3.2
781;1935.08;597.43;3.2
782;1969.57;571.795;3.2
783;2006.5;563.738;3.2
784;2023.89;591.571;3.2
785;2031.22;569.842;3.2
786;2011.38;571.795;3.21
787;1976.89;571.795;3.21
788;1952.17;587.42;3.21
789;1969.57;573.748;3.21
790;1981.78;569.842;3.21
791;1984.22;550.066;3.21
792;1972.01;579.608;3.21
793;1937.52;581.561;3.21
794;1900.29;553.972;3.21
795;1912.8;583.514;3.21
796;1952.17;579.608;3.21
797;1969.57;575.701;3.21
798;1981.78;559.832;3.21
799;1976.89;583.514;3.21
800;1957.06;577.654;3.22
801;1939.97;603.29;3.22
802;1974.45;567.888;3.22
803;2008.94;569.842;3.22
804;2026.33;595.477;3.22
805;2031.22;565.935;3.22
806;2011.38;573.748;3.22
807;1976.89;567.888;3.22
808;1957.06;589.618;3.22
809;1972.01;563.738;3.22
810;1984.22;571.795;3.22
811;1986.96;548.112;3.22
812;1976.89;587.42;3.22
813;1942.41;579.608;3.22
814;1905.48;555.925;3.22
815;1920.13;587.42;3.23
816;1959.8;577.654;3.23
817;1979.34;579.608;3.23
818;1986.96;559.832;3.23
819;1981.78;595.477;3.23
820;1959.8;577.654;3.23
821;1944.85;601.337;3.23
822;1979.34;561.785;3.23
823;2016.57;569.842;3.23
824;2036.1;595.477;3.23
825;2038.54;559.832;3.23
826;2019.01;573.748;3.23
827;1984.22;571.795;3.23
828;1964.69;591.571;3.23
829;1981.78;557.878;3.23
830;1991.85;571.795;3.24
831;1994.29;548.112;3.24
832;1981.78;585.467;3.24
833;1947.29;581.561;3.24
834;1907.92;555.925;3.24
835;1927.45;585.467;3.24
836;1964.69;579.608;3.24
837;1981.78;577.654;3.24
838;1991.85;561.785;3.24
839;1984.22;589.618;3.24
840;1964.69;577.654;3.24
841;1949.73;601.337;3.24
842;1986.96;567.888;3.24
843;2019.01;569.842;3.24
844;2036.1;593.524;3.25
845;2038.54;561.785;3.25
846;2016.57;573.748;3.25
847;1984.22;571.795;3.25
848;1964.69;587.42;3.25
849;1981.78;557.878;3.25
850;1991.85;573.748;3.25
851;1994.29;548.112;3.25
852;1981.78;593.524;3.25
853;1947.29;577.654;3.25
854;1910.36;555.925;3.25
855;1929.9;591.571;3.25
856;1967.13;575.701;3.25
857;1984.22;579.608;3.25
858;1991.85;559.832;3.25
859;1989.41;593.524;3.26
860;1964.69;575.701;3.26
861;1952.17;593.524;3.26
862;1989.41;579.608;3.26
863;2023.89;559.832;3.26
864;2038.54;589.618;3.26
865;2046.17;571.795;3.26
866;2023.89;567.888;3.26
867;1986.96;573.748;3.26
868;1969.57;587.42;3.26
869;1986.96;577.654;3.26
870;1996.73;569.842;3.26
871;1996.73;553.972;3.26
872;1981.78;577.654;3.26
873;1949.73;583.514;3.27
874;1915.25;553.972;3.27
875;1932.64;583.514;3.27
876;1972.01;581.561;3.27
877;1984.22;575.701;3.27
878;1994.29;559.832;3.27
879;1986.96;579.608;3.27
880;1964.69;575.701;3.27
881;1952.17;601.337;3.27
882;1991.85;571.795;3.27
883;2023.89;565.935;3.27
884;2041.29;597.43;3.27
885;2046.17;565.935;3.27
886;2023.89;571.795;3.27
887;1989.41;571.795;3.27
888;1972.01;587.42;3.28
889;1986.96;567.888;3.28
890;1999.17;573.748;3.28
891;1999.17;548.112;3.28
892;1986.96;585.467;3.28
893;1949.73;583.514;3.28
894;1912.8;553.972;3.28
895;1935.08;587.42;3.28
896;1972.01;577.654;3.28
897;1989.41;579.608;3.28
898;1996.73;557.878;3.28
899;1991.85;591.571;3.28
900;1967.13;575.701;3.28
901;1954.62;605.243;3.28
902;1994.29;563.738;3.28
903;2028.78;569.842;3.29
904;2046.17;595.477;3.29
905;2046.17;561.785;3.29
906;2023.89;573.748;3.29
907;1989.41;569.842;3.29
908;1974.45;587.42;3.29
909;1989.41;559.832;3.29
910;2001.61;571.795;3.29
911;1999.17;548.112;3.29
912;1986.96;591.571;3.29
913;1949.73;579.608;3.29
914;1915.25;557.878;3.29
915;1935.08;589.618;3.29
916;1974.45;577.654;3.29
917;1989.41;579.608;3.3
918;1996.73;561.785;3.3
919;1989.41;595.477;3.3
920;1969.57;575.701;3.3
921;1957.06;601.337;3.3
922;1999.17;557.878;3.3
923;2031.22;561.785;3.3
924;2046.17;591.571;3.3
925;2051.05;569.842;3.3
926;2023.89;569.842;3.3
927;1991.85;573.748;3.3
928;1974.45;585.467;3.3
929;1994.29;577.654;3.3
930;1999.17;569.842;3.3
931;2004.06;552.019;3.3
932;1989.41;577.654;3.31
933;1952.17;585.467;3.31
934;1917.69;555.925;3.31
935;1939.97;581.561;3.31
936;1976.89;581.561;3.31
937;1991.85;573.748;3.31
938;1999.17;561.785;3.31
939;1989.41;577.654;3.31
940;1969.57;577.654;3.31
941;1959.8;599.384;3.31
942;2001.61;571.795;3.31
943;2033.66;563.738;3.31
944;2051.05;593.524;3.31
945;2053.5;567.888;3.31
946;2026.33;569.842;3.31
947;1989.41;573.748;3.32
948;1976.89;587.42;3.32
949;1994.29;569.842;3.32
950;2004.06;571.795;3.32
951;2004.06;548.112;3.32
952;1986.96;583.514;3.32
953;1949.73;579.608;3.32
954;1917.69;553.972;3.32
955;1939.97;587.42;3.32
956;1976.89;577.654;3.32
957;1991.85;579.608;3.32
958;1996.73;559.832;3.32
959;1986.96;589.618;3.32
960;1964.69;575.701;3.32
961;1959.8;603.29;3.33
962;2001.61;565.935;3.33
963;2033.66;569.842;3.33
964;2051.05;593.524;3.33
965;2048.61;561.785;3.33
966;2023.89;571.795;3.33
967;1986.96;567.888;3.33
968;1976.89;585.467;3.33
969;1996.73;555.925;3.33
970;2001.61;571.795;3.33
971;2001.61;546.159;3.33
972;1984.22;589.618;3.33
973;1947.29;579.608;3.33
974;1917.69;553.972;3.33
975;1944.85;591.571;3.34
976;1979.34;575.701;3.34
977;1994.29;577.654;3.34
978;2001.61;559.832;3.34
979;1994.29;593.524;3.34
980;1969.57;573.748;3.34
981;1962.24;601.337;3.34
982;1999.17;557.878;3.34
983;2028.78;571.795;3.34
984;2051.05;595.477;3.34
985;2053.5;563.738;3.34
986;2031.22;571.795;3.34
987;1994.29;569.842;3.34
988;1976.89;587.42;3.34
989;1991.85;561.785;3.34
990;2004.06;569.842;3.35
991;2004.06;550.066;3.35
992;1991.85;585.467;3.35
993;1954.62;581.561;3.35
994;1920.13;555.925;3.35
995;1937.52;587.42;3.35
996;1974.45;577.654;3.35
997;1991.85;577.654;3.35
998;1999.17;559.832;3.35
999;1994.29;593.524;3.35
1000;1972.01;575.701;3.35
1001;1959.8;603.29;3.35
1002;1996.73;563.738;3.35
1003;2031.22;569.842;3.35
1004;2046.17;593.524;3.35
1005;2048.61;557.878;3.36
1006;2023.89;571.795;3.36
1007;1989.41;567.888;3.36
1008;1972.01;587.42;3.36
1009;1989.41;557.878;3.36
1010;2001.61;573.748;3.36
1011;2004.06;548.112;3.36
1012;1991.85;595.477;3.36
1013;1957.06;577.654;3.36
1014;1922.57;555.925;3.36
1015;1939.97;581.561;3.36
1016;1979.34;581.561;3.36
1017;1994.29;575.701;3.36
1018;2004.06;557.878;3.36
1019;1996.73;571.795;3.36
1020;1972.01;575.701;3.37
1021;1957.06;595.477;3.37
1022;1994.29;575.701;3.37
1023;2026.33;563.738;3.37
1024;2041.29;589.618;3.37
1025;2048.61;567.888;3.37
1026;2021.45;569.842;3.37
1027;1981.78;567.888;3.37
1028;1969.57;587.42;3.37
1029;1986.96;575.701;3.37
1030;1999.17;569.842;3.37
1031;2001.61;548.112;3.37
1032;1989.41;581.561;3.37
1033;1954.62;583.514;3.37
1034;1922.57;553.972;3.37
1035;1939.97;583.514;3.38
1036;1979.34;577.654;3.38
1037;1991.85;575.701;3.38
1038;2001.61;555.925;3.38
1039;1994.29;585.467;3.38
1040;1972.01;577.654;3.38
1041;1957.06;601.337;3.38
1042;1994.29;571.795;3.38
1043;2026.33;567.888;3.38
1044;2043.73;593.524;3.38
1045;2046.17;561.785;3.38
1046;2021.45;571.795;3.38
1047;1986.96;569.842;3.38
1048;1972.01;587.42;3.38
1049;1991.85;561.785;3.38
1050;2004.06;569.842;3.39
1051;2004.06;548.112;3.39
1052;1991.85;583.514;3.39
1053;1954.62;579.608;3.39
1054;1925.01;553.972;3.39
1055;1942.41;587.42;3.39
1056;1979.34;575.701;3.39
1057;1996.73;577.654;3.39
1058;2004.06;559.832;3.39
1059;1994.29;593.524;3.39
1060;1972.01;575.701;3.39
1061;1957.06;599.384;3.39
1062;1994.29;563.738;3.39
1063;2028.78;569.842;3.39
1064;2046.17;593.524;3.39
1065;2043.73;559.832;3.4
1066;2019.01;573.748;3.4
1067;1984.22;569.842;3.4
1068;1972.01;585.467;3.4
1069;1994.29;555.925;3.4
1070;2004.06;573.748;3.4
1071;2006.5;552.019;3.4
1072;1994.29;595.477;3.4
1073;1957.06;579.608;3.4
1074;1922.57;557.878;3.4
1075;1942.41;579.608;3.4
1076;1981.78;581.561;3.4
1077;1999.17;573.748;3.4
1078;2006.5;557.878;3.4
1079;1996.73;575.701;3.4
1080;1972.01;577.654;3.4
1081;1959.8;593.524;3.41
1082;1999.17;573.748;3.41
1083;2033.66;563.738;3.41
1084;2048.61;591.571;3.41
1085;2048.61;567.888;3.41
1086;2023.89;569.842;3.41
1087;1991.85;571.795;3.41
1088;1979.34;585.467;3.41
1089;1996.73;571.795;3.41
1090;2006.5;569.842;3.41
1091;2008.94;548.112;3.41
1092;1994.29;577.654;3.41
1093;1962.24;581.561;3.41
1094;1925.01;552.019;3.41
1095;1947.29;583.514;3.41
1096;1984.22;577.654;3.41
1097;1996.73;577.654;3.42
1098;2006.5;557.878;3.42
1099;1994.29;585.467;3.42
1100;1972.01;577.654;3.42
1101;1959.8;601.337;3.42
1102;1999.17;569.842;3.42
1103;2031.22;569.842;3.42
1104;2043.73;595.477;3.42
1105;2046.17;563.738;3.42
1106;2021.45;569.842;3.42
1107;1984.22;569.842;3.42
1108;1974.45;585.467;3.42
1109;1994.29;561.785;3.42
1110;2004.06;571.795;3.42
1111;2006.5;546.159;3.42
1112;1994.29;585.467;3.42
1113;1959.8;579.608;3.43
1114;1925.01;555.925;3.43
1115;1952.17;587.42;3.43
1116;1981.78;573.748;3.43
1117;1996.73;575.701;3.43
1118;2004.06;559.832;3.43
1119;1994.29;593.524;3.43
1120;1969.57;575.701;3.43
1121;1959.8;601.337;3.43
1122;2001.61;561.785;3.43
1123;2031.22;567.888;3.43
1124;2043.73;593.524;3.43
1125;2043.73;557.878;3.43
1126;2019.01;569.842;3.43
1127;1984.22;569.842;3.43
1128;1974.45;587.42;3.43
1129;1994.29;553.972;3.44
1130;2004.06;569.842;3.44
1131;2006.5;550.066;3.44
1132;1991.85;593.524;3.44
1133;1957.06;577.654;3.44
1134;1925.01;559.832;3.44
1135;1949.73;589.618;3.44
1136;1984.22;575.701;3.44
1137;1999.17;575.701;3.44
1138;2004.06;557.878;3.44
1139;1994.29;591.571;3.44
1140;1967.13;577.654;3.44
1141;1962.24;603.29;3.44
1142;1999.17;563.738;3.44
1143;2028.78;567.888;3.44
1144;2046.17;595.477;3.44
1145;2046.17;561.785;3.44
1146;2019.01;571.795;3.45
1147;1986.96;567.888;3.45
1148;1974.45;587.42;3.45
1149;1999.17;557.878;3.45
1150;2006.5;571.795;3.45
1151;2008.94;546.159;3.45
1152;1991.85;587.42;3.45
1153;1957.06;577.654;3.45
1154;1925.01;553.972;3.45
1155;1952.17;587.42;3.45
1156;1984.22;575.701;3.45
1157;1999.17;575.701;3.45
1158;2004.06;557.878;3.45
1159;1999.17;595.477;3.45
1160;1979.34;571.795;3.45
1161;1959.8;595.477;3.45
1162;1981.78;555.925;3.45
1163;2021.45;567.888;3.46
1164;2038.54;589.618;3.46
1165;2048.61;555.925;3.46
1166;2026.33;573.748;3.46
1167;1994.29;573.748;3.46
1168;1972.01;583.514;3.46
1169;1989.41;573.748;3.46
1170;2004.06;567.888;3.46
1171;2011.38;550.066;3.46
1172;2001.61;575.701;3.46
1173;1974.45;583.514;3.46
1174;1932.64;555.925;3.46
1175;1937.52;581.561;3.46
1176;1979.34;581.561;3.46
1177;1994.29;575.701;3.46
1178;2004.06;555.925;3.46
1179;1999.17;577.654;3.46
1180;1981.78;575.701;3.47
1181;1959.8;597.43;3.47
1182;1986.96;569.842;3.47
1183;2023.89;563.738;3.47
1184;2041.29;591.571;3.47
1185;2051.05;563.738;3.47
1186;2031.22;569.842;3.47
1187;1999.17;569.842;3.47
1188;1979.34;585.467;3.47
1189;1994.29;565.935;3.47
1190;2008.94;569.842;3.47
1191;2014.13;550.066;3.47
1192;2006.5;581.561;3.47
1193;1976.89;579.608;3.47
1194;1937.52;555.925;3.47
1195;1942.41;583.514;3.47
1196;1979.34;575.701;3.47
1197;1996.73;575.701;3.48
1198;2006.5;559.832;3.48
1199;1999.17;591.571;3.48
1200;1974.45;577.654;3.48
1201;1954.62;601.337;3.48
1202;1981.78;563.738;3.48
1203;2023.89;565.935;3.48
1204;2041.29;593.524;3.48
1205;2046.17;559.832;3.48
1206;2028.78;571.795;3.48
1207;1994.29;569.842;3.48
1208;1976.89;589.618;3.48
1209;1994.29;555.925;3.48
1210;2008.94;569.842;3.48
1211;2014.13;548.112;3.48
1212;2004.06;589.618;3.48
1213;1972.01;575.701;3.48
1214;1935.08;553.972;3.48
1215;1937.52;587.42;3.49
1216;1976.89;573.748;3.49
1217;1994.29;575.701;3.49
1218;1999.17;559.832;3.49
1219;1999.17;593.524;3.49
1220;1974.45;573.748;3.49
1221;1952.17;597.43;3.49
1222;1981.78;557.878;3.49
1223;2021.45;569.842;3.49
1224;2038.54;587.42;3.49
1225;2043.73;555.925;3.49
1226;2028.78;573.748;3.49
1227;1994.29;567.888;3.49
1228;1972.01;585.467;3.49
1229;1991.85;573.748;3.49
1230;2006.5;567.888;3.49
1231;2011.38;548.112;3.49
1232;2004.06;573.748;3.5
1233;1969.57;581.561;3.5
1234;1932.64;555.925;3.5
1235;1939.97;579.608;3.5
1236;1979.34;579.608;3.5
1237;1994.29;571.795;3.5
1238;2001.61;557.878;3.5
1239;1999.17;577.654;3.5
1240;1976.89;575.701;3.5
1241;1954.62;599.384;3.5
1242;1984.22;571.795;3.5
1243;2021.45;565.935;3.5
1244;2038.54;591.571;3.5
1245;2041.29;563.738;3.5
1246;2021.45;567.888;3.5
1247;1989.41;571.795;3.5
1248;1969.57;587.42;3.5
1249;1986.96;567.888;3.51
1250;2001.61;567.888;3.51
1251;2008.94;544.206;3.51
1252;1999.17;581.561;3.51
1253;1969.57;579.608;3.51
1254;1932.64;552.019;3.51
1255;1942.41;583.514;3.51
1256;1981.78;575.701;3.51
1257;1996.73;575.701;3.51
1258;2004.06;553.972;3.51
1259;1999.17;589.618;3.51
1260;1974.45;577.654;3.51
1261;1954.62;599.384;3.51
1262;1984.22;567.888;3.51
1263;2021.45;567.888;3.51
1264;2041.29;591.571;3.51
1265;2041.29;559.832;3.51
1266;2021.45;571.795;3.52
1267;1989.41;569.842;3.52
1268;1972.01;587.42;3.52
1269;1989.41;553.972;3.52
1270;2004.06;569.842;3.52
1271;2006.5;548.112;3.52
1272;1999.17;587.42;3.52
1273;1969.57;575.701;3.52
1274;1932.64;555.925;3.52
1275;1944.85;589.618;3.52
1276;1981.78;575.701;3.52
1277;1994.29;575.701;3.52
1278;2001.61;559.832;3.52
1279;1999.17;591.571;3.52
1280;1974.45;573.748;3.52
1281;1954.62;599.384;3.52
1282;1986.96;553.972;3.52
1283;2023.89;569.842;3.53
1284;2038.54;587.42;3.53
1285;2043.73;555.925;3.53
1286;2019.01;569.842;3.53
1287;1989.41;565.935;3.53
1288;1972.01;583.514;3.53
1289;1991.85;557.878;3.53
1290;2006.5;567.888;3.53
1291;2011.38;544.206;3.53
1292;1999.17;583.514;3.53
1293;1967.13;577.654;3.53
1294;1932.64;552.019;3.53
1295;1944.85;587.42;3.53
1296;1981.78;573.748;3.53
1297;1996.73;575.701;3.53
1298;2004.06;557.878;3.53
1299;1999.17;593.524;3.53
1300;1972.01;575.701;3.54
1301;1957.06;597.43;3.54
1302;1989.41;559.832;3.54
1303;2023.89;567.888;3.54
1304;2038.54;589.618;3.54
1305;2041.29;559.832;3.54
1306;2019.01;571.795;3.54
1307;1984.22;567.888;3.54
1308;1972.01;587.42;3.54
1309;1994.29;553.972;3.54
1310;2008.94;569.842;3.54
1311;2011.38;548.112;3.54
1312;1999.17;593.524;3.54
1313;1969.57;577.654;3.54
1314;1929.9;553.972;3.54
1315;1944.85;589.618;3.54
1316;1984.22;571.795;3.54
1317;1999.17;573.748;3.55
1318;2006.5;559.832;3.55
1319;2001.61;591.571;3.55
1320;1974.45;575.701;3.55
1321;1959.8;595.477;3.55
1322;1991.85;571.795;3.55
1323;2026.33;561.785;3.55
1324;2041.29;587.42;3.55
1325;2041.29;565.935;3.55
1326;2021.45;567.888;3.55
1327;1986.96;569.842;3.55
1328;1972.01;585.467;3.55
1329;1994.29;573.748;3.55
1330;2004.06;565.935;3.55
1331;2011.38;550.066;3.55
1332;1999.17;579.608;3.55
1333;1967.13;579.608;3.55
1334;1932.64;553.972;3.56
1335;1947.29;579.608;3.56
1336;1986.96;575.701;3.56
1337;2001.61;575.701;3.56
1338;2008.94;555.925;3.56
1339;1999.17;583.514;3.56
1340;1972.01;575.701;3.56
1341;1957.06;599.384;3.56
1342;1991.85;567.888;3.56
1343;2021.45;565.935;3.56
1344;2038.54;593.524;3.56
1345;2041.29;561.785;3.56
1346;2021.45;569.842;3.56
1347;1984.22;565.935;3.56
1348;1974.45;587.42;3.56
1349;1991.85;559.832;3.56
1350;2008.94;567.888;3.56
1351;2014.13;546.159;3.57
1352;2001.61;583.514;3.57
1353;1967.13;577.654;3.57
1354;1932.64;550.066;3.57
1355;1952.17;585.467;3.57
1356;1986.96;575.701;3.57
1357;2001.61;577.654;3.57
1358;2008.94;553.972;3.57
1359;1996.73;591.571;3.57
1360;1974.45;573.748;3.57
1361;1959.8;595.477;3.57
1362;1994.29;561.785;3.57
1363;2023.89;567.888;3.57
1364;2038.54;587.42;3.57
1365;2038.54;557.878;3.57
1366;2019.01;569.842;3.57
1367;1981.78;567.888;3.58
1368;1969.57;585.467;3.58
1369;1994.29;552.019;3.58
1370;2004.06;569.842;3.58
1371;2008.94;548.112;3.58
1372;1996.73;593.524;3.58
1373;1964.69;573.748;3.58
1374;1932.64;553.972;3.58
1375;1949.73;589.618;3.58
1376;1986.96;571.795;3.58
1377;1999.17;571.795;3.58
1378;2006.5;559.832;3.58
1379;1996.73;591.571;3.58
1380;1972.01;571.795;3.58
1381;1957.06;591.571;3.58
1382;1994.29;573.748;3.58
1383;2026.33;559.832;3.58
1384;2038.54;591.571;3.59
1385;2041.29;563.738;3.59
1386;2021.45;567.888;3.59
1387;1981.78;567.888;3.59
1388;1974.45;585.467;3.59
1389;1996.73;567.888;3.59
1390;2011.38;567.888;3.59
1391;2014.13;546.159;3.59
1392;1999.17;577.654;3.59
1393;1967.13;581.561;3.59
1394;1932.64;552.019;3.59
1395;1952.17;579.608;3.59
1396;1986.96;575.701;3.59
1397;1999.17;577.654;3.59
1398;2006.5;553.972;3.59
1399;1996.73;585.467;3.59
1400;1967.13;575.701;3.59
1401;1954.62;599.384;3.6
1402;1991.85;563.738;3.6
1403;2021.45;563.738;3.6
1404;2036.1;591.571;3.6
1405;2041.29;559.832;3.6
1406;2016.57;569.842;3.6
1407;1979.34;567.888;3.6
1408;1972.01;585.467;3.6
1409;1994.29;557.878;3.6
1410;2008.94;567.888;3.6
1411;2011.38;546.159;3.6
1412;1999.17;583.514;3.6
1413;1964.69;577.654;3.6
1414;1932.64;553.972;3.6
1415;1954.62;585.467;3.6
1416;1984.22;573.748;3.6
1417;1999.17;573.748;3.6
1418;2006.5;555.925;3.61
1419;1994.29;591.571;3.61
1420;1967.13;573.748;3.61
1421;1957.06;599.384;3.61
1422;1991.85;557.878;3.61
1423;2021.45;565.935;3.61
1424;2036.1;589.618;3.61
1425;2036.1;555.925;3.61
1426;2014.13;571.795;3.61
1427;1981.78;567.888;3.61
1428;1972.01;581.561;3.61
1429;1999.17;552.019;3.61
1430;2008.94;569.842;3.61
1431;2011.38;544.206;3.61
1432;1999.17;591.571;3.61
1433;1962.24;575.701;3.61
1434;1929.9;553.972;3.62
1435;1954.62;589.618;3.62
1436;1986.96;573.748;3.62
1437;1996.73;575.701;3.62
1438;2001.61;555.925;3.62
1439;1991.85;589.618;3.62
1440;1964.69;571.795;3.62
1441;1954.62;595.477;3.62
1442;1994.29;565.935;3.62
1443;2021.45;567.888;3.62
1444;2033.66;589.618;3.62
1445;2031.22;559.832;3.62
1446;2008.94;569.842;3.62
1447;1976.89;565.935;3.62
1448;1972.01;583.514;3.62
1449;1991.85;553.972;3.62
1450;2006.5;567.888;3.62
1451;2008.94;546.159;3.63
1452;1994.29;585.467;3.63
1453;1959.8;575.701;3.63
1454;1929.9;552.019;3.63
1455;1954.62;587.42;3.63
1456;1984.22;575.701;3.63
1457;2001.61;571.795;3.63
1458;2001.61;555.925;3.63
1459;1991.85;593.524;3.63
1460;1962.24;571.795;3.63
1461;1954.62;597.43;3.63
1462;1994.29;555.925;3.63
1463;2021.45;567.888;3.63
1464;2036.1;587.42;3.63
1465;2036.1;553.972;3.63
1466;2008.94;569.842;3.63
1467;1976.89;567.888;3.63
1468;1972.01;581.561;3.64
1469;1994.29;553.972;3.64
1470;2006.5;569.842;3.64
1471;2006.5;550.066;3.64
1472;1994.29;593.524;3.64
1473;1959.8;581.561;3.64
1474;1929.9;550.066;3.64
1475;1952.17;575.701;3.64
1476;1984.22;577.654;3.64
1477;1994.29;571.795;3.64
1478;1999.17;555.925;3.64
1479;1986.96;573.748;3.64
1480;1962.24;573.748;3.64
1481;1949.73;597.43;3.64
1482;1991.85;571.795;3.64
1483;2021.45;557.878;3.64
1484;2033.66;589.618;3.65
1485;2033.66;561.785;3.65
1486;2006.5;567.888;3.65
1487;1974.45;565.935;3.65
1488;1969.57;585.467;3.65
1489;1991.85;561.785;3.65
1490;2004.06;565.935;3.65
1491;2006.5;540.056;3.65
1492;1989.41;581.561;3.65
1493;1952.17;573.748;3.65
1494;1925.01;550.066;3.65
1495;1952.17;581.561;3.65
1496;1981.78;575.701;3.65
1497;1994.29;575.701;3.65
1498;1996.73;555.925;3.65
1499;1984.22;587.42;3.65
1500;1959.8;573.748;3.65
1501;1952.17;597.43;3.66
1502;1994.29;561.785;3.66
1503;2023.89;565.935;3.66
1504;2038.54;589.618;3.66
1505;2036.1;559.832;3.66
1506;2011.38;565.935;3.66
1507;1979.34;567.888;3.66
1508;1972.01;585.467;3.66
1509;1989.41;552.019;3.66
1510;2004.06;565.935;3.66
1511;2011.38;546.159;3.66
1512;1999.17;587.42;3.66
1513;1969.57;575.701;3.66
1514;1932.64;552.019;3.66
1515;1935.08;585.467;3.66
1516;1972.01;571.795;3.66
1517;1986.96;573.748;3.66
1518;1994.29;555.925;3.67
1519;1991.85;591.571;3.67
1520;1969.57;571.795;3.67
1521;1947.29;595.477;3.67
1522;1979.34;553.972;3.67
1523;2016.57;567.888;3.67
1524;2031.22;587.42;3.67
1525;2041.29;553.972;3.67
1526;2026.33;567.888;3.67
1527;1989.41;563.738;3.67
1528;1969.57;585.467;3.67
1529;1989.41;552.019;3.67
1530;2001.61;569.842;3.67
1531;2008.94;548.112;3.67
1532;1996.73;595.477;3.67
1533;1967.13;573.748;3.67
1534;1929.9;553.972;3.67
1535;1935.08;575.701;3.68
1536;1974.45;577.654;3.68
1537;1989.41;573.748;3.68
1538;1994.29;555.925;3.68
1539;1986.96;573.748;3.68
1540;1967.13;573.748;3.68
1541;1947.29;597.43;3.68
1542;1979.34;567.888;3.68
1543;2011.38;559.832;3.68
1544;2031.22;589.618;3.68
1545;2038.54;561.785;3.68
1546;2019.01;567.888;3.68
1547;1989.41;567.888;3.68
1548;1969.57;585.467;3.68
1549;1991.85;561.785;3.68
1550;2004.06;567.888;3.68
1551;2006.5;540.056;3.68
1552;1999.17;581.561;3.69
1553;1967.13;577.654;3.69
1554;1927.45;550.066;3.69
1555;1935.08;581.561;3.69
1556;1974.45;573.748;3.69
1557;1986.96;573.748;3.69
1558;1994.29;553.972;3.69
1559;1986.96;585.467;3.69
1560;1964.69;569.842;3.69
1561;1944.85;597.43;3.69
1562;1976.89;561.785;3.69
1563;2011.38;563.738;3.69
1564;2028.78;589.618;3.69
1565;2036.1;557.878;3.69
1566;2016.57;567.888;3.69
1567;1981.78;563.738;3.69
1568;1967.13;583.514;3.69
1569;1986.96;552.019;3.7
1570;1999.17;565.935;3.7
1571;2006.5;542.009;3.7
1572;1996.73;587.42;3.7
1573;1964.69;573.748;3.7
1574;1927.45;550.066;3.7
1575;1935.08;585.467;3.7
1576;1974.45;569.842;3.7
1577;1986.96;573.748;3.7
1578;1994.29;557.878;3.7
1579;1989.41;587.42;3.7
1580;1964.69;569.842;3.7
1581;1944.85;597.43;3.7
1582;1979.34;553.972;3.7
1583;2014.13;563.738;3.7
1584;2031.22;585.467;3.7
1585;2033.66;552.019;3.71
1586;2019.01;567.888;3.71
1587;1986.96;565.935;3.71
1588;1969.57;581.561;3.71
1589;1989.41;552.019;3.71
1590;2001.61;565.935;3.71
1591;2006.5;548.112;3.71
1592;1994.29;595.477;3.71
1593;1959.8;573.748;3.71
1594;1925.01;555.925;3.71
1595;1935.08;589.618;3.71
1596;1969.57;571.795;3.71
1597;1984.22;573.748;3.71
1598;1991.85;555.925;3.71
1599;1984.22;587.42;3.71
1600;1959.8;569.842;3.71
1601;1942.41;595.477;3.71
1602;1979.34;555.925;3.72
1603;2008.94;563.738;3.72
1604;2028.78;587.42;3.72
1605;2031.22;555.925;3.72
1606;2011.38;567.888;3.72
1607;1979.34;563.738;3.72
1608;1964.69;581.561;3.72
1609;1984.22;550.066;3.72
1610;1996.73;567.888;3.72
1611;1999.17;546.159;3.72
1612;1991.85;587.42;3.72
1613;1959.8;573.748;3.72
1614;1920.13;553.972;3.72
1615;1932.64;587.42;3.72
1616;1969.57;569.842;3.72
1617;1981.78;571.795;3.72
1618;1989.41;555.925;3.72
1619;1981.78;587.42;3.73
1620;1957.06;569.842;3.73
1621;1944.85;591.571;3.73
1622;1976.89;548.112;3.73
1623;2011.38;565.935;3.73
1624;2028.78;583.514;3.73
1625;2036.1;553.972;3.73
1626;2011.38;565.935;3.73
1627;1979.34;565.935;3.73
1628;1964.69;581.561;3.73
1629;1986.96;567.888;3.73
1630;1996.73;565.935;3.73
1631;2001.61;542.009;3.73
1632;1989.41;577.654;3.73
1633;1954.62;577.654;3.73
1634;1922.57;550.066;3.73
1635;1935.08;577.654;3.73
1636;1969.57;573.748;3.74
1637;1984.22;571.795;3.74
1638;1991.85;553.972;3.74
1639;1981.78;581.561;3.74
1640;1957.06;571.795;3.74
1641;1942.41;597.43;3.74
1642;1979.34;563.738;3.74
1643;2011.38;561.785;3.74
1644;2026.33;589.618;3.74
1645;2031.22;557.878;3.74
1646;2011.38;567.888;3.74
1647;1979.34;561.785;3.74
1648;1964.69;581.561;3.74
1649;1981.78;557.878;3.74
1650;1996.73;567.888;3.74
1651;1999.17;542.009;3.74
1652;1986.96;579.608;3.74
1653;1954.62;575.701;3.74
1654;1915.25;548.112;3.75
1655;1935.08;583.514;3.75
1656;1969.57;571.795;3.75
1657;1981.78;573.748;3.75
1658;1989.41;553.972;3.75
1659;1981.78;589.618;3.75
1660;1952.17;569.842;3.75
1661;1939.97;597.43;3.75
1662;1979.34;555.925;3.75
1663;2011.38;563.738;3.75
1664;2023.89;587.42;3.75
1665;2031.22;553.972;3.75
1666;2006.5;567.888;3.75
1667;1976.89;565.935;3.75
1668;1962.24;583.514;3.75
1669;1984.22;552.019;3.75
1670;1996.73;567.888;3.75
1671;2001.61;544.206;3.76
1672;1984.22;591.571;3.76
1673;1954.62;571.795;3.76
1674;1917.69;553.972;3.76
1675;1932.64;589.618;3.76
1676;1967.13;569.842;3.76
1677;1981.78;571.795;3.76
1678;1986.96;555.925;3.76
1679;1976.89;585.467;3.76
1680;1949.73;569.842;3.76
1681;1937.52;591.571;3.76
1682;1976.89;546.159;3.76
1683;2008.94;565.935;3.76
1684;2023.89;581.561;3.76
1685;2028.78;552.019;3.76
1686;2008.94;569.842;3.76
1687;1974.45;565.935;3.76
1688;1962.24;583.514;3.77
1689;1984.22;567.888;3.77
1690;1994.29;563.738;3.77
1691;1999.17;544.206;3.77
1692;1984.22;575.701;3.77
1693;1949.73;575.701;3.77
1694;1915.25;550.066;3.77
1695;1932.64;577.654;3.77
1696;1967.13;573.748;3.77
1697;1981.78;571.795;3.77
1698;1984.22;553.972;3.77
1699;1974.45;579.608;3.77
1700;1947.29;571.795;3.77
1701;1937.52;595.477;3.77
1702;1976.89;559.832;3.77
1703;2006.5;561.785;3.77
1704;2023.89;583.514;3.77
1705;2023.89;557.878;3.78
1706;2001.61;565.935;3.78
1707;1972.01;563.738;3.78
1708;1957.06;581.561;3.78
1709;1981.78;553.972;3.78
1710;1991.85;565.935;3.78
1711;1994.29;544.206;3.78
1712;1981.78;581.561;3.78
1713;1947.29;573.748;3.78
1714;1912.8;548.112;3.78
1715;1932.64;581.561;3.78
1716;1962.24;571.795;3.78
1717;1976.89;573.748;3.78
1718;1981.78;553.972;3.78
1719;1972.01;587.42;3.78
1720;1944.85;569.842;3.78
1721;1935.08;597.43;3.78
1722;1976.89;555.925;3.78
1723;2008.94;561.785;3.79
1724;2023.89;587.42;3.79
1725;2026.33;553.972;3.79
1726;2001.61;567.888;3.79
1727;1969.57;561.785;3.79
1728;1959.8;579.608;3.79
1729;1981.78;552.019;3.79
1730;1989.41;567.888;3.79
1731;1989.41;544.206;3.79
1732;1979.34;589.618;3.79
1733;1939.97;571.795;3.79
1734;1905.48;552.019;3.79
1735;1927.45;585.467;3.79
1736;1957.06;569.842;3.79
1737;1972.01;573.748;3.79
1738;1976.89;555.925;3.79
1739;1967.13;587.42;3.79
1740;1939.97;567.888;3.79
1741;1932.64;593.524;3.8
1742;1974.45;546.159;3.8
1743;2004.06;565.935;3.8
1744;2019.01;581.561;3.8
1745;2021.45;550.066;3.8
1746;1999.17;567.888;3.8
1747;1964.69;567.888;3.8
1748;1959.8;579.608;3.8
1749;1976.89;550.066;3.8
1750;1984.22;565.935;3.8
1751;1984.22;542.009;3.8
1752;1969.57;583.514;3.8
1753;1935.08;573.748;3.8
1754;1902.73;550.066;3.8
1755;1920.13;581.561;3.8
1756;1952.17;569.842;3.8
1757;1967.13;571.795;3.8
1758;1972.01;555.925;3.8
1759;1962.24;587.42;3.8
1760;1935.08;569.842;3.81
1761;1927.45;593.524;3.81
1762;1972.01;552.019;3.81
1763;1996.73;563.738;3.81
1764;2014.13;583.514;3.81
1765;2014.13;553.972;3.81
1766;1991.85;569.842;3.81
1767;1962.24;563.738;3.81
1768;1952.17;579.608;3.81
1769;1972.01;552.019;3.81
1770;1981.78;565.935;3.81
1771;1981.78;544.206;3.81
1772;1967.13;593.524;3.81
1773;1929.9;571.795;3.81
1774;1897.85;555.925;3.81
1775;1920.13;587.42;3.81
1776;1952.17;567.888;3.81
1777;1962.24;567.888;3.81
1778;1967.13;555.925;3.82
1779;1954.62;573.748;3.82
1780;1929.9;571.795;3.82
1781;1925.01;593.524;3.82
1782;1967.13;567.888;3.82
1783;1996.73;559.832;3.82
1784;2011.38;585.467;3.82
1785;2011.38;559.832;3.82
1786;1986.96;563.738;3.82
1787;1954.62;563.738;3.82
1788;1947.29;581.561;3.82
1789;1969.57;559.832;3.82
1790;1974.45;563.738;3.82
1791;1981.78;544.206;3.82
1792;1959.8;577.654;3.82
1793;1925.01;575.701;3.82
1794;1892.97;550.066;3.82
1795;1917.69;577.654;3.82
1796;1947.29;569.842;3.83
1797;1962.24;573.748;3.83
1798;1964.69;552.019;3.83
1799;1952.17;585.467;3.83
1800;1927.45;569.842;3.83
1801;1922.57;597.43;3.83
1802;1967.13;557.878;3.83
1803;1994.29;563.738;3.83
1804;2008.94;587.42;3.83
1805;2011.38;555.925;3.83
1806;1984.22;565.935;3.83
1807;1954.62;561.785;3.83
1808;1947.29;583.514;3.83
1809;1972.01;550.066;3.83
1810;1976.89;567.888;3.83
1811;1979.34;542.009;3.83
1812;1962.24;585.467;3.83
1813;1922.57;571.795;3.83
1814;1890.53;550.066;3.83
1815;1917.69;583.514;3.84
1816;1944.85;569.842;3.84
1817;1954.62;573.748;3.84
1818;1962.24;553.972;3.84
1819;1947.29;587.42;3.84
1820;1922.57;567.888;3.84
1821;1920.13;591.571;3.84
1822;1962.24;552.019;3.84
1823;1989.41;561.785;3.84
1824;2004.06;581.561;3.84
1825;2001.61;552.019;3.84
1826;1979.34;567.888;3.84
1827;1944.85;561.785;3.84
1828;1942.41;579.608;3.84
1829;1962.24;548.112;3.84
1830;1969.57;565.935;3.84
1831;1972.01;544.206;3.84
1832;1954.62;593.524;3.84
1833;1912.8;569.842;3.84
1834;1885.64;555.925;3.85
1835;1912.8;587.42;3.85
1836;1942.41;567.888;3.85
1837;1952.17;569.842;3.85
1838;1957.06;557.878;3.85
1839;1944.85;585.467;3.85
1840;1917.69;569.842;3.85
1841;1915.25;593.524;3.85
1842;1959.8;565.935;3.85
1843;1986.96;559.832;3.85
1844;1999.17;585.467;3.85
1845;1996.73;559.832;3.85
1846;1974.45;565.935;3.85
1847;1944.85;565.935;3.85
1848;1939.97;581.561;3.85
1849;1959.8;557.878;3.85
1850;1964.69;563.738;3.85
1851;1969.57;540.056;3.85
1852;1947.29;577.654;3.85
1853;1910.36;575.701;3.86
1854;1883.2;548.112;3.86
1855;1910.36;579.608;3.86
1856;1932.64;571.795;3.86
1857;1944.85;573.748;3.86
1858;1952.17;550.066;3.86
1859;1944.85;585.467;3.86
1860;1917.69;569.842;3.86
1861;1907.92;595.477;3.86
1862;1947.29;559.832;3.86
1863;1979.34;563.738;3.86
