<WeldAnalyseData xmlns:i="http:www.w3.org/2001/XMLSchema-instance">
<WeldParameter>
<TimeStamp>DT#2023-12-05-15:14:13</TimeStamp>
<Generator>SG-22-10000</Generator>
<GenFreq>20</GenFreq>
<MaxForce>8000</MaxForce>
<MaxPower>10000</MaxPower>
<RunupPressure>1.5</RunupPressure>
<RunupDist>10</RunupDist>
<RunPress>0.8</RunPress>
<ShakeDelay>0.03</ShakeDelay>
<ShakeTime>0.3</ShakeTime>
<RunBackPress1>6</RunBackPress1>
<RunBackPress2>2</RunBackPress2>
<RunBackDist>1</RunBackDist>
<TrigValue>500</TrigValue>
<TrigModeUnit>W</TrigModeUnit>
<WeldModeUnit>Ws</WeldModeUnit>
<PressNr>0</PressNr>
<MaxLoss>1500</MaxLoss>
</WeldParameter>
<WeldSets>
<WeldSet>
<PressRiseTime>0</PressRiseTime>
<RunPressure>1</RunPressure>
<Amplitude>86</Amplitude>
<WeldMode>3270</WeldMode>
</WeldSet>
</WeldSets>
<WeldValue>
<WeldNr>2434</WeldNr>
<RecipeName>RickStyle</RecipeName>
<WeldTime>1758</WeldTime>
<DistDiff>3.42</DistDiff>
<DistAbs>78.29</DistAbs>
<Energy>3271.78</Energy>
<MaxPower>2071.04</MaxPower>
<CycleTime>6060</CycleTime>
<TrigForce>504.654</TrigForce>
<TrigDist>74.87</TrigDist>
<RunSpeed>68.4995</RunSpeed>
<MaxForce>601.337</MaxForce>
<LossPower>249.889</LossPower>
</WeldValue>
</WeldAnalyseData>
#CSV-START#
ms;Power[W];Force[N];Distance[mm]
1;0;0;0
2;0;504.654;0
3;0;504.654;0
4;0;504.654;0.00999451
5;0;506.607;0.00999451
6;0;508.56;0.00999451
7;0;506.607;0.00999451
8;0;492.691;0.00999451
9;0;469.008;0.0199966
10;1.88832;453.383;0.0299988
11;31.4913;441.42;0.0499954
12;43.6987;431.654;0.0599976
13;65.9772;427.503;0.0799942
14;93.1387;419.691;0.0999985
15;130.066;419.691;0.119995
16;174.623;409.925;0.139999
17;216.739;390.149;0.159996
18;243.9;397.961;0.189995
19;268.62;401.868;0.209999
20;290.593;386.242;0.229996
21;315.313;392.102;0.25
22;327.826;390.149;0.279999
23;352.546;397.961;0.299995
24;374.519;386.242;0.32
25;399.239;388.195;0.339996
26;416.635;378.185;0.360001
27;434.03;401.868;0.379997
28;441.355;394.055;0.399994
29;451.121;388.195;0.419998
30;470.958;403.821;0.43
31;483.165;397.961;0.449997
32;495.678;401.868;0.459999
33;505.444;394.055;0.479996
34;515.515;401.868;0.489998
35;515.515;403.821;0.509995
36;525.281;411.878;0.519997
37;542.676;394.055;0.540001
38;550.001;405.774;0.549995
39;552.442;409.925;0.57
40;550.001;397.961;0.579994
41;545.118;405.774;0.589996
42;539.93;407.971;0.610001
43;535.047;415.784;0.619995
44;537.488;407.971;0.629997
45;537.488;409.925;0.639999
46;535.047;405.774;0.659996
47;532.605;421.644;0.669998
48;525.281;413.831;0.68
49;517.956;411.878;0.689995
50;527.722;419.691;0.699997
51;537.488;415.784;0.719994
52;545.118;413.831;0.729996
53;552.442;409.925;0.739998
54;552.442;417.737;0.759995
55;554.884;417.737;0.769997
56;559.767;425.55;0.779999
57;582.045;411.878;0.799995
58;594.253;421.644;0.809998
59;606.765;417.737;0.82
60;609.207;413.831;0.839996
61;609.207;419.691;0.849998
62;606.765;421.644;0.860001
63;609.207;421.644;0.879997
64;616.531;419.691;0.889999
65;621.414;413.831;0.909996
66;626.602;415.784;0.919998
67;629.044;427.503;0.939995
68;624.161;417.737;0.949997
69;621.414;419.691;0.969994
70;638.81;423.597;0.979996
71;651.322;419.691;1
72;658.647;421.644;1.00999
73;663.53;423.597;1.03
74;665.971;423.597;1.05
75;663.53;433.607;1.06
76;673.296;427.503;1.07
77;695.574;419.691;1.09
78;710.528;429.456;1.11
79;720.294;429.456;1.12
80;722.735;421.644;1.14
81;717.853;427.503;1.14999
82;715.411;429.456;1.17
83;717.853;431.654;1.18
84;727.619;429.456;1.2
85;732.807;425.55;1.21999
86;740.131;423.597;1.23
87;745.014;441.42;1.25
88;740.131;427.503;1.25999
89;735.248;429.456;1.28
90;757.221;437.513;1.3
91;772.176;431.654;1.31
92;781.941;427.503;1.32999
93;792.012;429.456;1.34
94;796.896;437.513;1.36
95;799.337;443.373;1.37
96;816.733;441.42;1.38
97;846.335;429.456;1.39999
98;863.426;445.326;1.41
99;878.38;437.513;1.42
100;888.146;437.513;1.43999
101;890.587;437.513;1.45
102;885.704;441.42;1.46
103;895.775;441.42;1.48
104;910.424;437.513;1.49
105;920.19;427.503;1.5
106;930.261;439.467;1.50999
107;930.261;447.279;1.53
108;920.19;443.373;1.54
109;920.19;433.607;1.55
110;944.91;459.243;1.56
111;964.747;441.42;1.57
112;977.26;445.326;1.57999
113;987.026;437.513;1.6
114;994.35;449.232;1.61
115;996.792;447.279;1.62
116;1016.63;459.243;1.63
117;1046.23;429.456;1.64
118;1066.07;447.279;1.64999
119;1083.16;457.289;1.66
120;1093.23;437.513;1.67
121;1088.35;451.186;1.68
122;1083.16;451.186;1.68999
123;1095.67;459.243;1.7
124;1112.76;447.279;1.71
125;1122.83;447.279;1.71999
126;1130.16;443.373;1.71999
127;1127.72;470.962;1.73
128;1112.76;453.383;1.74
129;1112.76;451.186;1.75
130;1142.67;469.008;1.75999
131;1164.64;455.336;1.77
132;1177.16;453.383;1.78
133;1194.25;453.383;1.79
134;1201.88;463.149;1.79
135;1201.88;469.008;1.8
136;1224.15;470.962;1.81
137;1263.52;447.279;1.82
138;1285.8;469.008;1.82
139;1305.64;467.055;1.82999
140;1317.85;457.289;1.84
141;1310.52;463.149;1.85
142;1302.89;472.915;1.85
143;1317.85;470.962;1.86
144;1337.68;465.102;1.87
145;1349.89;457.289;1.87
146;1359.96;467.055;1.88
147;1352.33;482.925;1.89
148;1337.68;465.102;1.89999
149;1335.24;475.112;1.89999
150;1369.73;480.972;1.91
151;1389.56;472.915;1.91
152;1404.21;461.196;1.92
153;1416.73;475.112;1.93
154;1419.17;479.019;1.93
155;1411.54;492.691;1.93999
156;1436.26;482.925;1.95
157;1475.93;470.962;1.95
158;1495.77;492.691;1.96
159;1515.3;480.972;1.96
160;1517.74;475.112;1.96999
161;1507.98;480.972;1.98
162;1495.77;492.691;1.98
163;1510.42;484.878;1.99
164;1530.26;479.019;1.99
165;1542.46;465.102;2
166;1550.09;488.784;2
167;1540.02;496.597;2.00999
168;1510.42;472.915;2.00999
169;1507.98;494.644;2.02
170;1542.46;510.514;2.02
171;1562.3;490.738;2.03
172;1574.51;486.831;2.03
173;1587.02;482.925;2.04
174;1579.7;500.748;2.04
175;1567.18;496.597;2.05
176;1589.46;508.56;2.05
177;1631.58;470.962;2.06
178;1648.67;496.597;2.06
179;1666.06;498.795;2.06
180;1666.06;479.019;2.07
181;1646.23;494.644;2.07
182;1626.39;502.701;2.07999
183;1636.46;502.701;2.07999
184;1655.99;488.784;2.09
185;1666.06;488.784;2.09
186;1666.06;488.784;2.09
187;1651.11;518.326;2.1
188;1619.06;494.644;2.1
189;1611.74;496.597;2.11
190;1648.67;516.373;2.11
191;1666.06;500.748;2.11
192;1678.27;490.738;2.12
193;1683.15;496.597;2.12
194;1675.83;510.514;2.13
195;1661.18;516.373;2.13
196;1683.15;512.467;2.13
197;1725.27;488.784;2.14
198;1747.55;514.42;2.14
199;1759.75;508.56;2.14
200;1757.31;498.795;2.14999
201;1737.48;506.607;2.14999
202;1715.5;518.326;2.16
203;1730.15;512.467;2.16
204;1747.55;500.748;2.16
205;1754.87;494.644;2.17
206;1754.87;506.607;2.17
207;1730.15;524.43;2.17
208;1698.11;498.795;2.18
209;1690.78;512.467;2.18
210;1722.83;522.477;2.18
211;1742.66;510.514;2.18999
212;1749.99;500.748;2.18999
213;1752.43;512.467;2.18999
214;1740.22;516.373;2.2
215;1722.83;532.243;2.2
216;1742.66;520.524;2.2
217;1784.47;502.701;2.21
218;1804.31;528.336;2.21
219;1816.52;512.467;2.21
220;1809.19;512.467;2.21999
221;1786.92;516.373;2.21999
222;1764.64;530.29;2.21999
223;1777.15;522.477;2.23
224;1794.24;512.467;2.23
225;1801.87;496.597;2.23
226;1801.87;522.477;2.24
227;1777.15;530.29;2.24
228;1745.11;504.654;2.24
229;1737.48;526.383;2.24
230;1774.71;526.383;2.25
231;1789.36;520.524;2.25
232;1799.43;508.56;2.25
233;1804.31;520.524;2.25999
234;1786.92;528.336;2.25999
235;1767.38;536.149;2.25999
236;1791.8;530.29;2.25999
237;1833.91;510.514;2.27
238;1851.31;536.149;2.27
239;1865.96;522.477;2.27
240;1851.31;516.373;2.28
241;1829.03;526.383;2.28
242;1806.75;536.149;2.28
243;1818.96;526.383;2.28
244;1836.36;520.524;2.29
245;1841.24;506.607;2.29
246;1838.8;526.383;2.29
247;1814.08;538.102;2.3
248;1779.59;512.467;2.3
249;1774.71;532.243;2.3
250;1809.19;536.149;2.3
251;1826.59;526.383;2.31
252;1836.36;516.373;2.31
253;1833.91;530.29;2.31
254;1814.08;530.29;2.31
255;1791.8;550.066;2.32
256;1821.4;528.336;2.32
257;1861.08;520.524;2.32
258;1878.47;548.112;2.32
259;1890.68;522.477;2.32999
260;1880.91;526.383;2.32999
261;1851.31;530.29;2.32999
262;1831.47;536.149;2.32999
263;1846.12;538.102;2.34
264;1865.96;522.477;2.34
265;1865.96;522.477;2.34
266;1861.08;522.477;2.34
267;1838.8;553.972;2.35
268;1804.31;530.29;2.35
269;1801.87;528.336;2.35
270;1836.36;553.972;2.35
271;1856.19;534.196;2.36
272;1863.52;524.43;2.36
273;1861.08;528.336;2.36
274;1841.24;542.009;2.36
275;1826.59;546.159;2.37
276;1848.56;548.112;2.37
277;1888.24;514.42;2.37
278;1910.52;544.206;2.37
279;1917.84;538.102;2.37
280;1908.07;522.477;2.38
281;1878.47;536.149;2.38
282;1856.19;550.066;2.38
283;1870.84;542.009;2.38
284;1890.68;528.336;2.39
285;1895.56;522.477;2.39
286;1893.12;534.196;2.39
287;1863.52;553.972;2.39
288;1826.59;528.336;2.39
289;1826.59;540.056;2.39999
290;1863.52;552.019;2.39999
291;1885.8;538.102;2.39999
292;1890.68;524.43;2.39999
293;1888.24;538.102;2.39999
294;1868.4;546.159;2.41
295;1846.12;555.925;2.41
296;1875.72;548.112;2.41
297;1917.84;528.336;2.41
298;1932.79;553.972;2.41
299;1945;540.056;2.42
300;1930.05;534.196;2.42
301;1900.44;542.009;2.42
302;1878.47;553.972;2.42
303;1895.56;546.159;2.42
304;1910.52;538.102;2.43
305;1915.4;522.477;2.43
306;1910.52;546.159;2.43
307;1883.35;557.878;2.43
308;1843.68;530.29;2.43
309;1846.12;550.066;2.43999
310;1883.35;553.972;2.43999
311;1900.44;546.159;2.43999
312;1908.07;530.29;2.43999
313;1902.89;548.112;2.43999
314;1883.35;548.112;2.45
315;1863.52;569.842;2.45
316;1893.12;546.159;2.45
317;1932.79;536.149;2.45
318;1949.88;565.935;2.45
319;1959.96;542.009;2.45
320;1942.56;542.009;2.46
321;1912.96;544.206;2.46
322;1895.56;563.738;2.46
323;1910.52;553.972;2.46
324;1927.61;538.102;2.46
325;1932.79;542.009;2.46999
326;1925.16;538.102;2.46999
327;1895.56;569.842;2.46999
328;1861.08;544.206;2.46999
329;1863.52;546.159;2.46999
330;1895.56;565.935;2.46999
331;1912.96;548.112;2.48
332;1922.72;540.056;2.48
333;1917.84;544.206;2.48
334;1895.56;557.878;2.48
335;1873.28;559.832;2.48
336;1905.63;563.738;2.48
337;1945;530.29;2.49
338;1962.4;559.832;2.49
339;1969.72;555.925;2.49
340;1952.33;542.009;2.49
341;1925.16;552.019;2.49
342;1900.44;563.738;2.49
343;1920.28;555.925;2.5
344;1935.24;546.159;2.5
345;1942.56;538.102;2.5
346;1932.79;548.112;2.5
347;1902.89;569.842;2.5
348;1865.96;542.009;2.5
349;1865.96;552.019;2.50999
350;1902.89;569.842;2.50999
351;1920.28;552.019;2.50999
352;1925.16;540.056;2.50999
353;1917.84;552.019;2.50999
354;1898;557.878;2.50999
355;1875.72;571.795;2.52
356;1908.07;561.785;2.52
357;1947.44;538.102;2.52
358;1967.28;569.842;2.52
359;1974.6;555.925;2.52
360;1962.4;546.159;2.52
361;1932.79;555.925;2.53
362;1908.07;567.888;2.53
363;1920.28;559.832;2.53
364;1937.68;552.019;2.53
365;1945;538.102;2.53
366;1940.12;555.925;2.53
367;1912.96;569.842;2.53
368;1870.84;542.009;2.54
369;1865.96;563.738;2.54
370;1902.89;567.888;2.54
371;1922.72;557.878;2.54
372;1930.05;542.009;2.54
373;1930.05;557.878;2.54
374;1908.07;563.738;2.54
375;1883.35;581.561;2.55
376;1905.63;559.832;2.55
377;1949.88;550.066;2.55
378;1969.72;575.701;2.55
379;1979.49;553.972;2.55
380;1967.28;553.972;2.55
381;1935.24;559.832;2.55
382;1910.52;573.748;2.56
383;1922.72;555.925;2.56
384;1940.12;557.878;2.56
385;1949.88;542.009;2.56
386;1940.12;557.878;2.56
387;1912.96;575.701;2.56
388;1873.28;548.112;2.56
389;1865.96;563.738;2.56
390;1902.89;571.795;2.57
391;1920.28;557.878;2.57
392;1930.05;548.112;2.57
393;1925.16;559.832;2.57
394;1905.63;567.888;2.57
395;1885.8;581.561;2.57
396;1908.07;563.738;2.57
397;1949.88;552.019;2.57
398;1969.72;577.654;2.57999
399;1979.49;557.878;2.57999
400;1967.28;553.972;2.57999
401;1937.68;561.785;2.57999
402;1912.96;577.654;2.57999
403;1927.61;563.738;2.57999
404;1942.56;557.878;2.57999
405;1949.88;540.056;2.57999
406;1945;567.888;2.59
407;1917.84;575.701;2.59
408;1880.91;550.066;2.59
409;1873.28;571.795;2.59
410;1912.96;571.795;2.59
411;1930.05;567.888;2.59
412;1940.12;546.159;2.59
413;1935.24;569.842;2.59
414;1912.96;565.935;2.6
415;1893.12;573.748;2.6
416;1917.84;579.608;2.6
417;1959.96;540.056;2.6
418;1979.49;569.842;2.6
419;1987.12;569.842;2.6
420;1977.05;548.112;2.6
421;1945;563.738;2.6
422;1920.28;573.748;2.6
423;1937.68;573.748;2.61
424;1954.77;555.925;2.61
425;1957.21;553.972;2.61
426;1952.33;557.878;2.61
427;1920.28;587.42;2.61
428;1880.91;555.925;2.61
429;1883.35;563.738;2.61
430;1920.28;585.467;2.61
431;1937.68;563.738;2.62
432;1949.88;552.019;2.62
433;1945;561.785;2.62
434;1920.28;573.748;2.62
435;1898;577.654;2.62
436;1922.72;577.654;2.62
437;1962.4;550.066;2.62
438;1981.93;579.608;2.62
439;1989.56;567.888;2.62
440;1974.6;555.925;2.63
441;1942.56;567.888;2.63
442;1920.28;579.608;2.63
443;1937.68;571.795;2.63
444;1954.77;559.832;2.63
445;1959.96;550.066;2.63
446;1954.77;565.935;2.63
447;1927.61;583.514;2.63
448;1888.24;553.972;2.63
449;1888.24;571.795;2.63
450;1927.61;579.608;2.64
451;1945;569.842;2.64
452;1952.33;553.972;2.64
453;1947.44;567.888;2.64
454;1925.16;573.748;2.64
455;1902.89;587.42;2.64
456;1927.61;571.795;2.64
457;1967.28;555.925;2.64
458;1984.37;585.467;2.64
459;1996.88;565.935;2.64
460;1977.05;561.785;2.64999
461;1945;569.842;2.64999
462;1922.72;583.514;2.64999
463;1942.56;569.842;2.64999
464;1959.96;563.738;2.64999
465;1967.28;550.066;2.64999
466;1959.96;573.748;2.64999
467;1930.05;581.561;2.64999
468;1893.12;552.019;2.64999
469;1895.56;577.654;2.64999
470;1932.79;575.701;2.66
471;1952.33;571.795;2.66
472;1957.21;553.972;2.66
473;1952.33;575.701;2.66
474;1930.05;573.748;2.66
475;1912.96;595.477;2.66
476;1935.24;569.842;2.66
477;1974.6;548.112;2.66
478;1989.56;573.748;2.66
479;1996.88;575.701;2.66
480;1979.49;552.019;2.66
481;1949.88;571.795;2.67
482;1925.16;583.514;2.67
483;1947.44;577.654;2.67
484;1964.84;561.785;2.67
485;1969.72;561.785;2.67
486;1964.84;563.738;2.67
487;1932.79;591.571;2.67
488;1895.56;565.935;2.67
489;1898;569.842;2.67
490;1937.68;587.42;2.67
491;1952.33;571.795;2.67
492;1962.4;553.972;2.68
493;1957.21;567.888;2.68
494;1932.79;581.561;2.68
495;1912.96;585.467;2.68
496;1940.12;581.561;2.68
497;1977.05;555.925;2.68
498;1994.44;583.514;2.68
499;2001.77;571.795;2.68
500;1981.93;559.832;2.68
501;1949.88;571.795;2.68
502;1930.05;583.514;2.68
503;1952.33;575.701;2.68999
504;1967.28;563.738;2.68999
505;1972.16;557.878;2.68999
506;1962.4;569.842;2.68999
507;1935.24;587.42;2.68999
508;1895.56;557.878;2.68999
509;1898;573.748;2.68999
510;1940.12;585.467;2.68999
511;1957.21;571.795;2.68999
512;1964.84;557.878;2.68999
513;1957.21;571.795;2.68999
514;1935.24;577.654;2.68999
515;1917.84;591.571;2.68999
516;1945;577.654;2.7
517;1981.93;559.832;2.7
518;1996.88;589.618;2.7
519;2004.21;569.842;2.7
520;1987.12;565.935;2.7
521;1952.33;571.795;2.7
522;1932.79;589.618;2.7
523;1957.21;575.701;2.7
524;1972.16;569.842;2.7
525;1977.05;552.019;2.7
526;1969.72;577.654;2.7
527;1937.68;583.514;2.7
528;1915.4;557.878;2.71
529;1895.56;581.561;2.71
530;1935.24;579.608;2.71
531;1957.21;577.654;2.71
532;1969.72;557.878;2.71
533;1967.28;579.608;2.71
534;1952.33;575.701;2.71
535;1922.72;599.384;2.71
536;1932.79;571.795;2.71
537;1974.6;565.935;2.71
538;1999.32;587.42;2.71
539;2006.65;573.748;2.71
540;2001.77;565.935;2.71
541;1972.16;575.701;2.71999
542;1942.56;591.571;2.71999
543;1949.88;575.701;2.71999
544;1972.16;567.888;2.71999
545;1981.93;555.925;2.71999
546;1979.49;573.748;2.71999
547;1957.21;585.467;2.71999
548;1915.4;557.878;2.71999
549;1902.89;579.608;2.71999
550;1940.12;585.467;2.71999
551;1964.84;575.701;2.71999
552;1974.6;557.878;2.71999
553;1974.6;577.654;2.71999
554;1954.77;579.608;2.71999
555;1927.61;597.43;2.73
556;1937.68;575.701;2.73
557;1981.93;563.738;2.73
558;2001.77;591.571;2.73
559;2014.28;567.888;2.73
560;2004.21;571.795;2.73
561;1974.6;573.748;2.73
562;1945;587.42;2.73
563;1954.77;573.748;2.73
564;1977.05;571.795;2.73
565;1984.37;552.019;2.73
566;1981.93;581.561;2.73
567;1959.96;583.514;2.73
568;1920.28;557.878;2.73
569;1908.07;567.888;2.74
570;1947.44;597.43;2.74
571;1969.72;575.701;2.74
572;1979.49;561.785;2.74
573;1981.93;573.748;2.74
574;1962.4;585.467;2.74
575;1932.79;583.514;2.74
576;1947.44;587.42;2.74
577;1987.12;553.972;2.74
578;2009.09;581.561;2.74
579;2021.6;579.608;2.74
580;2011.53;561.785;2.74
581;1981.93;575.701;2.74
582;1952.33;589.618;2.74
583;1964.84;581.561;2.75
584;1984.37;569.842;2.75
585;1992;561.785;2.75
586;1989.56;571.795;2.75
587;1967.28;597.43;2.75
588;1925.16;565.935;2.75
589;1915.4;575.701;2.75
590;1952.33;589.618;2.75
591;1977.05;573.748;2.75
592;1984.37;561.785;2.75
593;1984.37;573.748;2.75
594;1962.4;581.561;2.75
595;1937.68;593.524;2.75
596;1949.88;585.467;2.75
597;1994.44;561.785;2.75
598;2016.72;589.618;2.75999
599;2028.93;573.748;2.75999
600;2016.72;565.935;2.75999
601;1984.37;575.701;2.75999
602;1957.21;593.524;2.75999
603;1972.16;577.654;2.75999
604;1989.56;567.888;2.75999
605;1999.32;555.925;2.75999
606;1996.88;575.701;2.75999
607;1969.72;587.42;2.75999
608;1932.79;563.738;2.75999
609;1920.28;581.561;2.75999
610;1959.96;585.467;2.75999
611;1981.93;577.654;2.75999
612;1992;561.785;2.75999
613;1994.44;577.654;2.75999
614;1972.16;581.561;2.77
615;1949.88;597.43;2.77
616;1962.4;577.654;2.77
617;1999.32;565.935;2.77
618;2024.04;593.524;2.77
619;2036.25;569.842;2.77
620;2021.6;571.795;2.77
621;1989.56;575.701;2.77
622;1962.4;591.571;2.77
623;1974.6;575.701;2.77
624;1994.44;571.795;2.77
625;2001.77;552.019;2.77
626;1994.44;581.561;2.77
627;1969.72;585.467;2.77
628;1927.61;557.878;2.77
629;1922.72;585.467;2.78
630;1962.4;599.384;2.78
631;1984.37;575.701;2.78
632;1994.44;565.935;2.78
633;1994.44;569.842;2.78
634;1974.6;587.42;2.78
635;1949.88;587.42;2.78
636;1964.84;591.571;2.78
637;2011.53;553.972;2.78
638;2031.37;583.514;2.78
639;2038.69;579.608;2.78
640;2026.49;561.785;2.78
641;1992;575.701;2.78
642;1964.84;589.618;2.78
643;1977.05;585.467;2.78
644;1996.88;569.842;2.78
645;2004.21;559.832;2.78
646;1996.88;569.842;2.79
647;1974.6;595.477;2.79
648;1935.24;565.935;2.79
649;1930.05;577.654;2.79
650;1967.28;589.618;2.79
651;1989.56;575.701;2.79
652;1999.32;561.785;2.79
653;1999.32;575.701;2.79
654;1979.49;581.561;2.79
655;1952.33;593.524;2.79
656;1969.72;581.561;2.79
657;2011.53;559.832;2.79
658;2031.37;589.618;2.79
659;2043.88;575.701;2.79
660;2028.93;569.842;2.79
661;1994.44;573.748;2.79
662;1967.28;591.571;2.8
663;1981.93;579.608;2.8
664;2001.77;571.795;2.8
665;2006.65;555.925;2.8
666;2001.77;577.654;2.8
667;1974.6;591.571;2.8
668;1935.24;559.832;2.8
669;1932.79;581.561;2.8
670;1969.72;585.467;2.8
671;1992;575.701;2.8
672;2001.77;563.738;2.8
673;1999.32;575.701;2.8
674;1979.49;579.608;2.8
675;1952.33;597.43;2.8
676;1972.16;575.701;2.8
677;2014.28;565.935;2.8
678;2036.25;593.524;2.8
679;2043.88;571.795;2.81
680;2026.49;571.795;2.81
681;1996.88;573.748;2.81
682;1972.16;591.571;2.81
683;1987.12;575.701;2.81
684;2006.65;571.795;2.81
685;2011.53;548.112;2.81
686;2006.65;583.514;2.81
687;1979.49;585.467;2.81
688;1937.68;557.878;2.81
689;1932.79;583.514;2.81
690;1974.6;579.608;2.81
691;1992;579.608;2.81
692;2001.77;561.785;2.81
693;2001.77;575.701;2.81
694;1977.05;581.561;2.81
695;1952.33;593.524;2.81
696;1977.05;579.608;2.81
697;2019.16;563.738;2.81
698;2038.69;591.571;2.82
699;2051.21;571.795;2.82
700;2031.37;569.842;2.82
701;1999.32;575.701;2.82
702;1977.05;587.42;2.82
703;1989.56;579.608;2.82
704;2006.65;569.842;2.82
705;2011.53;552.019;2.82
706;2006.65;579.608;2.82
707;1977.05;587.42;2.82
708;1935.24;557.878;2.82
709;1935.24;581.561;2.82
710;1974.6;581.561;2.82
711;1994.44;579.608;2.82
712;2004.21;559.832;2.82
713;2001.77;581.561;2.82
714;1977.05;579.608;2.82
715;1954.77;601.337;2.82
716;1979.49;573.748;2.82
717;2021.6;565.935;2.82999
718;2041.44;595.477;2.82999
719;2051.21;567.888;2.82999
720;2033.81;571.795;2.82999
721;2001.77;571.795;2.82999
722;1977.05;583.514;2.82999
723;1994.44;585.467;2.82999
724;2009.09;563.738;2.82999
725;2014.28;561.785;2.82999
726;2009.09;565.935;2.82999
727;1977.05;595.477;2.82999
728;1937.68;569.842;2.82999
729;1937.68;571.795;2.82999
730;1974.6;593.524;2.82999
731;1994.44;573.748;2.82999
732;2004.21;563.738;2.82999
733;2001.77;569.842;2.82999
734;1979.49;583.514;2.82999
735;1954.77;587.42;2.84
736;1981.93;585.467;2.84
737;2024.04;555.925;2.84
738;2043.88;585.467;2.84
739;2051.21;577.654;2.84
740;2033.81;563.738;2.84
741;1996.88;577.654;2.84
742;1977.05;589.618;2.84
743;1992;579.608;2.84
744;2009.09;567.888;2.84
745;2014.28;553.972;2.84
746;2009.09;573.748;2.84
747;1977.05;591.571;2.84
748;1937.68;561.785;2.84
749;1937.68;579.608;2.84
750;1979.49;587.42;2.84
751;1996.88;573.748;2.84
752;2004.21;555.925;2.84
753;2004.21;575.701;2.85
754;1981.93;581.561;2.85
755;1957.21;595.477;2.85
756;1984.37;577.654;2.85
757;2026.49;559.832;2.85
758;2043.88;589.618;2.85
759;2051.21;571.795;2.85
760;2033.81;567.888;2.85
761;1999.32;573.748;2.85
762;1979.49;591.571;2.85
763;1994.44;577.654;2.85
764;2011.53;571.795;2.85
765;2016.72;552.019;2.85
766;2006.65;579.608;2.85
767;1977.05;587.42;2.85
768;1937.68;555.925;2.85
769;1940.12;579.608;2.85
770;1979.49;581.561;2.85
771;1994.44;575.701;2.85
772;2004.21;561.785;2.86
773;2001.77;579.608;2.86
774;1979.49;577.654;2.86
775;1957.21;601.337;2.86
776;1987.12;573.748;2.86
777;2026.49;567.888;2.86
778;2043.88;595.477;2.86
779;2053.65;567.888;2.86
780;2038.69;571.795;2.86
781;2001.77;571.795;2.86
782;1979.49;589.618;2.86
783;1996.88;567.888;2.86
784;2014.28;565.935;2.86
785;2016.72;559.832;2.86
786;2009.09;565.935;2.86
787;1979.49;593.524;2.86
788;1940.12;565.935;2.86
789;1942.56;569.842;2.86
790;1981.93;589.618;2.87
791;2001.77;573.748;2.87
792;2009.09;561.785;2.87
793;2004.21;569.842;2.87
794;1981.93;581.561;2.87
795;1957.21;589.618;2.87
796;1992;585.467;2.87
797;2031.37;555.925;2.87
798;2046.32;583.514;2.87
799;2058.53;575.701;2.87
800;2036.25;561.785;2.87
801;2001.77;573.748;2.87
802;1981.93;585.467;2.87
803;2001.77;579.608;2.87
804;2014.28;565.935;2.87
805;2016.72;557.878;2.87
806;2009.09;571.795;2.87
807;1977.05;591.571;2.87
808;1940.12;561.785;2.87
809;1945;577.654;2.88
810;1984.37;585.467;2.88
811;2001.77;573.748;2.88
812;2011.53;557.878;2.88
813;2001.77;573.748;2.88
814;1979.49;577.654;2.88
815;1959.96;593.524;2.88
816;1994.44;577.654;2.88
817;2033.81;561.785;2.88
818;2051.21;587.42;2.88
819;2056.09;569.842;2.88
820;2036.25;565.935;2.88
821;2004.21;573.748;2.88
822;1981.93;587.42;2.88
823;2001.77;575.701;2.88
824;2016.72;567.888;2.88
825;2021.6;552.019;2.88
826;2011.53;577.654;2.89
827;1979.49;583.514;2.89
828;1937.68;557.878;2.89
829;1945;581.561;2.89
830;1984.37;581.561;2.89
831;2001.77;575.701;2.89
832;2009.09;557.878;2.89
833;2001.77;577.654;2.89
834;1979.49;575.701;2.89
835;1959.96;599.384;2.89
836;1994.44;571.795;2.89
837;2031.37;565.935;2.89
838;2051.21;591.571;2.89
839;2058.53;565.935;2.89
840;2041.44;567.888;2.89
841;2004.21;569.842;2.89
842;1984.37;589.618;2.89
843;2006.65;569.842;2.89
844;2019.16;569.842;2.89999
845;2024.04;550.066;2.89999
846;2011.53;573.748;2.89999
847;1979.49;585.467;2.89999
848;1940.12;559.832;2.89999
849;1949.88;577.654;2.89999
850;1987.12;583.514;2.89999
851;2004.21;573.748;2.89999
852;2011.53;557.878;2.89999
853;2004.21;575.701;2.89999
854;1979.49;575.701;2.89999
855;1959.96;597.43;2.89999
856;1994.44;573.748;2.89999
857;2033.81;561.785;2.89999
858;2051.21;591.571;2.89999
859;2058.53;567.888;2.89999
860;2038.69;565.935;2.89999
861;2004.21;571.795;2.89999
862;1981.93;587.42;2.91
863;2006.65;573.748;2.91
864;2019.16;569.842;2.91
865;2024.04;548.112;2.91
866;2019.16;579.608;2.91
867;1994.44;581.561;2.91
868;1952.33;553.972;2.91
869;1937.68;583.514;2.91
870;1979.49;579.608;2.91
871;2001.77;577.654;2.91
872;2011.53;557.878;2.91
873;2011.53;585.467;2.91
874;1994.44;575.701;2.91
875;1967.28;599.384;2.91
876;1979.49;585.467;2.91
877;2021.6;550.066;2.91
878;2046.32;579.608;2.91
879;2058.53;577.654;2.91
880;2046.32;557.878;2.92
881;2019.16;573.748;2.92
882;1987.12;581.561;2.92
883;1994.44;575.701;2.92
884;2019.16;565.935;2.92
885;2021.6;559.832;2.92
886;2021.6;565.935;2.92
887;1992;591.571;2.92
888;1952.33;563.738;2.92
889;1940.12;571.795;2.92
890;1979.49;587.42;2.92
891;2001.77;571.795;2.92
892;2011.53;555.925;2.92
893;2014.28;571.795;2.92
894;1992;579.608;2.92
895;1964.84;589.618;2.92
896;1981.93;581.561;2.93
897;2026.49;553.972;2.93
898;2046.32;585.467;2.93
899;2060.97;571.795;2.93
900;2048.76;561.785;2.93
901;2016.72;573.748;2.93
902;1987.12;583.514;2.93
903;1999.32;573.748;2.93
904;2014.28;565.935;2.93
905;2024.04;553.972;2.93
906;2019.16;571.795;2.93
907;1992;585.467;2.93
908;1952.33;555.925;2.93
909;1940.12;575.701;2.93
910;1979.49;579.608;2.93
911;1999.32;571.795;2.93
912;2009.09;559.832;2.93
913;2011.53;573.748;2.93
914;1989.56;575.701;2.93999
915;1962.4;593.524;2.93999
916;1984.37;573.748;2.93999
917;2031.37;561.785;2.93999
918;2053.65;591.571;2.93999
919;2065.85;569.842;2.93999
920;2053.65;565.935;2.93999
921;2021.6;573.748;2.93999
922;1992;587.42;2.93999
923;2004.21;571.795;2.93999
924;2019.16;567.888;2.93999
925;2024.04;548.112;2.93999
926;2021.6;581.561;2.93999
927;1987.12;581.561;2.93999
928;1949.88;552.019;2.93999
929;1937.68;581.561;2.93999
930;1979.49;577.654;2.93999
931;2001.77;573.748;2.93999
932;2009.09;555.925;2.95
933;2009.09;583.514;2.95
934;1992;573.748;2.95
935;1964.84;599.384;2.95
936;1989.56;567.888;2.95
937;2033.81;552.019;2.95
938;2056.09;579.608;2.95
939;2063.41;575.701;2.95
940;2053.65;557.878;2.95
941;2021.6;571.795;2.95
942;1992;581.561;2.95
943;2004.21;577.654;2.95
944;2021.6;563.738;2.95
945;2021.6;555.925;2.95
946;2016.72;563.738;2.95
947;1989.56;591.571;2.95
948;1947.44;561.785;2.95
949;1937.68;573.748;2.96
950;1979.49;585.467;2.96
951;1999.32;567.888;2.96
952;2009.09;557.878;2.96
953;2006.65;571.795;2.96
954;1989.56;575.701;2.96
955;1964.84;589.618;2.96
956;1987.12;577.654;2.96
957;2031.37;555.925;2.96
958;2053.65;585.467;2.96
959;2065.85;569.842;2.96
960;2053.65;561.785;2.96
961;2019.16;569.842;2.96
962;1992;585.467;2.96
963;2001.77;575.701;2.96
964;2019.16;567.888;2.96
965;2024.04;552.019;2.96
966;2014.28;571.795;2.96
967;1987.12;585.467;2.96999
968;1949.88;555.925;2.96999
969;1937.68;577.654;2.96999
970;1979.49;583.514;2.96999
971;2001.77;569.842;2.96999
972;2011.53;555.925;2.96999
973;2009.09;571.795;2.96999
974;1987.12;575.701;2.96999
975;1962.4;595.477;2.96999
976;1989.56;573.748;2.96999
977;2033.81;561.785;2.96999
978;2053.65;587.42;2.96999
979;2063.41;567.888;2.96999
980;2053.65;565.935;2.96999
981;2021.6;571.795;2.96999
982;1992;583.514;2.96999
983;2001.77;569.842;2.96999
984;2021.6;565.935;2.96999
985;2024.04;544.206;2.98
986;2016.72;577.654;2.98
987;1987.12;581.561;2.98
988;1945;553.972;2.98
989;1937.68;579.608;2.98
990;1981.93;577.654;2.98
991;1999.32;573.748;2.98
992;2011.53;553.972;2.98
993;2009.09;581.561;2.98
994;1989.56;571.795;2.98
995;1967.28;597.43;2.98
996;1992;565.935;2.98
997;2033.81;561.785;2.98
998;2058.53;591.571;2.98
999;2068.6;567.888;2.98
1000;2053.65;563.738;2.98
1001;2021.6;569.842;2.98
1002;1992;581.561;2.99
1003;2006.65;573.748;2.99
1004;2024.04;567.888;2.99
1005;2026.49;548.112;2.99
1006;2019.16;573.748;2.99
1007;1987.12;581.561;2.99
1008;1945;553.972;2.99
1009;1942.56;577.654;2.99
1010;1981.93;579.608;2.99
1011;2001.77;571.795;2.99
1012;2011.53;555.925;2.99
1013;2009.09;573.748;2.99
1014;1989.56;573.748;2.99
1015;1967.28;595.477;2.99
1016;1994.44;567.888;2.99
1017;2036.25;563.738;2.99
1018;2058.53;591.571;2.99
1019;2068.6;563.738;2.99
1020;2053.65;569.842;3
1021;2019.16;569.842;3
1022;1994.44;587.42;3
1023;2009.09;561.785;3
1024;2024.04;567.888;3
1025;2024.04;544.206;3
1026;2019.16;581.561;3
1027;1987.12;579.608;3
1028;1945;552.019;3
1029;1945;583.514;3
1030;1981.93;587.42;3
1031;2004.21;567.888;3
1032;2014.28;557.878;3
1033;2009.09;567.888;3
1034;1984.37;579.608;3
1035;1967.28;583.514;3
1036;1994.44;577.654;3
1037;2038.69;553.972;3
1038;2058.53;581.561;3.00999
1039;2068.6;569.842;3.00999
1040;2053.65;559.832;3.00999
1041;2021.6;571.795;3.00999
1042;1992;583.514;3.00999
1043;2009.09;573.748;3.00999
1044;2021.6;565.935;3.00999
1045;2024.04;553.972;3.00999
1046;2016.72;567.888;3.00999
1047;1984.37;585.467;3.00999
1048;1945;557.878;3.00999
1049;1945;573.748;3.00999
1050;1984.37;581.561;3.00999
1051;2004.21;569.842;3.00999
1052;2011.53;557.878;3.00999
1053;2009.09;569.842;3.00999
1054;1989.56;577.654;3.00999
1055;1964.84;589.618;3.00999
1056;1996.88;575.701;3.02
1057;2036.25;557.878;3.02
1058;2058.53;585.467;3.02
1059;2068.6;567.888;3.02
1060;2053.65;561.785;3.02
1061;2019.16;569.842;3.02
1062;1992;585.467;3.02
1063;2009.09;569.842;3.02
1064;2021.6;567.888;3.02
1065;2024.04;548.112;3.02
1066;2016.72;575.701;3.02
1067;1984.37;583.514;3.02
1068;1942.56;552.019;3.02
1069;1947.44;579.608;3.02
1070;1987.12;577.654;3.02
1071;2006.65;571.795;3.02
1072;2016.72;553.972;3.02
1073;2011.53;573.748;3.02
1074;1984.37;573.748;3.03
1075;1967.28;599.384;3.03
1076;1999.32;565.935;3.03
1077;2041.44;561.785;3.03
1078;2058.53;591.571;3.03
1079;2068.6;561.785;3.03
1080;2051.21;567.888;3.03
1081;2016.72;565.935;3.03
1082;1992;581.561;3.03
1083;2006.65;565.935;3.03
1084;2021.6;567.888;3.03
1085;2024.04;542.009;3.03
1086;2014.28;579.608;3.03
1087;1979.49;577.654;3.03
1088;1940.12;552.019;3.03
1089;1945;583.514;3.03
1090;1984.37;577.654;3.03
1091;2004.21;567.888;3.03
1092;2014.28;557.878;3.04
1093;2006.65;565.935;3.04
1094;1981.93;577.654;3.04
1095;1967.28;583.514;3.04
1096;1999.32;581.561;3.04
1097;2038.69;550.066;3.04
1098;2060.97;579.608;3.04
1099;2071.04;571.795;3.04
1100;2051.21;557.878;3.04
1101;2016.72;569.842;3.04
1102;1992;581.561;3.04
1103;2011.53;573.748;3.04
1104;2024.04;561.785;3.04
1105;2026.49;552.019;3.04
1106;2016.72;567.888;3.04
1107;1981.93;587.42;3.04
1108;1942.56;557.878;3.04
1109;1947.44;571.795;3.04
1110;1987.12;583.514;3.05
1111;2004.21;569.842;3.05
1112;2016.72;553.972;3.05
1113;2009.09;567.888;3.05
1114;1984.37;575.701;3.05
1115;1967.28;591.571;3.05
1116;1999.32;571.795;3.05
1117;2043.88;555.925;3.05
1118;2060.97;585.467;3.05
1119;2071.04;567.888;3.05
1120;2046.32;563.738;3.05
1121;2014.28;569.842;3.05
1122;1994.44;585.467;3.05
1123;2011.53;571.795;3.05
1124;2024.04;565.935;3.05
1125;2026.49;548.112;3.05
1126;2016.72;571.795;3.05
1127;1979.49;581.561;3.05
1128;1942.56;552.019;3.05
1129;1949.88;577.654;3.06
1130;1987.12;577.654;3.06
1131;2001.77;567.888;3.06
1132;2014.28;555.925;3.06
1133;2009.09;573.748;3.06
1134;1981.93;571.795;3.06
1135;1969.72;595.477;3.06
1136;2001.77;569.842;3.06
1137;2043.88;561.785;3.06
1138;2060.97;587.42;3.06
1139;2068.6;563.738;3.06
1140;2048.76;567.888;3.06
1141;2014.28;565.935;3.06
1142;1992;585.467;3.06
1143;2011.53;563.738;3.06
1144;2021.6;565.935;3.06
1145;2028.93;544.206;3.06
1146;2014.28;579.608;3.06
1147;1981.93;579.608;3.06
1148;1942.56;550.066;3.07
1149;1952.33;579.608;3.07
1150;1989.56;573.748;3.07
1151;2006.65;573.748;3.07
1152;2016.72;555.925;3.07
1153;2009.09;569.842;3.07
1154;1981.93;575.701;3.07
1155;1967.28;591.571;3.07
1156;2004.21;571.795;3.07
1157;2041.44;559.832;3.07
1158;2060.97;587.42;3.07
1159;2065.85;563.738;3.07
1160;2046.32;563.738;3.07
1161;2011.53;565.935;3.07
1162;1992;585.467;3.07
1163;2011.53;567.888;3.07
1164;2026.49;567.888;3.07
1165;2028.93;546.159;3.07
1166;2016.72;577.654;3.07
1167;1979.49;577.654;3.07999
1168;1942.56;552.019;3.07999
1169;1959.96;581.561;3.07999
1170;1992;573.748;3.07999
1171;2011.53;571.795;3.07999
1172;2019.16;553.972;3.07999
1173;2011.53;579.608;3.07999
1174;1984.37;571.795;3.07999
1175;1967.28;597.43;3.07999
1176;2006.65;565.935;3.07999
1177;2043.88;561.785;3.07999
1178;2063.41;587.42;3.07999
1179;2065.85;557.878;3.07999
1180;2043.88;567.888;3.07999
1181;2011.53;565.935;3.07999
1182;1992;583.514;3.07999
1183;2011.53;575.701;3.07999
1184;2026.49;561.785;3.07999
1185;2026.49;555.925;3.09
1186;2019.16;565.935;3.09
1187;1981.93;589.618;3.09
1188;1947.44;559.832;3.09
1189;1957.21;567.888;3.09
1190;1992;585.467;3.09
1191;2009.09;569.842;3.09
1192;2016.72;557.878;3.09
1193;2009.09;567.888;3.09
1194;1981.93;577.654;3.09
1195;1967.28;585.467;3.09
1196;2006.65;579.608;3.09
1197;2046.32;550.066;3.09
1198;2060.97;581.561;3.09
1199;2065.85;569.842;3.09
1200;2043.88;559.832;3.09
1201;2014.28;567.888;3.09
1202;1992;583.514;3.09
1203;2009.09;569.842;3.1
1204;2024.04;563.738;3.1
1205;2031.37;548.112;3.1
1206;2019.16;569.842;3.1
1207;1989.56;585.467;3.1
1208;1952.33;553.972;3.1
1209;1952.33;575.701;3.1
1210;1992;579.608;3.1
1211;2009.09;567.888;3.1
1212;2016.72;552.019;3.1
1213;2014.28;571.795;3.1
1214;1989.56;571.795;3.1
1215;1967.28;591.571;3.1
1216;1996.88;571.795;3.1
1217;2038.69;559.832;3.1
1218;2058.53;585.467;3.1
1219;2060.97;561.785;3.1
1220;2046.32;565.935;3.1
1221;2014.28;567.888;3.11
1222;1992;585.467;3.11
1223;2009.09;569.842;3.11
1224;2021.6;563.738;3.11
1225;2028.93;544.206;3.11
1226;2021.6;577.654;3.11
1227;1987.12;577.654;3.11
1228;1949.88;550.066;3.11
1229;1952.33;577.654;3.11
1230;1992;575.701;3.11
1231;2009.09;573.748;3.11
1232;2021.6;552.019;3.11
1233;2014.28;579.608;3.11
1234;1989.56;571.795;3.11
1235;1967.28;595.477;3.11
1236;1999.32;563.738;3.11
1237;2041.44;563.738;3.11
1238;2058.53;589.618;3.12
1239;2065.85;559.832;3.12
1240;2048.76;567.888;3.12
1241;2014.28;567.888;3.12
1242;1989.56;583.514;3.12
1243;2009.09;559.832;3.12
1244;2028.93;567.888;3.12
1245;2028.93;553.972;3.12
1246;2019.16;563.738;3.12
1247;1984.37;587.42;3.12
1248;1949.88;555.925;3.12
1249;1954.77;567.888;3.12
1250;1994.44;583.514;3.12
1251;2009.09;567.888;3.12
1252;2016.72;553.972;3.12
1253;2014.28;563.738;3.12
1254;1987.12;575.701;3.12
1255;1969.72;585.467;3.12
1256;1999.32;577.654;3.13
1257;2041.44;552.019;3.13
1258;2058.53;581.561;3.13
1259;2065.85;567.888;3.13
1260;2046.32;559.832;3.13
1261;2011.53;567.888;3.13
1262;1992;583.514;3.13
1263;2009.09;573.748;3.13
1264;2024.04;561.785;3.13
1265;2028.93;550.066;3.13
1266;2019.16;569.842;3.13
1267;1984.37;583.514;3.13
1268;1949.88;553.972;3.13
1269;1954.77;573.748;3.13
1270;1994.44;579.608;3.13
1271;2011.53;569.842;3.13
1272;2021.6;555.925;3.13
1273;2014.28;569.842;3.14
1274;1987.12;571.795;3.14
1275;1969.72;591.571;3.14
1276;2001.77;569.842;3.14
1277;2038.69;557.878;3.14
1278;2058.53;587.42;3.14
1279;2063.41;563.738;3.14
1280;2043.88;565.935;3.14
1281;2009.09;565.935;3.14
1282;1989.56;583.514;3.14
1283;2009.09;569.842;3.14
1284;2026.49;563.738;3.14
1285;2026.49;544.206;3.14
1286;2021.6;575.701;3.14
1287;1984.37;577.654;3.14
1288;1947.44;548.112;3.14
1289;1954.77;577.654;3.14
1290;1994.44;575.701;3.14999
1291;2011.53;571.795;3.14999
1292;2019.16;553.972;3.14999
1293;2014.28;577.654;3.14999
1294;1984.37;571.795;3.14999
1295;1967.28;597.43;3.14999
1296;2001.77;565.935;3.14999
1297;2041.44;561.785;3.14999
1298;2060.97;587.42;3.14999
1299;2065.85;557.878;3.14999
1300;2043.88;565.935;3.14999
1301;2011.53;567.888;3.14999
1302;1992;583.514;3.14999
1303;2011.53;557.878;3.14999
1304;2026.49;563.738;3.14999
1305;2028.93;540.056;3.14999
1306;2016.72;571.795;3.14999
1307;1984.37;579.608;3.14999
1308;1945;552.019;3.16
1309;1957.21;573.748;3.16
1310;1996.88;575.701;3.16
1311;2009.09;569.842;3.16
1312;2016.72;552.019;3.16
1313;2011.53;571.795;3.16
1314;1981.93;569.842;3.16
1315;1967.28;593.524;3.16
1316;2001.77;565.935;3.16
1317;2041.44;557.878;3.16
1318;2058.53;587.42;3.16
1319;2065.85;561.785;3.16
1320;2043.88;563.738;3.16
1321;2009.09;563.738;3.16
1322;1989.56;585.467;3.16
1323;2011.53;561.785;3.16
1324;2026.49;565.935;3.17
1325;2031.37;542.009;3.17
1326;2019.16;577.654;3.17
1327;1984.37;577.654;3.17
1328;1947.44;550.066;3.17
1329;1957.21;579.608;3.17
1330;1994.44;573.748;3.17
1331;2014.28;573.748;3.17
1332;2019.16;553.972;3.17
1333;2014.28;583.514;3.17
1334;1987.12;569.842;3.17
1335;1972.16;595.477;3.17
1336;2006.65;561.785;3.17
1337;2043.88;548.112;3.17
1338;2063.41;579.608;3.17
1339;2065.85;573.748;3.17
1340;2046.32;555.925;3.17
1341;2009.09;567.888;3.18
1342;1992;577.654;3.18
1343;2011.53;575.701;3.18
1344;2024.04;559.832;3.18
1345;2028.93;548.112;3.18
1346;2016.72;565.935;3.18
1347;1981.93;585.467;3.18
1348;1945;555.925;3.18
1349;1959.96;571.795;3.18
1350;1994.44;579.608;3.18
1351;2009.09;565.935;3.18
1352;2019.16;552.019;3.18
1353;2011.53;565.935;3.18
1354;1984.37;573.748;3.18
1355;1969.72;585.467;3.18
1356;2009.09;571.795;3.18
1357;2043.88;555.925;3.18
1358;2063.41;583.514;3.18999
1359;2065.85;565.935;3.18999
1360;2046.32;561.785;3.18999
1361;2009.09;569.842;3.18999
1362;1992;581.561;3.18999
1363;2011.53;569.842;3.18999
1364;2026.49;561.785;3.18999
1365;2028.93;544.206;3.18999
1366;2014.28;571.795;3.18999
1367;1981.93;579.608;3.18999
1368;1945;550.066;3.18999
1369;1959.96;575.701;3.18999
1370;1996.88;575.701;3.18999
1371;2004.21;569.842;3.18999
1372;2014.28;552.019;3.18999
1373;2016.72;573.748;3.18999
1374;1994.44;573.748;3.18999
1375;1969.72;593.524;3.2
1376;1989.56;565.935;3.2
1377;2033.81;557.878;3.2
1378;2053.65;587.42;3.2
1379;2068.6;561.785;3.2
1380;2056.09;565.935;3.2
1381;2021.6;563.738;3.2
1382;1994.44;583.514;3.2
1383;2004.21;563.738;3.2
1384;2021.6;563.738;3.2
1385;2028.93;540.056;3.2
1386;2024.04;577.654;3.2
1387;1994.44;575.701;3.2
1388;1954.77;548.112;3.2
1389;1945;577.654;3.2
1390;1987.12;573.748;3.2
1391;2009.09;571.795;3.2
1392;2016.72;552.019;3.21
1393;2016.72;581.561;3.21
1394;1994.44;571.795;3.21
1395;1969.72;595.477;3.21
1396;1987.12;561.785;3.21
1397;2031.37;561.785;3.21
1398;2053.65;577.654;3.21
1399;2060.97;567.888;3.21
1400;2048.76;555.925;3.21
1401;2014.28;565.935;3.21
1402;1987.12;581.561;3.21
1403;2001.77;573.748;3.21
1404;2021.6;559.832;3.21
1405;2024.04;550.066;3.21
1406;2021.6;563.738;3.21
1407;1992;587.42;3.21
1408;1957.21;555.925;3.21
1409;1949.88;573.748;3.21999
1410;1989.56;579.608;3.21999
1411;2009.09;567.888;3.21999
1412;2024.04;553.972;3.21999
1413;2019.16;567.888;3.21999
1414;1996.88;573.748;3.21999
1415;1969.72;585.467;3.21999
1416;1989.56;573.748;3.21999
1417;2033.81;553.972;3.21999
1418;2051.21;585.467;3.21999
1419;2060.97;563.738;3.21999
1420;2048.76;561.785;3.21999
1421;2014.28;569.842;3.21999
1422;1987.12;581.561;3.21999
1423;2001.77;567.888;3.21999
1424;2019.16;561.785;3.21999
1425;2026.49;546.159;3.23
1426;2021.6;569.842;3.23
1427;1994.44;579.608;3.23
1428;1954.77;550.066;3.23
1429;1949.88;575.701;3.23
1430;1989.56;575.701;3.23
1431;2011.53;569.842;3.23
1432;2021.6;552.019;3.23
1433;2019.16;571.795;3.23
1434;1996.88;569.842;3.23
1435;1972.16;589.618;3.23
1436;1992;565.935;3.23
1437;2036.25;561.785;3.23
1438;2053.65;587.42;3.23
1439;2060.97;557.878;3.23
1440;2046.32;563.738;3.23
1441;2014.28;563.738;3.23
1442;1984.37;583.514;3.24
1443;2001.77;561.785;3.24
1444;2021.6;563.738;3.24
1445;2026.49;542.009;3.24
1446;2021.6;577.654;3.24
1447;1992;577.654;3.24
1448;1952.33;548.112;3.24
1449;1949.88;579.608;3.24
1450;1994.44;571.795;3.24
1451;2014.28;569.842;3.24
1452;2021.6;552.019;3.24
1453;2019.16;585.467;3.24
1454;1996.88;567.888;3.24
1455;1972.16;599.384;3.24
1456;1992;559.832;3.24
1457;2033.81;561.785;3.24
1458;2053.65;587.42;3.25
1459;2060.97;561.785;3.25
1460;2046.32;561.785;3.25
1461;2009.09;565.935;3.25
1462;1984.37;581.561;3.25
1463;1999.32;567.888;3.25
1464;2019.16;563.738;3.25
1465;2021.6;540.056;3.25
1466;2019.16;575.701;3.25
1467;1992;575.701;3.25
1468;1952.33;548.112;3.25
1469;1952.33;577.654;3.25
1470;1992;573.748;3.25
1471;2009.09;571.795;3.25
1472;2024.04;550.066;3.25
1473;2019.16;577.654;3.25
1474;1994.44;569.842;3.25
1475;1969.72;595.477;3.25999
1476;1992;561.785;3.25999
1477;2033.81;559.832;3.25999
1478;2053.65;585.467;3.25999
1479;2058.53;555.925;3.25999
1480;2041.44;567.888;3.25999
1481;2009.09;563.738;3.25999
1482;1984.37;583.514;3.25999
1483;2001.77;553.972;3.25999
1484;2019.16;565.935;3.25999
1485;2024.04;540.056;3.25999
1486;2019.16;577.654;3.25999
1487;1989.56;573.748;3.25999
1488;1949.88;546.159;3.25999
1489;1949.88;581.561;3.25999
1490;1992;581.561;3.25999
1491;2011.53;567.888;3.25999
1492;2021.6;552.019;3.27
1493;2016.72;565.935;3.27
1494;1992;575.701;3.27
1495;1969.72;583.514;3.27
1496;1996.88;573.748;3.27
1497;2036.25;552.019;3.27
1498;2053.65;579.608;3.27
1499;2060.97;563.738;3.27
1500;2043.88;559.832;3.27
1501;2006.65;565.935;3.27
1502;1984.37;579.608;3.27
1503;2001.77;569.842;3.27
1504;2021.6;561.785;3.27
1505;2024.04;548.112;3.27
1506;2019.16;565.935;3.27
1507;1987.12;581.561;3.27
1508;1949.88;550.066;3.28
1509;1952.33;571.795;3.28
1510;1992;577.654;3.28
1511;2011.53;567.888;3.28
1512;2019.16;553.972;3.28
1513;2016.72;569.842;3.28
1514;1992;569.842;3.28
1515;1969.72;589.618;3.28
1516;1996.88;569.842;3.28
1517;2036.25;557.878;3.28
1518;2053.65;585.467;3.28
1519;2060.97;561.785;3.28
1520;2043.88;561.785;3.28
1521;2009.09;565.935;3.28
1522;1984.37;583.514;3.28
1523;2004.21;567.888;3.28
1524;2021.6;563.738;3.28
1525;2026.49;544.206;3.29
1526;2019.16;571.795;3.29
1527;1984.37;575.701;3.29
1528;1945;548.112;3.29
1529;1949.88;577.654;3.29
1530;1992;571.795;3.29
1531;2009.09;569.842;3.29
1532;2021.6;552.019;3.29
1533;2014.28;575.701;3.29
1534;1992;569.842;3.29
1535;1967.28;593.524;3.29
1536;1994.44;563.738;3.29
1537;2033.81;559.832;3.29
1538;2051.21;587.42;3.29
1539;2058.53;555.925;3.29
1540;2041.44;563.738;3.29
1541;2004.21;563.738;3.3
1542;1981.93;583.514;3.3
1543;2004.21;553.972;3.3
1544;2019.16;561.785;3.3
1545;2024.04;538.102;3.3
1546;2014.28;577.654;3.3
1547;1984.37;573.748;3.3
1548;1947.44;550.066;3.3
1549;1952.33;579.608;3.3
1550;1992;571.795;3.3
1551;2009.09;563.738;3.3
1552;2016.72;550.066;3.3
1553;2011.53;565.935;3.3
1554;1987.12;575.701;3.3
1555;1969.72;581.561;3.3
1556;1996.88;573.748;3.3
1557;2038.69;550.066;3.3
1558;2056.09;581.561;3.31
1559;2058.53;565.935;3.31
1560;2038.69;559.832;3.31
1561;2006.65;563.738;3.31
1562;1984.37;581.561;3.31
1563;2004.21;571.795;3.31
1564;2019.16;561.785;3.31
1565;2024.04;546.159;3.31
1566;2014.28;563.738;3.31
1567;1981.93;581.561;3.31
1568;1945;548.112;3.31
1569;1952.33;567.888;3.31
1570;1992;575.701;3.31
1571;2009.09;567.888;3.31
1572;2019.16;550.066;3.31
1573;2014.28;567.888;3.31
1574;1989.56;569.842;3.31
1575;1964.84;587.42;3.32
1576;1999.32;569.842;3.32
1577;2036.25;555.925;3.32
1578;2053.65;585.467;3.32
1579;2056.09;559.832;3.32
1580;2036.25;561.785;3.32
1581;2001.77;565.935;3.32
1582;1981.93;583.514;3.32
1583;2004.21;565.935;3.32
1584;2019.16;559.832;3.32
1585;2021.6;542.009;3.32
1586;2011.53;571.795;3.32
1587;1981.93;575.701;3.32
1588;1945;550.066;3.32
1589;1954.77;575.701;3.32
1590;1994.44;573.748;3.32
1591;2011.53;571.795;3.32
1592;2019.16;550.066;3.32999
1593;2014.28;577.654;3.32999
1594;1989.56;567.888;3.32999
1595;1969.72;593.524;3.32999
1596;2001.77;565.935;3.32999
1597;2036.25;559.832;3.32999
1598;2053.65;585.467;3.32999
1599;2058.53;557.878;3.32999
1600;2038.69;563.738;3.32999
1601;2004.21;563.738;3.32999
1602;1981.93;581.561;3.32999
1603;2004.21;553.972;3.32999
1604;2019.16;563.738;3.32999
1605;2026.49;538.102;3.32999
1606;2014.28;577.654;3.32999
1607;1979.49;571.795;3.32999
1608;1945;550.066;3.32999
1609;1954.77;579.608;3.34
1610;1992;567.888;3.34
1611;2009.09;571.795;3.34
1612;2016.72;552.019;3.34
1613;2009.09;573.748;3.34
1614;1984.37;569.842;3.34
1615;1964.84;589.618;3.34
1616;1999.32;565.935;3.34
1617;2036.25;559.832;3.34
1618;2051.21;585.467;3.34
1619;2056.09;559.832;3.34
1620;2038.69;561.785;3.34
1621;2001.77;563.738;3.34
1622;1984.37;581.561;3.34
1623;2006.65;561.785;3.34
1624;2021.6;563.738;3.34
1625;2024.04;540.056;3.35
1626;2014.28;575.701;3.35
1627;1981.93;575.701;3.35
1628;1945;546.159;3.35
1629;1957.21;577.654;3.35
1630;1994.44;571.795;3.35
1631;2009.09;571.795;3.35
1632;2019.16;550.066;3.35
1633;2009.09;581.561;3.35
1634;1984.37;567.888;3.35
1635;1967.28;595.477;3.35
1636;2001.77;559.832;3.35
1637;2038.69;559.832;3.35
1638;2053.65;587.42;3.35
1639;2058.53;557.878;3.35
1640;2036.25;565.935;3.35
1641;2001.77;563.738;3.35
1642;1987.12;579.608;3.36
1643;2006.65;569.842;3.36
1644;2021.6;561.785;3.36
1645;2024.04;548.112;3.36
1646;2014.28;561.785;3.36
1647;1979.49;581.561;3.36
1648;1942.56;553.972;3.36
1649;1957.21;565.935;3.36
1650;1992;577.654;3.36
1651;2009.09;563.738;3.36
1652;2016.72;553.972;3.36
1653;2006.65;565.935;3.36
1654;1979.49;569.842;3.36
1655;1967.28;585.467;3.36
1656;2004.21;567.888;3.36
1657;2038.69;552.019;3.36
1658;2056.09;579.608;3.37
1659;2060.97;561.785;3.37
1660;2041.44;561.785;3.37
1661;2004.21;567.888;3.37
1662;1989.56;579.608;3.37
1663;2011.53;569.842;3.37
1664;2024.04;561.785;3.37
1665;2024.04;546.159;3.37
1666;2009.09;569.842;3.37
1667;1979.49;577.654;3.37
1668;1940.12;550.066;3.37
1669;1954.77;575.701;3.37
1670;1989.56;573.748;3.37
1671;2001.77;569.842;3.37
1672;2009.09;552.019;3.37
1673;2001.77;569.842;3.37
1674;1977.05;569.842;3.37
1675;1962.4;593.524;3.38
1676;2001.77;563.738;3.38
1677;2036.25;557.878;3.38
1678;2053.65;585.467;3.38
1679;2056.09;559.832;3.38
1680;2033.81;561.785;3.38
1681;2001.77;561.785;3.38
1682;1984.37;581.561;3.38
1683;2006.65;559.832;3.38
1684;2021.6;563.738;3.38
1685;2021.6;540.056;3.38
1686;2009.09;575.701;3.38
1687;1969.72;573.748;3.38
1688;1937.68;546.159;3.38
1689;1952.33;575.701;3.38
1690;1989.56;569.842;3.38
1691;2001.77;569.842;3.38
1692;2009.09;550.066;3.39
1693;1999.32;581.561;3.39
1694;1974.6;567.888;3.39
1695;1959.96;595.477;3.39
1696;2001.77;557.878;3.39
1697;2036.25;559.832;3.39
1698;2053.65;589.618;3.39
1699;2058.53;553.972;3.39
1700;2033.81;563.738;3.39
1701;2001.77;561.785;3.39
1702;1987.12;581.561;3.39
1703;1999.32;550.066;3.39
1704;2016.72;565.935;3.39
1705;2016.72;546.159;3.39
1706;2016.72;563.738;3.39
1707;1984.37;583.514;3.39
1708;1945;552.019;3.39
1709;1935.24;569.842;3.39
1710;1974.6;579.608;3.39999
1711;1992;565.935;3.39999
1712;2001.77;553.972;3.39999
1713;1999.32;563.738;3.39999
1714;1981.93;569.842;3.39999
1715;1957.21;583.514;3.39999
1716;1979.49;569.842;3.39999
1717;2024.04;552.019;3.39999
1718;2043.88;581.561;3.39999
1719;2056.09;561.785;3.39999
1720;2041.44;557.878;3.39999
1721;2009.09;563.738;3.39999
1722;1981.93;579.608;3.39999
1723;1996.88;565.935;3.39999
1724;2014.28;561.785;3.39999
1725;2019.16;544.206;3.39999
1726;2011.53;569.842;3.39999
1727;1981.93;577.654;3.39999
1728;1937.68;550.066;3.41
1729;1932.79;575.701;3.41
1730;1974.6;573.748;3.41
1731;1989.56;567.888;3.41
1732;2001.77;553.972;3.41
1733;1999.32;571.795;3.41
1734;1977.05;567.888;3.41
1735;1954.77;593.524;3.41
1736;1979.49;563.738;3.41
1737;2021.6;555.925;3.41
1738;2041.44;581.561;3.41
1739;2051.21;557.878;3.41
1740;2038.69;561.785;3.41
1741;2006.65;565.935;3.41
1742;1981.93;581.561;3.41
1743;1994.44;559.832;3.41
1744;2011.53;559.832;3.41
1745;2016.72;538.102;3.42
1746;2009.09;575.701;3.42
1747;1974.6;571.795;3.42
1748;1935.24;546.159;3.42
1749;1932.79;575.701;3.42
1750;1969.72;565.935;3.42
1751;1989.56;569.842;3.42
1752;1996.88;550.066;3.42
1753;1992;579.608;3.42
1754;1974.6;567.888;3.42
1755;1949.88;591.571;3.42
1756;1977.05;557.878;3.42
1757;2019.16;559.832;3.42
1758;2041.44;583.514;3.42
