<WeldAnalyseData xmlns:i="http:www.w3.org/2001/XMLSchema-instance">
<WeldParameter>
<TimeStamp>DT#2023-12-06-10:17:05</TimeStamp>
<Generator>SG-22-10000</Generator>
<GenFreq>20</GenFreq>
<MaxForce>8000</MaxForce>
<MaxPower>10000</MaxPower>
<RunupPressure>1.5</RunupPressure>
<RunupDist>10</RunupDist>
<RunPress>0.8</RunPress>
<ShakeDelay>0.03</ShakeDelay>
<ShakeTime>0.3</ShakeTime>
<RunBackPress1>6</RunBackPress1>
<RunBackPress2>2</RunBackPress2>
<RunBackDist>1</RunBackDist>
<TrigValue>500</TrigValue>
<TrigModeUnit>W</TrigModeUnit>
<WeldModeUnit>Ws</WeldModeUnit>
<PressNr>0</PressNr>
<MaxLoss>1500</MaxLoss>
</WeldParameter>
<WeldSets>
<WeldSet>
<PressRiseTime>0</PressRiseTime>
<RunPressure>1</RunPressure>
<Amplitude>86</Amplitude>
<WeldMode>3270</WeldMode>
</WeldSet>
</WeldSets>
<WeldValue>
<WeldNr>2468</WeldNr>
<RecipeName>RickStyle</RecipeName>
<WeldTime>1748</WeldTime>
<DistDiff>3.5</DistDiff>
<DistAbs>78.28</DistAbs>
<Energy>3270.37</Energy>
<MaxPower>2082.13</MaxPower>
<CycleTime>6070</CycleTime>
<TrigForce>502.701</TrigForce>
<TrigDist>74.78</TrigDist>
<RunSpeed>68.5426</RunSpeed>
<MaxForce>601.337</MaxForce>
<LossPower>255.898</LossPower>
</WeldValue>
</WeldAnalyseData>
#CSV-START#
ms;Power[W];Force[N];Distance[mm]
1;0;0;0
2;0;506.607;0
3;0;504.654;0
4;0;502.701;0
5;0;506.607;0.0100021
6;0;508.56;0.0100021
7;0;506.607;0.0100021
8;0;498.795;0.0100021
9;0;470.962;0.0200043
10;3.20444;455.336;0.0299988
11;30.3659;433.607;0.0500031
12;50.2029;427.503;0.0699997
13;72.4814;419.691;0.090004
14;109.409;423.597;0.110001
15;156.407;397.961;0.130005
16;205.542;396.008;0.150002
17;242.775;401.868;0.169998
18;274.819;378.185;0.200005
19;299.539;384.045;0.220001
20;326.701;384.045;0.239998
21;353.862;388.195;0.270004
22;388.348;376.232;0.290001
23;415.51;378.185;0.32
24;442.671;364.513;0.340004
25;462.508;396.008;0.360001
26;477.157;384.045;0.380005
27;489.669;372.326;0.400002
28;514.389;397.961;0.43
29;533.921;388.195;0.440002
30;548.875;392.102;0.459999
31;558.641;386.242;0.480003
32;563.829;399.915;0.489998
33;568.712;396.008;0.510002
34;580.92;411.878;0.529999
35;598.315;382.092;0.540001
36;610.523;396.008;0.559998
37;612.964;405.774;0.57
38;612.964;384.045;0.590004
39;608.081;397.961;0.599998
40;595.874;396.008;0.620003
41;595.874;405.774;0.630005
42;600.757;397.961;0.650002
43;600.757;399.915;0.660004
44;605.64;388.195;0.669998
45;600.757;421.644;0.690002
46;593.432;405.774;0.700005
47;585.803;396.008;0.709999
48;595.874;421.644;0.730003
49;600.757;405.774;0.739998
50;598.315;409.925;0.75
51;605.64;399.915;0.770004
52;603.198;413.831;0.779999
53;600.757;409.925;0.790001
54;610.523;423.597;0.809998
55;630.36;394.055;0.82
56;650.197;409.925;0.840004
57;657.521;419.691;0.849998
58;659.963;397.961;0.870003
59;662.404;409.925;0.880005
60;657.521;407.971;0.889999
61;664.846;421.644;0.910004
62;674.917;407.971;0.919998
63;677.358;413.831;0.940002
64;684.683;401.868;0.950005
65;684.683;431.654;0.959999
66;677.358;417.737;0.980003
67;669.729;405.774;1
68;684.683;431.654;1.01
69;696.89;413.831;1.03
70;704.52;415.784;1.04
71;711.844;407.971;1.06
72;714.286;421.644;1.08
73;714.286;417.737;1.09
74;729.24;435.56;1.11
75;753.96;403.821;1.13
76;771.05;419.691;1.14
77;783.563;429.456;1.16
78;788.446;409.925;1.17
79;788.446;423.597;1.19
80;781.121;421.644;1.2
81;786.004;431.654;1.22
82;793.329;419.691;1.23
83;800.653;425.55;1.25
84;805.536;409.925;1.26
85;803.095;443.373;1.28
86;793.329;429.456;1.3
87;788.446;419.691;1.31
88;803.095;441.42;1.33
89;820.49;431.654;1.34
90;827.815;433.607;1.36
91;837.886;421.644;1.37
92;842.769;443.373;1.39
93;842.769;435.56;1.4
94;854.976;455.336;1.42
95;884.579;419.691;1.43
96;901.974;433.607;1.45
97;916.929;451.186;1.46
98;924.253;425.55;1.47
99;921.812;437.513;1.48
100;914.182;437.513;1.5
101;919.37;447.279;1.51
102;931.578;429.456;1.52
103;941.343;439.467;1.53
104;948.973;421.644;1.55
105;946.532;463.149;1.56
106;931.578;447.279;1.57
107;926.695;431.654;1.58
108;944.09;459.243;1.59
109;961.18;447.279;1.6
110;971.252;449.232;1.61
111;981.017;437.513;1.62
112;985.9;459.243;1.63
113;983.459;449.232;1.64
114;995.666;469.008;1.65
115;1025.57;433.607;1.66
116;1042.66;449.232;1.67
117;1055.18;465.102;1.68
118;1062.5;441.42;1.69
119;1055.18;457.289;1.7
120;1045.11;453.383;1.71
121;1052.74;467.055;1.71
122;1064.94;447.279;1.72
123;1074.71;459.243;1.73
124;1084.78;439.467;1.74
125;1084.78;482.925;1.75
126;1069.83;463.149;1.75
127;1067.38;449.232;1.76
128;1094.55;479.019;1.77
129;1116.82;463.149;1.78
130;1129.03;465.102;1.79
131;1143.99;453.383;1.79
132;1151.31;475.112;1.8
133;1151.31;465.102;1.81
134;1168.71;482.925;1.82
135;1200.75;443.373;1.83
136;1223.03;461.196;1.83
137;1240.12;479.019;1.84
138;1255.07;447.279;1.85
139;1250.19;467.055;1.86
140;1237.68;465.102;1.87
141;1247.75;477.065;1.87
142;1269.72;457.289;1.88
143;1282.24;469.008;1.89
144;1292;451.186;1.89
145;1289.56;494.644;1.9
146;1274.91;472.915;1.91
147;1267.28;461.196;1.91
148;1296.88;492.691;1.92
149;1316.72;472.915;1.92
150;1331.68;475.112;1.93
151;1343.88;465.102;1.94
152;1348.77;484.878;1.94
153;1343.88;479.019;1.95
154;1356.4;498.795;1.95
155;1398.21;455.336;1.96
156;1420.48;477.065;1.97
157;1437.88;488.784;1.97
158;1447.65;459.243;1.98
159;1440.32;479.019;1.98
160;1427.81;480.972;1.99
161;1435.44;488.784;1.99
162;1457.41;472.915;2
163;1467.48;477.065;2.01
164;1474.81;469.008;2.01
165;1469.92;504.654;2.02
166;1445.2;482.925;2.02
167;1435.44;477.065;2.03
168;1465.04;506.607;2.03
169;1489.76;486.831;2.04
170;1501.97;482.925;2.04
171;1511.73;475.112;2.05
172;1511.73;500.748;2.05
173;1501.97;488.784;2.06
174;1514.18;510.514;2.06
175;1556.29;465.102;2.07
176;1576.13;486.831;2.07
177;1595.66;506.607;2.08
178;1605.73;472.915;2.08
179;1590.78;490.738;2.09
180;1571.25;490.738;2.09
181;1578.57;502.701;2.1
182;1603.29;480.972;2.1
183;1610.61;490.738;2.11
184;1615.5;472.915;2.11
185;1608.17;520.524;2.11
186;1581.01;498.795;2.12
187;1566.06;484.878;2.12
188;1598.41;518.326;2.13
189;1620.38;496.597;2.13
190;1632.89;496.597;2.14
191;1645.1;486.831;2.14
192;1637.78;510.514;2.14
193;1622.82;502.701;2.15
194;1632.89;516.373;2.15
195;1672.26;477.065;2.16
196;1694.54;498.795;2.16
197;1709.49;512.467;2.16
198;1714.38;479.019;2.17
199;1692.1;500.748;2.17
200;1672.26;502.701;2.17
201;1674.7;512.467;2.18
202;1694.54;492.691;2.18
203;1701.86;498.795;2.19
204;1701.86;486.831;2.19
205;1692.1;528.336;2.19
206;1660.05;504.654;2.2
207;1642.66;496.597;2.2
208;1672.26;526.383;2.2
209;1692.1;506.607;2.21
210;1707.05;502.701;2.21
211;1711.94;498.795;2.22
212;1704.31;516.373;2.22
213;1687.22;514.42;2.22
214;1696.98;522.477;2.23
215;1739.1;498.795;2.23
216;1763.82;506.607;2.23
217;1773.58;526.383;2.24
218;1776.02;498.795;2.24
219;1758.63;510.514;2.24
220;1734.21;506.607;2.25
221;1736.66;524.43;2.25
222;1758.63;494.644;2.25
223;1761.38;512.467;2.26
224;1766.26;488.784;2.26
225;1753.75;532.243;2.26
226;1721.7;518.326;2.27
227;1701.86;498.795;2.27
228;1729.03;530.29;2.27
229;1756.19;516.373;2.28
230;1766.26;518.326;2.28
231;1773.58;502.701;2.28
232;1766.26;536.149;2.29
233;1746.42;516.373;2.29
234;1751.3;542.009;2.29
235;1798.3;500.748;2.3
236;1818.14;516.373;2.3
237;1832.79;536.149;2.3
238;1835.23;504.654;2.31
239;1810.51;522.477;2.31
240;1783.35;516.373;2.31
241;1788.23;534.196;2.31
242;1812.95;502.701;2.32
243;1815.39;520.524;2.32
244;1818.14;498.795;2.32
245;1803.19;548.112;2.33
246;1768.7;524.43;2.33
247;1746.42;508.56;2.33
248;1776.02;542.009;2.34
249;1803.19;524.43;2.34
250;1815.39;526.383;2.34
251;1818.14;512.467;2.34
252;1810.51;542.009;2.35
253;1788.23;524.43;2.35
254;1793.42;548.112;2.35
255;1842.55;504.654;2.35
256;1864.83;522.477;2.36
257;1877.35;544.206;2.36
258;1877.35;510.514;2.36
259;1855.07;528.336;2.37
260;1827.91;524.43;2.37
261;1827.91;540.056;2.37
262;1847.74;512.467;2.37
263;1857.51;526.383;2.38
264;1862.39;508.56;2.38
265;1842.55;555.925;2.38
266;1810.51;532.243;2.38
267;1785.79;516.373;2.39
268;1815.39;553.972;2.39
269;1840.11;532.243;2.39
270;1850.18;532.243;2.39
271;1859.95;522.477;2.4
272;1845.3;546.159;2.4
273;1825.46;536.149;2.4
274;1830.35;553.972;2.4
275;1877.35;508.56;2.4
276;1902.07;532.243;2.41
277;1916.72;548.112;2.41
278;1916.72;514.42;2.41
279;1889.55;536.149;2.41
280;1862.39;534.196;2.42
281;1862.39;548.112;2.42
282;1884.67;520.524;2.42
283;1891.99;530.29;2.42
284;1894.44;520.524;2.43
285;1877.35;563.738;2.43
286;1842.55;538.102;2.43
287;1818.14;526.383;2.43
288;1850.18;561.785;2.43
289;1877.35;540.056;2.44
290;1884.67;538.102;2.44
291;1891.99;530.29;2.44
292;1879.79;552.019;2.44
293;1857.51;544.206;2.44
294;1862.39;557.878;2.45
295;1906.95;514.42;2.45
296;1934.11;542.009;2.45
297;1946.32;550.066;2.45
298;1943.88;520.524;2.45
299;1921.6;540.056;2.46
300;1889.55;544.206;2.46
301;1891.99;552.019;2.46
302;1914.27;530.29;2.46
303;1921.6;540.056;2.46
304;1921.6;516.373;2.47
305;1906.95;557.878;2.47
306;1867.27;548.112;2.47
307;1845.3;526.383;2.47
308;1874.9;557.878;2.47
309;1899.62;544.206;2.48
310;1914.27;548.112;2.48
311;1916.72;530.29;2.48
312;1906.95;563.738;2.48
313;1882.23;546.159;2.48
314;1889.55;567.888;2.49
315;1931.67;532.243;2.49
316;1958.83;542.009;2.49
317;1973.48;563.738;2.49
318;1973.48;532.243;2.49
319;1946.32;544.206;2.49
320;1916.72;540.056;2.5
321;1914.27;557.878;2.5
322;1934.11;526.383;2.5
323;1946.32;548.112;2.5
324;1943.88;522.477;2.5
325;1924.04;569.842;2.51
326;1887.11;550.066;2.51
327;1862.39;530.29;2.51
328;1894.44;565.935;2.51
329;1919.16;550.066;2.51
330;1929.23;550.066;2.51
331;1936.55;534.196;2.52
332;1921.6;567.888;2.52
333;1896.88;548.112;2.52
334;1899.62;573.748;2.52
335;1946.32;528.336;2.52
336;1973.48;546.159;2.52
337;1985.99;567.888;2.53
338;1985.99;534.196;2.53
339;1961.27;548.112;2.53
340;1931.67;548.112;2.53
341;1929.23;561.785;2.53
342;1951.2;530.29;2.53
343;1961.27;548.112;2.54
344;1961.27;528.336;2.54
345;1941.44;579.608;2.54
346;1904.51;555.925;2.54
347;1879.79;538.102;2.54
348;1906.95;571.795;2.54
349;1936.55;553.972;2.55
350;1946.32;555.925;2.55
351;1951.2;538.102;2.55
352;1938.99;571.795;2.55
353;1914.27;555.925;2.55
354;1914.27;575.701;2.55
355;1961.27;528.336;2.56
356;1985.99;552.019;2.56
357;2003.08;569.842;2.56
358;2003.08;534.196;2.56
359;1975.92;553.972;2.56
360;1941.44;552.019;2.56
361;1941.44;567.888;2.57
362;1963.71;534.196;2.57
363;1973.48;548.112;2.57
364;1973.48;536.149;2.57
365;1953.95;581.561;2.57
366;1916.72;557.878;2.57
367;1887.11;544.206;2.58
368;1916.72;577.654;2.58
369;1946.32;553.972;2.58
370;1958.83;553.972;2.58
371;1961.27;546.159;2.58
372;1951.2;571.795;2.58
373;1924.04;559.832;2.58
374;1924.04;577.654;2.59
375;1971.04;528.336;2.59
376;1998.2;557.878;2.59
377;2010.71;567.888;2.59
378;2010.71;536.149;2.59
379;1983.55;555.925;2.59
380;1951.2;555.925;2.59
381;1946.32;569.842;2.6
382;1971.04;544.206;2.6
383;1978.36;548.112;2.6
384;1975.92;542.009;2.6
385;1958.83;585.467;2.6
386;1921.6;557.878;2.6
387;1891.99;546.159;2.61
388;1919.16;579.608;2.61
389;1948.76;557.878;2.61
390;1961.27;553.972;2.61
391;1968.6;544.206;2.61
392;1953.95;575.701;2.61
393;1929.23;559.832;2.61
394;1926.79;581.561;2.61
395;1973.48;536.149;2.62
396;2000.64;555.925;2.62
397;2015.59;573.748;2.62
398;2015.59;542.009;2.62
399;1988.43;559.832;2.62
400;1956.39;555.925;2.62
401;1951.2;573.748;2.62
402;1973.48;542.009;2.63
403;1981.11;553.972;2.63
404;1985.99;538.102;2.63
405;1963.71;587.42;2.63
406;1924.04;559.832;2.63
407;1896.88;548.112;2.63
408;1926.79;579.608;2.63
409;1956.39;559.832;2.64
410;1971.04;559.832;2.64
411;1973.48;548.112;2.64
412;1958.83;577.654;2.64
413;1931.67;563.738;2.64
414;1931.67;581.561;2.64
415;1978.36;536.149;2.64
416;2005.52;561.785;2.64
417;2020.48;575.701;2.65
418;2020.48;538.102;2.65
419;1990.88;559.832;2.65
420;1961.27;561.785;2.65
421;1956.39;573.748;2.65
422;1978.36;548.112;2.65
423;1988.43;552.019;2.65
424;1988.43;542.009;2.65
425;1971.04;589.618;2.65
426;1934.11;563.738;2.66
427;1902.07;552.019;2.66
428;1929.23;587.42;2.66
429;1961.27;561.785;2.66
430;1975.92;555.925;2.66
431;1978.36;553.972;2.66
432;1966.16;577.654;2.66
433;1941.44;569.842;2.66
434;1938.99;579.608;2.67
435;1983.55;553.972;2.67
436;2013.15;555.925;2.67
437;2025.36;579.608;2.67
438;2025.36;552.019;2.67
439;2003.08;559.832;2.67
440;1968.6;557.878;2.67
441;1961.27;577.654;2.67
442;1985.99;546.159;2.68
443;1993.32;559.832;2.68
444;1995.76;538.102;2.68
445;1978.36;581.561;2.68
446;1938.99;569.842;2.68
447;1909.39;546.159;2.68
448;1936.55;577.654;2.68
449;1963.71;567.888;2.68
450;1978.36;567.888;2.68
451;1983.55;548.112;2.69
452;1971.04;585.467;2.69
453;1943.88;565.935;2.69
454;1941.44;589.618;2.69
455;1988.43;550.066;2.69
456;2015.59;559.832;2.69
457;2030.24;583.514;2.69
458;2030.24;550.066;2.69
459;2003.08;561.785;2.69
460;1971.04;559.832;2.7
461;1966.16;579.608;2.7
462;1988.43;548.112;2.7
463;1998.2;563.738;2.7
464;1995.76;540.056;2.7
465;1978.36;587.42;2.7
466;1941.44;569.842;2.7
467;1911.83;550.066;2.7
468;1934.11;581.561;2.71
469;1968.6;567.888;2.71
470;1981.11;569.842;2.71
471;1985.99;552.019;2.71
472;1975.92;587.42;2.71
473;1948.76;569.842;2.71
474;1943.88;591.571;2.71
475;1990.88;546.159;2.71
476;2015.59;561.785;2.71
477;2035.43;585.467;2.71
478;2032.69;550.066;2.72
479;2008.27;565.935;2.72
480;1973.48;561.785;2.72
481;1968.6;581.561;2.72
482;1990.88;548.112;2.72
483;1998.2;563.738;2.72
484;2000.64;542.009;2.72
485;1981.11;595.477;2.72
486;1943.88;569.842;2.72
487;1916.72;555.925;2.73
488;1936.55;585.467;2.73
489;1968.6;567.888;2.73
490;1983.55;567.888;2.73
491;1988.43;557.878;2.73
492;1975.92;587.42;2.73
493;1948.76;569.842;2.73
494;1946.32;593.524;2.73
495;1988.43;546.159;2.73
496;2020.48;569.842;2.73
497;2035.43;583.514;2.74
498;2035.43;550.066;2.74
499;2008.27;569.842;2.74
500;1975.92;569.842;2.74
501;1968.6;581.561;2.74
502;1993.32;553.972;2.74
503;2000.64;563.738;2.74
504;2000.64;548.112;2.74
505;1983.55;597.43;2.74
506;1946.32;573.748;2.74
507;1914.27;555.925;2.75
508;1938.99;589.618;2.75
509;1971.04;569.842;2.75
510;1981.11;569.842;2.75
511;1983.55;555.925;2.75
512;1975.92;587.42;2.75
513;1948.76;573.748;2.75
514;1946.32;591.571;2.75
515;1988.43;544.206;2.75
516;2020.48;571.795;2.75
517;2035.43;581.561;2.75
518;2032.69;550.066;2.76
519;2013.15;569.842;2.76
520;1975.92;571.795;2.76
521;1971.04;579.608;2.76
522;1990.88;557.878;2.76
523;2000.64;567.888;2.76
524;1998.2;544.206;2.76
525;1981.11;583.514;2.76
526;1943.88;577.654;2.76
527;1911.83;550.066;2.76
528;1936.55;579.608;2.77
529;1971.04;575.701;2.77
530;1983.55;575.701;2.77
531;1988.43;553.972;2.77
532;1978.36;593.524;2.77
533;1951.2;573.748;2.77
534;1946.32;595.477;2.77
535;1990.88;561.785;2.77
536;2022.92;563.738;2.77
537;2037.87;585.467;2.77
538;2037.87;559.832;2.77
539;2013.15;567.888;2.77
540;1978.36;563.738;2.78
541;1968.6;587.42;2.78
542;1993.32;552.019;2.78
543;2000.64;567.888;2.78
544;2005.52;544.206;2.78
545;1985.99;589.618;2.78
546;1948.76;577.654;2.78
547;1916.72;552.019;2.78
548;1938.99;581.561;2.78
549;1973.48;575.701;2.78
550;1985.99;575.701;2.78
551;1988.43;555.925;2.79
552;1978.36;591.571;2.79
553;1953.95;573.748;2.79
554;1946.32;599.384;2.79
555;1993.32;555.925;2.79
556;2020.48;565.935;2.79
557;2040.31;589.618;2.79
558;2042.76;559.832;2.79
559;2015.59;569.842;2.79
560;1981.11;565.935;2.79
561;1973.48;585.467;2.79
562;1995.76;552.019;2.79
563;2003.08;569.842;2.8
564;2005.52;546.159;2.8
565;1988.43;593.524;2.8
566;1953.95;573.748;2.8
567;1921.6;553.972;2.8
568;1943.88;587.42;2.8
569;1975.92;575.701;2.8
570;1990.88;575.701;2.8
571;1995.76;555.925;2.8
572;1983.55;591.571;2.8
573;1956.39;573.748;2.8
574;1948.76;595.477;2.8
575;1995.76;550.066;2.81
576;2027.8;567.888;2.81
577;2045.2;587.42;2.81
578;2045.2;555.925;2.81
579;2020.48;569.842;2.81
580;1988.43;565.935;2.81
581;1978.36;587.42;2.81
582;2000.64;552.019;2.81
583;2008.27;569.842;2.81
584;2013.15;548.112;2.81
585;1995.76;599.384;2.81
586;1958.83;575.701;2.81
587;1926.79;557.878;2.82
588;1948.76;593.524;2.82
589;1981.11;573.748;2.82
590;1995.76;571.795;2.82
591;1998.2;559.832;2.82
592;1988.43;589.618;2.82
593;1966.16;573.748;2.82
594;1956.39;595.477;2.82
595;1998.2;544.206;2.82
596;2030.24;569.842;2.82
597;2047.64;587.42;2.82
598;2047.64;553.972;2.82
599;2025.36;571.795;2.82
600;1993.32;571.795;2.83
601;1983.55;583.514;2.83
602;2005.52;555.925;2.83
603;2015.59;569.842;2.83
604;2018.04;552.019;2.83
605;2000.64;601.337;2.83
606;1966.16;573.748;2.83
607;1931.67;559.832;2.83
608;1953.95;595.477;2.83
609;1981.11;571.795;2.83
610;1995.76;575.701;2.83
611;2005.52;557.878;2.83
612;1995.76;593.524;2.83
613;1968.6;573.748;2.84
614;1961.27;597.43;2.84
615;2003.08;553.972;2.84
616;2037.87;567.888;2.84
617;2052.52;589.618;2.84
618;2054.96;555.925;2.84
619;2032.69;571.795;2.84
620;1998.2;567.888;2.84
621;1983.55;587.42;2.84
622;2008.27;553.972;2.84
623;2018.04;569.842;2.84
624;2020.48;548.112;2.84
625;2003.08;597.43;2.84
626;1966.16;575.701;2.84
627;1934.11;557.878;2.85
628;1956.39;591.571;2.85
629;1988.43;573.748;2.85
630;2000.64;571.795;2.85
631;2010.71;559.832;2.85
632;2000.64;591.571;2.85
633;1973.48;571.795;2.85
634;1961.27;597.43;2.85
635;2005.52;550.066;2.85
636;2040.31;569.842;2.85
637;2054.96;587.42;2.85
638;2059.85;555.925;2.85
639;2035.43;571.795;2.85
640;2000.64;569.842;2.85
641;1988.43;585.467;2.86
642;2010.71;553.972;2.86
643;2022.92;569.842;2.86
644;2025.36;550.066;2.86
645;2010.71;601.337;2.86
646;1973.48;575.701;2.86
647;1938.99;559.832;2.86
648;1958.83;595.477;2.86
649;1988.43;571.795;2.86
650;2005.52;571.795;2.86
651;2010.71;559.832;2.86
652;2000.64;591.571;2.86
653;1973.48;573.748;2.86
654;1963.71;597.43;2.86
655;2005.52;567.888;2.87
656;2042.76;565.935;2.87
657;2059.85;591.571;2.87
658;2059.85;563.738;2.87
659;2032.69;569.842;2.87
660;1998.2;571.795;2.87
661;1995.76;587.42;2.87
662;2018.04;561.785;2.87
663;2025.36;569.842;2.87
664;2025.36;542.009;2.87
665;2005.52;583.514;2.87
666;1966.16;581.561;2.87
667;1936.55;555.925;2.87
668;1968.6;585.467;2.87
669;1995.76;577.654;2.87
670;2010.71;575.701;2.88
671;2013.15;555.925;2.88
672;2000.64;589.618;2.88
673;1971.04;573.748;2.88
674;1971.04;599.384;2.88
675;2020.48;561.785;2.88
676;2050.08;567.888;2.88
677;2059.85;591.571;2.88
678;2059.85;561.785;2.88
679;2032.69;569.842;2.88
680;2000.64;567.888;2.88
681;1995.76;587.42;2.88
682;2020.48;555.925;2.88
683;2027.8;569.842;2.88
684;2027.8;546.159;2.88
685;2008.27;587.42;2.89
686;1968.6;575.701;2.89
687;1938.99;553.972;2.89
688;1966.16;585.467;2.89
689;1998.2;573.748;2.89
690;2013.15;575.701;2.89
691;2013.15;555.925;2.89
692;2000.64;593.524;2.89
693;1973.48;571.795;2.89
694;1973.48;597.43;2.89
695;2020.48;559.832;2.89
696;2047.64;567.888;2.89
697;2065.03;591.571;2.89
698;2062.59;557.878;2.89
699;2037.87;571.795;2.89
700;1998.2;565.935;2.89
701;1995.76;587.42;2.89
702;2020.48;553.972;2.9
703;2027.8;571.795;2.9
704;2025.36;544.206;2.9
705;2008.27;593.524;2.9
706;1968.6;575.701;2.9
707;1938.99;555.925;2.9
708;1968.6;589.618;2.9
709;1998.2;575.701;2.9
710;2008.27;575.701;2.9
711;2013.15;559.832;2.9
712;2000.64;591.571;2.9
713;1975.92;573.748;2.9
714;1973.48;601.337;2.9
715;2020.48;552.019;2.9
716;2050.08;569.842;2.9
717;2065.03;589.618;2.9
718;2062.59;553.972;2.9
719;2037.87;571.795;2.91
720;2003.08;569.842;2.91
721;1995.76;583.514;2.91
722;2022.92;553.972;2.91
723;2027.8;569.842;2.91
724;2030.24;548.112;2.91
725;2010.71;599.384;2.91
726;1968.6;577.654;2.91
727;1938.99;555.925;2.91
728;1968.6;591.571;2.91
729;1998.2;573.748;2.91
730;2013.15;573.748;2.91
731;2018.04;557.878;2.91
732;2003.08;589.618;2.91
733;1975.92;573.748;2.91
734;1973.48;597.43;2.91
735;2020.48;548.112;2.91
736;2050.08;571.795;2.92
737;2065.03;587.42;2.92
738;2065.03;553.972;2.92
739;2040.31;573.748;2.92
740;2003.08;571.795;2.92
741;1998.2;587.42;2.92
742;2020.48;569.842;2.92
743;2027.8;567.888;2.92
744;2030.24;546.159;2.92
745;2013.15;581.561;2.92
746;1971.04;581.561;2.92
747;1941.44;552.019;2.92
748;1968.6;583.514;2.92
749;2003.08;579.608;2.92
750;2015.59;573.748;2.92
751;2018.04;557.878;2.92
752;2005.52;587.42;2.92
753;1975.92;575.701;2.93
754;1975.92;599.384;2.93
755;2020.48;567.888;2.93
756;2052.52;567.888;2.93
757;2065.03;589.618;2.93
758;2065.03;563.738;2.93
759;2037.87;573.748;2.93
760;2003.08;567.888;2.93
761;1998.2;587.42;2.93
762;2025.36;557.878;2.93
763;2030.24;569.842;2.93
764;2032.69;544.206;2.93
765;2013.15;585.467;2.93
766;1975.92;579.608;2.93
767;1941.44;553.972;2.93
768;1971.04;583.514;2.93
769;2000.64;575.701;2.93
770;2015.59;577.654;2.94
771;2020.48;555.925;2.94
772;2005.52;591.571;2.94
773;1975.92;575.701;2.94
774;1973.48;599.384;2.94
775;2020.48;561.785;2.94
776;2050.08;567.888;2.94
777;2065.03;591.571;2.94
778;2067.48;559.832;2.94
779;2042.76;571.795;2.94
780;2005.52;567.888;2.94
781;2003.08;589.618;2.94
782;2022.92;553.972;2.94
783;2030.24;569.842;2.94
784;2030.24;546.159;2.94
785;2013.15;589.618;2.94
786;1971.04;577.654;2.94
787;1941.44;555.925;2.95
788;1966.16;587.42;2.95
789;2000.64;573.748;2.95
790;2015.59;577.654;2.95
791;2015.59;557.878;2.95
792;2005.52;591.571;2.95
793;1978.36;573.748;2.95
794;1973.48;599.384;2.95
795;2020.48;555.925;2.95
796;2052.52;567.888;2.95
797;2069.92;589.618;2.95
798;2067.48;555.925;2.95
799;2040.31;569.842;2.95
800;2005.52;565.935;2.95
801;1998.2;585.467;2.95
802;2020.48;552.019;2.95
803;2030.24;569.842;2.95
804;2032.69;546.159;2.95
805;2015.59;595.477;2.96
806;1973.48;575.701;2.96
807;1941.44;555.925;2.96
808;1968.6;589.618;2.96
809;2000.64;575.701;2.96
810;2013.15;575.701;2.96
811;2018.04;559.832;2.96
812;2005.52;593.524;2.96
813;1978.36;571.795;2.96
814;1971.04;599.384;2.96
815;2022.92;552.019;2.96
816;2050.08;569.842;2.96
817;2065.03;589.618;2.96
818;2065.03;557.878;2.96
819;2040.31;571.795;2.96
820;2005.52;569.842;2.96
821;1998.2;585.467;2.96
822;2020.48;553.972;2.97
823;2030.24;569.842;2.97
824;2032.69;548.112;2.97
825;2015.59;601.337;2.97
826;1975.92;573.748;2.97
827;1943.88;557.878;2.97
828;1968.6;583.514;2.97
829;2000.64;573.748;2.97
830;2015.59;575.701;2.97
831;2020.48;557.878;2.97
832;2010.71;593.524;2.97
833;1981.11;575.701;2.97
834;1975.92;599.384;2.97
835;2020.48;557.878;2.97
836;2054.96;565.935;2.97
837;2069.92;591.571;2.97
838;2069.92;559.832;2.97
839;2040.31;569.842;2.97
840;2008.27;565.935;2.98
841;1998.2;585.467;2.98
842;2020.48;553.972;2.98
843;2032.69;567.888;2.98
844;2032.69;546.159;2.98
845;2015.59;595.477;2.98
846;1975.92;577.654;2.98
847;1941.44;555.925;2.98
848;1968.6;587.42;2.98
849;2000.64;573.748;2.98
850;2013.15;575.701;2.98
851;2018.04;555.925;2.98
852;2005.52;591.571;2.98
853;1978.36;571.795;2.98
854;1973.48;597.43;2.98
855;2020.48;553.972;2.98
856;2050.08;569.842;2.98
857;2065.03;589.618;2.99
858;2065.03;557.878;2.99
859;2042.76;571.795;2.99
860;2005.52;567.888;2.99
861;1998.2;585.467;2.99
862;2022.92;553.972;2.99
863;2030.24;569.842;2.99
864;2035.43;550.066;2.99
865;2018.04;599.384;2.99
866;1975.92;575.701;2.99
867;1943.88;555.925;2.99
868;1968.6;589.618;2.99
869;2000.64;573.748;2.99
870;2010.71;573.748;2.99
871;2018.04;559.832;2.99
872;2008.27;573.748;2.99
873;1978.36;573.748;2.99
874;1973.48;595.477;3
875;2020.48;571.795;3
876;2050.08;561.785;3
877;2065.03;587.42;3
878;2067.48;563.738;3
879;2040.31;569.842;3
880;2008.27;567.888;3
881;1998.2;587.42;3
882;2022.92;569.842;3
883;2030.24;567.888;3
884;2032.69;546.159;3
885;2015.59;579.608;3
886;1975.92;579.608;3
887;1943.88;553.972;3
888;1968.6;581.561;3
889;1998.2;577.654;3
890;2015.59;573.748;3
891;2020.48;553.972;3.01
892;2005.52;583.514;3.01
893;1981.11;573.748;3.01
894;1973.48;597.43;3.01
895;2018.04;565.935;3.01
896;2050.08;563.738;3.01
897;2067.48;589.618;3.01
898;2067.48;561.785;3.01
899;2045.2;567.888;3.01
900;2010.71;567.888;3.01
901;1998.2;587.42;3.01
902;2022.92;559.832;3.01
903;2030.24;567.888;3.01
904;2032.69;542.009;3.01
905;2015.59;583.514;3.01
906;1978.36;579.608;3.01
907;1943.88;553.972;3.01
908;1966.16;583.514;3.01
909;1998.2;575.701;3.02
910;2010.71;573.748;3.02
911;2020.48;555.925;3.02
912;2008.27;591.571;3.02
913;1981.11;571.795;3.02
914;1973.48;599.384;3.02
915;2015.59;561.785;3.02
916;2050.08;565.935;3.02
917;2067.48;589.618;3.02
918;2069.92;559.832;3.02
919;2045.2;567.888;3.02
920;2005.52;565.935;3.02
921;1998.2;583.514;3.02
922;2020.48;553.972;3.02
923;2030.24;569.842;3.02
924;2030.24;542.009;3.02
925;2015.59;587.42;3.02
926;1978.36;575.701;3.03
927;1946.32;553.972;3.03
928;1966.16;585.467;3.03
929;1998.2;571.795;3.03
930;2010.71;575.701;3.03
931;2018.04;555.925;3.03
932;2008.27;591.571;3.03
933;1978.36;571.795;3.03
934;1973.48;599.384;3.03
935;2018.04;555.925;3.03
936;2047.64;567.888;3.03
937;2067.48;589.618;3.03
938;2069.92;557.878;3.03
939;2042.76;571.795;3.03
940;2010.71;569.842;3.03
941;1998.2;585.467;3.03
942;2020.48;552.019;3.03
943;2030.24;567.888;3.04
944;2032.69;544.206;3.04
945;2015.59;593.524;3.04
946;1975.92;575.701;3.04
947;1943.88;552.019;3.04
948;1963.71;591.571;3.04
949;1998.2;573.748;3.04
950;2013.15;573.748;3.04
951;2018.04;557.878;3.04
952;2008.27;591.571;3.04
953;1983.55;573.748;3.04
954;1971.04;595.477;3.04
955;2018.04;552.019;3.04
956;2050.08;569.842;3.04
957;2067.48;589.618;3.04
958;2069.92;555.925;3.04
959;2042.76;569.842;3.04
960;2010.71;569.842;3.04
961;1998.2;583.514;3.05
962;2018.04;573.748;3.05
963;2030.24;563.738;3.05
964;2032.69;546.159;3.05
965;2018.04;575.701;3.05
966;1978.36;581.561;3.05
967;1943.88;555.925;3.05
968;1961.27;577.654;3.05
969;1998.2;577.654;3.05
970;2010.71;571.795;3.05
971;2020.48;555.925;3.05
972;2008.27;575.701;3.05
973;1983.55;573.748;3.05
974;1973.48;597.43;3.05
975;2015.59;567.888;3.05
976;2047.64;561.785;3.05
977;2065.03;587.42;3.05
978;2067.48;563.738;3.05
979;2045.2;565.935;3.06
980;2010.71;567.888;3.06
981;1995.76;585.467;3.06
982;2022.92;565.935;3.06
983;2030.24;567.888;3.06
984;2032.69;544.206;3.06
985;2015.59;579.608;3.06
986;1981.11;577.654;3.06
987;1946.32;553.972;3.06
988;1966.16;577.654;3.06
989;1995.76;575.701;3.06
990;2013.15;573.748;3.06
991;2018.04;553.972;3.06
992;2008.27;583.514;3.06
993;1981.11;573.748;3.06
994;1971.04;599.384;3.06
995;2015.59;561.785;3.06
996;2047.64;561.785;3.07
997;2065.03;589.618;3.07
998;2067.48;561.785;3.07
999;2045.2;567.888;3.07
1000;2010.71;563.738;3.07
1001;1998.2;585.467;3.07
1002;2022.92;557.878;3.07
1003;2030.24;567.888;3.07
1004;2032.69;544.206;3.07
1005;2018.04;583.514;3.07
1006;1978.36;577.654;3.07
1007;1943.88;552.019;3.07
1008;1963.71;581.561;3.07
1009;1995.76;573.748;3.07
1010;2013.15;573.748;3.07
1011;2015.59;553.972;3.07
1012;2008.27;589.618;3.07
1013;1981.11;571.795;3.07
1014;1971.04;599.384;3.08
1015;2013.15;559.832;3.08
1016;2047.64;565.935;3.08
1017;2065.03;587.42;3.08
1018;2067.48;559.832;3.08
1019;2047.64;569.842;3.08
1020;2010.71;561.785;3.08
1021;1995.76;585.467;3.08
1022;2018.04;552.019;3.08
1023;2030.24;569.842;3.08
1024;2032.69;544.206;3.08
1025;2018.04;587.42;3.08
1026;1981.11;573.748;3.08
1027;1943.88;550.066;3.08
1028;1961.27;587.42;3.08
1029;1995.76;571.795;3.08
1030;2010.71;575.701;3.08
1031;2020.48;557.878;3.08
1032;2008.27;593.524;3.09
1033;1983.55;571.795;3.09
1034;1971.04;597.43;3.09
1035;2015.59;555.925;3.09
1036;2047.64;565.935;3.09
1037;2065.03;587.42;3.09
1038;2069.92;555.925;3.09
1039;2047.64;569.842;3.09
1040;2013.15;565.935;3.09
1041;1998.2;583.514;3.09
1042;2020.48;552.019;3.09
1043;2030.24;567.888;3.09
1044;2032.69;546.159;3.09
1045;2018.04;593.524;3.09
1046;1981.11;573.748;3.09
1047;1943.88;553.972;3.09
1048;1961.27;581.561;3.09
1049;1995.76;575.701;3.09
1050;2013.15;573.748;3.1
1051;2020.48;555.925;3.1
1052;2008.27;591.571;3.1
1053;1983.55;573.748;3.1
1054;1973.48;595.477;3.1
1055;2013.15;559.832;3.1
1056;2047.64;565.935;3.1
1057;2065.03;589.618;3.1
1058;2067.48;559.832;3.1
1059;2045.2;567.888;3.1
1060;2010.71;565.935;3.1
1061;1998.2;587.42;3.1
1062;2015.59;552.019;3.1
1063;2030.24;567.888;3.1
1064;2030.24;544.206;3.1
1065;2018.04;589.618;3.1
1066;1981.11;575.701;3.1
1067;1946.32;553.972;3.1
1068;1961.27;585.467;3.11
1069;1995.76;571.795;3.11
1070;2010.71;575.701;3.11
1071;2020.48;555.925;3.11
1072;2010.71;589.618;3.11
1073;1983.55;571.795;3.11
1074;1971.04;597.43;3.11
1075;2013.15;553.972;3.11
1076;2047.64;565.935;3.11
1077;2062.59;587.42;3.11
1078;2065.03;555.925;3.11
1079;2042.76;571.795;3.11
1080;2010.71;563.738;3.11
1081;1993.32;585.467;3.11
1082;2018.04;550.066;3.11
1083;2030.24;567.888;3.11
1084;2030.24;546.159;3.11
1085;2018.04;593.524;3.11
1086;1981.11;573.748;3.11
1087;1943.88;553.972;3.12
1088;1958.83;589.618;3.12
1089;1998.2;571.795;3.12
1090;2010.71;571.795;3.12
1091;2018.04;553.972;3.12
1092;2008.27;567.888;3.12
1093;1981.11;573.748;3.12
1094;1968.6;591.571;3.12
1095;2010.71;571.795;3.12
1096;2045.2;559.832;3.12
1097;2065.03;585.467;3.12
1098;2067.48;567.888;3.12
1099;2047.64;561.785;3.12
1100;2008.27;567.888;3.12
1101;1993.32;583.514;3.12
1102;2018.04;569.842;3.12
1103;2030.24;565.935;3.12
1104;2032.69;546.159;3.12
1105;2018.04;571.795;3.13
1106;1981.11;579.608;3.13
1107;1943.88;552.019;3.13
1108;1958.83;573.748;3.13
1109;1995.76;579.608;3.13
1110;2010.71;567.888;3.13
1111;2018.04;552.019;3.13
1112;2010.71;575.701;3.13
1113;1983.55;573.748;3.13
1114;1971.04;593.524;3.13
1115;2008.27;569.842;3.13
1116;2047.64;561.785;3.13
1117;2062.59;585.467;3.13
1118;2067.48;563.738;3.13
1119;2042.76;567.888;3.13
1120;2010.71;567.888;3.13
1121;1993.32;585.467;3.13
1122;2015.59;563.738;3.13
1123;2027.8;565.935;3.13
1124;2032.69;544.206;3.14
1125;2015.59;577.654;3.14
1126;1981.11;577.654;3.14
1127;1943.88;553.972;3.14
1128;1958.83;579.608;3.14
1129;1995.76;575.701;3.14
1130;2005.52;571.795;3.14
1131;2015.59;553.972;3.14
1132;2008.27;583.514;3.14
1133;1981.11;573.748;3.14
1134;1966.16;593.524;3.14
1135;2008.27;563.738;3.14
1136;2045.2;561.785;3.14
1137;2062.59;587.42;3.14
1138;2067.48;561.785;3.14
1139;2045.2;567.888;3.14
1140;2010.71;565.935;3.14
1141;1993.32;585.467;3.14
1142;2013.15;555.925;3.14
1143;2027.8;565.935;3.15
1144;2027.8;540.056;3.15
1145;2015.59;583.514;3.15
1146;1978.36;577.654;3.15
1147;1941.44;550.066;3.15
1148;1956.39;581.561;3.15
1149;1990.88;573.748;3.15
1150;2005.52;573.748;3.15
1151;2013.15;553.972;3.15
1152;2005.52;589.618;3.15
1153;1981.11;571.795;3.15
1154;1963.71;597.43;3.15
1155;2005.52;557.878;3.15
1156;2040.31;565.935;3.15
1157;2057.41;589.618;3.15
1158;2065.03;555.925;3.15
1159;2045.2;567.888;3.15
1160;2008.27;563.738;3.15
1161;1990.88;583.514;3.15
1162;2013.15;552.019;3.16
1163;2022.92;565.935;3.16
1164;2027.8;544.206;3.16
1165;2015.59;587.42;3.16
1166;1978.36;573.748;3.16
1167;1941.44;553.972;3.16
1168;1953.95;583.514;3.16
1169;1990.88;571.795;3.16
1170;2005.52;575.701;3.16
1171;2013.15;553.972;3.16
1172;2005.52;589.618;3.16
1173;1978.36;571.795;3.16
1174;1963.71;595.477;3.16
1175;2005.52;553.972;3.16
1176;2040.31;563.738;3.16
1177;2059.85;585.467;3.16
1178;2062.59;555.925;3.16
1179;2042.76;559.832;3.16
1180;2008.27;569.842;3.16
1181;1988.43;583.514;3.16
1182;2013.15;571.795;3.17
1183;2022.92;563.738;3.17
1184;2025.36;548.112;3.17
1185;2015.59;571.795;3.17
1186;1978.36;581.561;3.17
1187;1941.44;553.972;3.17
1188;1953.95;571.795;3.17
1189;1990.88;579.608;3.17
1190;2008.27;567.888;3.17
1191;2013.15;553.972;3.17
1192;2005.52;569.842;3.17
1193;1981.11;571.795;3.17
1194;1968.6;589.618;3.17
1195;2005.52;567.888;3.17
1196;2042.76;557.878;3.17
1197;2059.85;583.514;3.17
1198;2062.59;565.935;3.17
1199;2045.2;563.738;3.17
1200;2013.15;565.935;3.18
1201;1990.88;583.514;3.18
1202;2015.59;569.842;3.18
1203;2027.8;565.935;3.18
1204;2027.8;546.159;3.18
1205;2015.59;571.795;3.18
1206;1981.11;579.608;3.18
1207;1943.88;553.972;3.18
1208;1953.95;573.748;3.18
1209;1990.88;579.608;3.18
1210;2008.27;569.842;3.18
1211;2015.59;553.972;3.18
1212;2008.27;575.701;3.18
1213;1981.11;571.795;3.18
1214;1963.71;593.524;3.18
1215;2005.52;565.935;3.18
1216;2040.31;561.785;3.18
1217;2059.85;587.42;3.19
1218;2065.03;559.832;3.19
1219;2045.2;565.935;3.19
1220;2010.71;565.935;3.19
1221;1993.32;585.467;3.19
1222;2015.59;559.832;3.19
1223;2025.36;565.935;3.19
1224;2027.8;542.009;3.19
1225;2018.04;579.608;3.19
1226;1981.11;575.701;3.19
1227;1946.32;550.066;3.19
1228;1956.39;577.654;3.19
1229;1993.32;573.748;3.19
1230;2008.27;573.748;3.19
1231;2015.59;552.019;3.19
1232;2008.27;583.514;3.19
1233;1981.11;571.795;3.19
1234;1966.16;595.477;3.19
1235;2003.08;561.785;3.2
1236;2040.31;561.785;3.2
1237;2059.85;585.467;3.2
1238;2065.03;557.878;3.2
1239;2045.2;565.935;3.2
1240;2013.15;563.738;3.2
1241;1993.32;583.514;3.2
1242;2013.15;553.972;3.2
1243;2025.36;565.935;3.2
1244;2030.24;542.009;3.2
1245;2018.04;583.514;3.2
1246;1981.11;575.701;3.2
1247;1943.88;550.066;3.2
1248;1953.95;581.561;3.2
1249;1988.43;571.795;3.2
1250;2005.52;571.795;3.2
1251;2015.59;552.019;3.2
1252;2010.71;589.618;3.2
1253;1981.11;571.795;3.21
1254;1966.16;593.524;3.21
1255;2003.08;555.925;3.21
1256;2045.2;561.785;3.21
1257;2059.85;587.42;3.21
1258;2067.48;557.878;3.21
1259;2047.64;565.935;3.21
1260;2010.71;563.738;3.21
1261;1993.32;583.514;3.21
1262;2010.71;548.112;3.21
1263;2027.8;565.935;3.21
1264;2027.8;540.056;3.21
1265;2018.04;587.42;3.21
1266;1983.55;573.748;3.21
1267;1946.32;550.066;3.21
1268;1951.2;579.608;3.21
1269;1990.88;573.748;3.21
1270;2005.52;569.842;3.22
1271;2015.59;552.019;3.22
1272;2008.27;581.561;3.22
1273;1981.11;569.842;3.22
1274;1963.71;595.477;3.22
1275;2003.08;563.738;3.22
1276;2040.31;561.785;3.22
1277;2057.41;585.467;3.22
1278;2065.03;557.878;3.22
1279;2047.64;561.785;3.22
1280;2010.71;563.738;3.22
1281;1990.88;583.514;3.22
1282;2015.59;555.925;3.22
1283;2025.36;565.935;3.22
1284;2030.24;542.009;3.22
1285;2018.04;581.561;3.22
1286;1983.55;575.701;3.22
1287;1946.32;552.019;3.22
1288;1956.39;581.561;3.23
1289;1990.88;571.795;3.23
1290;2005.52;571.795;3.23
1291;2013.15;552.019;3.23
1292;2008.27;587.42;3.23
1293;1983.55;569.842;3.23
1294;1966.16;595.477;3.23
1295;2000.64;557.878;3.23
1296;2040.31;561.785;3.23
1297;2057.41;585.467;3.23
1298;2065.03;555.925;3.23
1299;2047.64;565.935;3.23
1300;2013.15;563.738;3.23
1301;1990.88;583.514;3.23
1302;2010.71;550.066;3.23
1303;2025.36;563.738;3.23
1304;2027.8;540.056;3.23
1305;2020.48;587.42;3.24
1306;1981.11;573.748;3.24
1307;1946.32;550.066;3.24
1308;1948.76;581.561;3.24
1309;1988.43;569.842;3.24
1310;2003.08;569.842;3.24
1311;2015.59;553.972;3.24
1312;2008.27;567.888;3.24
1313;1983.55;573.748;3.24
1314;1966.16;585.467;3.24
1315;2000.64;571.795;3.24
1316;2040.31;553.972;3.24
1317;2057.41;581.561;3.24
1318;2065.03;567.888;3.24
1319;2045.2;557.878;3.24
1320;2013.15;569.842;3.24
1321;1993.32;579.608;3.25
1322;2013.15;571.795;3.25
1323;2027.8;561.785;3.25
1324;2030.24;546.159;3.25
1325;2020.48;569.842;3.25
1326;1985.99;581.561;3.25
1327;1948.76;553.972;3.25
1328;1951.2;571.795;3.25
1329;1988.43;579.608;3.25
1330;2005.52;567.888;3.25
1331;2013.15;552.019;3.25
1332;2008.27;569.842;3.25
1333;1983.55;571.795;3.25
1334;1966.16;589.618;3.25
1335;2000.64;567.888;3.25
1336;2040.31;557.878;3.25
1337;2059.85;583.514;3.25
1338;2067.48;565.935;3.25
1339;2047.64;561.785;3.26
1340;2013.15;565.935;3.26
1341;1993.32;581.561;3.26
1342;2010.71;567.888;3.26
1343;2027.8;563.738;3.26
1344;2032.69;542.009;3.26
1345;2020.48;571.795;3.26
1346;1985.99;579.608;3.26
1347;1948.76;552.019;3.26
1348;1956.39;573.748;3.26
1349;1990.88;575.701;3.26
1350;2008.27;567.888;3.26
1351;2015.59;552.019;3.26
1352;2010.71;573.748;3.26
1353;1988.43;569.842;3.26
1354;1968.6;595.477;3.26
1355;2003.08;565.935;3.26
1356;2040.31;557.878;3.27
1357;2059.85;585.467;3.27
1358;2069.92;559.832;3.27
1359;2052.52;563.738;3.27
1360;2018.04;563.738;3.27
1361;1995.76;583.514;3.27
1362;2015.59;559.832;3.27
1363;2027.8;563.738;3.27
1364;2032.69;544.206;3.27
1365;2020.48;577.654;3.27
1366;1988.43;577.654;3.27
1367;1948.76;548.112;3.27
1368;1951.2;577.654;3.27
1369;1993.32;575.701;3.27
1370;2010.71;571.795;3.27
1371;2020.48;552.019;3.27
1372;2015.59;583.514;3.27
1373;1990.88;569.842;3.28
1374;1968.6;593.524;3.28
1375;2000.64;559.832;3.28
1376;2042.76;559.832;3.28
1377;2059.85;585.467;3.28
1378;2067.48;557.878;3.28
1379;2052.52;565.935;3.28
1380;2015.59;565.935;3.28
1381;1995.76;583.514;3.28
1382;2013.15;555.925;3.28
1383;2025.36;561.785;3.28
1384;2030.24;540.056;3.28
1385;2022.92;581.561;3.28
1386;1990.88;573.748;3.28
1387;1948.76;548.112;3.28
1388;1953.95;579.608;3.28
1389;1990.88;571.795;3.28
1390;2008.27;571.795;3.29
1391;2018.04;552.019;3.29
1392;2013.15;589.618;3.29
1393;1990.88;567.888;3.29
1394;1971.04;593.524;3.29
1395;2003.08;555.925;3.29
1396;2045.2;561.785;3.29
1397;2059.85;585.467;3.29
1398;2069.92;553.972;3.29
1399;2052.52;555.925;3.29
1400;2018.04;567.888;3.29
1401;1998.2;579.608;3.29
1402;2015.59;571.795;3.29
1403;2030.24;557.878;3.29
1404;2035.43;548.112;3.29
1405;2025.36;561.785;3.29
1406;1993.32;583.514;3.29
1407;1953.95;555.925;3.3
1408;1953.95;569.842;3.3
1409;1993.32;579.608;3.3
1410;2008.27;567.888;3.3
1411;2018.04;550.066;3.3
1412;2013.15;565.935;3.3
1413;1988.43;571.795;3.3
1414;1968.6;587.42;3.3
1415;2003.08;571.795;3.3
1416;2045.2;553.972;3.3
1417;2062.59;581.561;3.3
1418;2069.92;565.935;3.3
1419;2050.08;559.832;3.3
1420;2020.48;567.888;3.3
1421;1998.2;581.561;3.3
1422;2018.04;571.795;3.3
1423;2030.24;559.832;3.31
1424;2035.43;544.206;3.31
1425;2025.36;569.842;3.31
1426;1993.32;579.608;3.31
1427;1953.95;552.019;3.31
1428;1953.95;571.795;3.31
1429;1993.32;575.701;3.31
1430;2013.15;567.888;3.31
1431;2018.04;550.066;3.31
1432;2015.59;567.888;3.31
1433;1993.32;569.842;3.31
1434;1971.04;587.42;3.31
1435;2003.08;565.935;3.31
1436;2045.2;555.925;3.31
1437;2065.03;585.467;3.31
1438;2072.36;563.738;3.31
1439;2059.85;561.785;3.31
1440;2025.36;563.738;3.32
1441;2000.64;581.561;3.32
1442;2018.04;565.935;3.32
1443;2032.69;559.832;3.32
1444;2032.69;542.009;3.32
1445;2030.24;571.795;3.32
1446;1995.76;577.654;3.32
1447;1956.39;548.112;3.32
1448;1953.95;571.795;3.32
1449;1995.76;573.748;3.32
1450;2013.15;567.888;3.32
1451;2022.92;550.066;3.32
1452;2015.59;573.748;3.32
1453;1993.32;569.842;3.32
1454;1971.04;591.571;3.32
1455;2005.52;563.738;3.32
1456;2045.2;559.832;3.32
1457;2062.59;581.561;3.33
1458;2072.36;557.878;3.33
1459;2054.96;563.738;3.33
1460;2020.48;563.738;3.33
1461;1998.2;581.561;3.33
1462;2018.04;557.878;3.33
1463;2032.69;563.738;3.33
1464;2037.87;540.056;3.33
1465;2027.8;577.654;3.33
1466;1995.76;573.748;3.33
1467;1956.39;550.066;3.33
1468;1958.83;575.701;3.33
1469;1993.32;571.795;3.33
1470;2015.59;571.795;3.33
1471;2020.48;550.066;3.33
1472;2020.48;581.561;3.33
1473;1995.76;571.795;3.34
1474;1973.48;593.524;3.34
1475;2005.52;557.878;3.34
1476;2047.64;559.832;3.34
1477;2065.03;585.467;3.34
1478;2077.24;553.972;3.34
1479;2059.85;563.738;3.34
1480;2025.36;561.785;3.34
1481;2003.08;581.561;3.34
1482;2018.04;550.066;3.34
1483;2035.43;561.785;3.34
1484;2037.87;538.102;3.34
1485;2032.69;581.561;3.34
1486;1998.2;573.748;3.34
1487;1958.83;548.112;3.34
1488;1956.39;573.748;3.34
1489;1995.76;573.748;3.35
1490;2015.59;567.888;3.35
1491;2020.48;550.066;3.35
1492;2018.04;569.842;3.35
1493;1995.76;571.795;3.35
1494;1975.92;591.571;3.35
1495;2005.52;563.738;3.35
1496;2047.64;559.832;3.35
1497;2067.48;583.514;3.35
1498;2077.24;559.832;3.35
1499;2062.59;561.785;3.35
1500;2030.24;563.738;3.35
1501;2003.08;581.561;3.35
1502;2022.92;561.785;3.35
1503;2035.43;561.785;3.35
1504;2037.87;540.056;3.35
1505;2030.24;573.748;3.35
1506;1998.2;575.701;3.36
1507;1961.27;550.066;3.36
1508;1958.83;575.701;3.36
1509;1995.76;571.795;3.36
1510;2015.59;569.842;3.36
1511;2025.36;548.112;3.36
1512;2020.48;575.701;3.36
1513;1998.2;569.842;3.36
1514;1975.92;593.524;3.36
1515;2005.52;559.832;3.36
1516;2047.64;557.878;3.36
1517;2067.48;585.467;3.36
1518;2077.24;555.925;3.36
1519;2059.85;563.738;3.36
1520;2030.24;561.785;3.36
1521;2003.08;581.561;3.36
1522;2020.48;553.972;3.36
1523;2037.87;561.785;3.37
1524;2040.31;540.056;3.37
1525;2037.87;579.608;3.37
1526;2000.64;573.748;3.37
1527;1963.71;548.112;3.37
1528;1961.27;577.654;3.37
1529;1998.2;569.842;3.37
1530;2015.59;569.842;3.37
1531;2025.36;550.066;3.37
1532;2020.48;561.785;3.37
1533;1998.2;573.748;3.37
1534;1975.92;581.561;3.37
1535;2005.52;575.701;3.37
1536;2047.64;544.206;3.37
1537;2069.92;573.748;3.37
1538;2079.68;569.842;3.37
1539;2065.03;553.972;3.38
1540;2030.24;565.935;3.38
1541;2005.52;577.654;3.38
1542;2022.92;569.842;3.38
1543;2040.31;557.878;3.38
1544;2042.76;546.159;3.38
1545;2035.43;561.785;3.38
1546;2003.08;583.514;3.38
1547;1963.71;553.972;3.38
1548;1958.83;563.738;3.38
1549;1998.2;579.608;3.38
1550;2015.59;563.738;3.38
1551;2025.36;552.019;3.38
1552;2025.36;563.738;3.38
1553;2000.64;569.842;3.38
1554;1978.36;585.467;3.38
1555;2005.52;569.842;3.38
1556;2050.08;552.019;3.39
1557;2069.92;577.654;3.39
1558;2079.68;565.935;3.39
1559;2065.03;557.878;3.39
1560;2032.69;565.935;3.39
1561;2003.08;577.654;3.39
1562;2022.92;569.842;3.39
1563;2037.87;557.878;3.39
1564;2042.76;544.206;3.39
1565;2037.87;567.888;3.39
1566;2005.52;581.561;3.39
1567;1963.71;552.019;3.39
1568;1958.83;567.888;3.39
1569;1998.2;575.701;3.39
1570;2015.59;565.935;3.39
1571;2027.8;550.066;3.39
1572;2025.36;565.935;3.4
1573;2003.08;569.842;3.4
1574;1975.92;589.618;3.4
1575;2005.52;567.888;3.4
1576;2052.52;552.019;3.4
1577;2067.48;581.561;3.4
1578;2079.68;561.785;3.4
1579;2065.03;557.878;3.4
1580;2035.43;565.935;3.4
1581;2005.52;579.608;3.4
1582;2022.92;565.935;3.4
1583;2037.87;561.785;3.4
1584;2042.76;540.056;3.4
1585;2035.43;571.795;3.4
1586;2003.08;575.701;3.4
1587;1963.71;548.112;3.4
1588;1958.83;573.748;3.4
1589;1998.2;573.748;3.41
1590;2015.59;567.888;3.41
1591;2027.8;548.112;3.41
1592;2025.36;569.842;3.41
1593;2000.64;567.888;3.41
1594;1978.36;589.618;3.41
1595;2005.52;563.738;3.41
1596;2050.08;557.878;3.41
1597;2069.92;581.561;3.41
1598;2082.13;559.832;3.41
1599;2067.48;559.832;3.41
1600;2035.43;563.738;3.41
1601;2008.27;581.561;3.41
1602;2022.92;559.832;3.41
1603;2040.31;561.785;3.41
1604;2045.2;538.102;3.41
1605;2040.31;575.701;3.42
1606;2008.27;573.748;3.42
1607;1966.16;546.159;3.42
1608;1958.83;573.748;3.42
1609;1998.2;571.795;3.42
1610;2015.59;567.888;3.42
1611;2027.8;548.112;3.42
1612;2027.8;579.608;3.42
1613;2003.08;567.888;3.42
1614;1978.36;593.524;3.42
1615;2005.52;557.878;3.42
1616;2050.08;557.878;3.42
1617;2072.36;583.514;3.42
1618;2079.68;557.878;3.42
1619;2069.92;561.785;3.42
1620;2035.43;559.832;3.42
1621;2005.52;573.748;3.42
1622;2020.48;569.842;3.43
1623;2037.87;555.925;3.43
1624;2045.2;548.112;3.43
1625;2035.43;555.925;3.43
1626;2005.52;585.467;3.43
1627;1966.16;557.878;3.43
1628;1956.39;559.832;3.43
1629;1998.2;579.608;3.43
1630;2015.59;563.738;3.43
1631;2022.92;552.019;3.43
1632;2025.36;561.785;3.43
1633;2000.64;573.748;3.43
1634;1978.36;581.561;3.43
1635;2003.08;577.654;3.43
1636;2047.64;548.112;3.43
1637;2069.92;577.654;3.43
1638;2079.68;567.888;3.43
1639;2069.92;553.972;3.44
1640;2035.43;563.738;3.44
1641;2008.27;577.654;3.44
1642;2022.92;569.842;3.44
1643;2040.31;557.878;3.44
1644;2040.31;544.206;3.44
1645;2035.43;561.785;3.44
1646;2005.52;583.514;3.44
1647;1966.16;552.019;3.44
1648;1958.83;565.935;3.44
1649;1995.76;579.608;3.44
1650;2015.59;561.785;3.44
1651;2025.36;552.019;3.44
1652;2025.36;563.738;3.44
1653;2000.64;569.842;3.44
1654;1975.92;583.514;3.44
1655;1998.2;569.842;3.44
1656;2045.2;550.066;3.45
1657;2065.03;577.654;3.45
1658;2079.68;561.785;3.45
1659;2067.48;555.925;3.45
1660;2032.69;563.738;3.45
1661;2008.27;575.701;3.45
1662;2018.04;567.888;3.45
1663;2035.43;559.832;3.45
1664;2042.76;540.056;3.45
1665;2037.87;567.888;3.45
1666;2005.52;577.654;3.45
1667;1966.16;550.066;3.45
1668;1956.39;567.888;3.45
1669;1995.76;575.701;3.45
1670;2015.59;565.935;3.45
1671;2027.8;550.066;3.45
1672;2025.36;563.738;3.45
1673;2005.52;567.888;3.46
1674;1978.36;587.42;3.46
1675;2000.64;565.935;3.46
1676;2050.08;552.019;3.46
1677;2069.92;579.608;3.46
1678;2079.68;561.785;3.46
1679;2067.48;557.878;3.46
1680;2035.43;563.738;3.46
1681;2005.52;579.608;3.46
1682;2018.04;565.935;3.46
1683;2035.43;559.832;3.46
1684;2042.76;538.102;3.46
1685;2035.43;569.842;3.46
1686;2005.52;573.748;3.46
1687;1966.16;546.159;3.46
1688;1953.95;569.842;3.46
1689;1993.32;571.795;3.46
1690;2015.59;563.738;3.46
1691;2022.92;550.066;3.47
1692;2020.48;569.842;3.47
1693;1998.2;565.935;3.47
1694;1975.92;589.618;3.47
1695;1998.2;559.832;3.47
1696;2045.2;553.972;3.47
1697;2067.48;581.561;3.47
1698;2077.24;557.878;3.47
1699;2067.48;559.832;3.47
1700;2032.69;561.785;3.47
1701;2003.08;579.608;3.47
1702;2015.59;555.925;3.47
1703;2037.87;559.832;3.47
1704;2040.31;536.149;3.47
1705;2037.87;573.748;3.47
1706;2008.27;571.795;3.47
1707;1966.16;546.159;3.47
1708;1953.95;573.748;3.47
1709;1990.88;575.701;3.48
1710;2010.71;559.832;3.48
1711;2022.92;546.159;3.48
1712;2020.48;561.785;3.48
1713;2003.08;569.842;3.48
1714;1975.92;583.514;3.48
1715;1993.32;565.935;3.48
1716;2042.76;553.972;3.48
1717;2065.03;577.654;3.48
1718;2074.8;561.785;3.48
1719;2062.59;555.925;3.48
1720;2032.69;561.785;3.48
1721;2000.64;575.701;3.48
1722;2015.59;563.738;3.48
1723;2032.69;559.832;3.48
1724;2037.87;540.056;3.48
1725;2035.43;569.842;3.48
1726;2003.08;573.748;3.49
1727;1961.27;546.159;3.49
1728;1951.2;567.888;3.49
1729;1988.43;569.842;3.49
1730;2010.71;563.738;3.49
1731;2020.48;546.159;3.49
1732;2018.04;565.935;3.49
1733;1998.2;569.842;3.49
1734;1973.48;589.618;3.49
1735;1993.32;561.785;3.49
1736;2040.31;555.925;3.49
1737;2065.03;579.608;3.49
1738;2072.36;557.878;3.49
1739;2062.59;559.832;3.49
1740;2027.8;559.832;3.49
1741;2000.64;579.608;3.49
1742;2010.71;561.785;3.49
1743;2032.69;557.878;3.5
1744;2037.87;536.149;3.5
1745;2030.24;573.748;3.5
1746;2003.08;571.795;3.5
1747;1963.71;546.159;3.5
1748;1948.76;571.795;3.5
