<WeldAnalyseData xmlns:i="http:www.w3.org/2001/XMLSchema-instance">
<WeldParameter>
<TimeStamp>DT#2023-12-06-11:01:43</TimeStamp>
<Generator>SG-22-10000</Generator>
<GenFreq>20</GenFreq>
<MaxForce>8000</MaxForce>
<MaxPower>10000</MaxPower>
<RunupPressure>1.5</RunupPressure>
<RunupDist>10</RunupDist>
<RunPress>0.8</RunPress>
<ShakeDelay>0.03</ShakeDelay>
<ShakeTime>0.3</ShakeTime>
<RunBackPress1>6</RunBackPress1>
<RunBackPress2>2</RunBackPress2>
<RunBackDist>1</RunBackDist>
<TrigValue>500</TrigValue>
<TrigModeUnit>W</TrigModeUnit>
<WeldModeUnit>Ws</WeldModeUnit>
<PressNr>0</PressNr>
<MaxLoss>1500</MaxLoss>
</WeldParameter>
<WeldSets>
<WeldSet>
<PressRiseTime>0</PressRiseTime>
<RunPressure>1</RunPressure>
<Amplitude>86</Amplitude>
<WeldMode>3270</WeldMode>
</WeldSet>
</WeldSets>
<WeldValue>
<WeldNr>2484</WeldNr>
<RecipeName>RickStyle</RecipeName>
<WeldTime>1877</WeldTime>
<DistDiff>3.95</DistDiff>
<DistAbs>78.37</DistAbs>
<Energy>3270.06</Energy>
<MaxPower>2027.8</MaxPower>
<CycleTime>6230</CycleTime>
<TrigForce>502.701</TrigForce>
<TrigDist>74.42</TrigDist>
<RunSpeed>66.5653</RunSpeed>
<MaxForce>601.337</MaxForce>
<LossPower>255.898</LossPower>
</WeldValue>
</WeldAnalyseData>
#CSV-START#
ms;Power[W];Force[N];Distance[mm]
1;0;0;0
2;0;500.748;0.0100021
3;0;502.701;0.0100021
4;0;502.701;0.0100021
5;0;504.654;0.0100021
6;0;502.701;0.0100021
7;0;502.701;0.0100021
8;0;496.597;0.0100021
9;0;480.972;0.0200043
10;0;461.196;0.0299988
11;10.5289;447.279;0.0400009
12;18.1585;441.42;0.0500031
13;30.3659;437.513;0.0699997
14;50.203;433.607;0.0800018
15;77.3644;423.597;0.0999985
16;99.6429;423.597;0.110001
17;126.804;419.691;0.130005
18;153.966;421.644;0.139999
19;183.569;403.821;0.160004
20;203.101;411.878;0.169998
21;225.379;413.831;0.18
22;245.216;403.821;0.200005
23;265.053;409.925;0.209999
24;279.702;407.971;0.230003
25;294.656;413.831;0.240005
26;311.747;409.925;0.25
27;326.701;407.971;0.260002
28;338.908;409.925;0.279999
29;346.538;423.597;0.290001
30;348.979;415.784;0.300003
31;348.979;415.784;0.310005
32;361.187;429.456;0.32
33;368.511;423.597;0.330002
34;371.258;423.597;0.340004
35;378.582;423.597;0.349998
36;381.024;425.55;0.360001
37;378.582;425.55;0.370003
38;390.789;435.56;0.380005
39;400.861;421.644;0.389999
40;405.744;433.607;0.400002
41;408.185;431.654;0.410004
42;408.185;427.503;0.419998
43;403.302;433.607;0.43
44;395.672;435.56;0.440002
45;393.231;437.513;0.450005
46;395.672;435.56;0.459999
47;395.672;433.607;0.459999
48;395.672;435.56;0.470001
49;395.672;445.326;0.480003
50;390.789;437.513;0.490005
51;385.907;441.42;0.5
52;393.231;445.326;0.510002
53;398.419;439.467;0.520004
54;400.861;443.373;0.529999
55;400.861;437.513;0.540001
56;400.861;445.326;0.550003
57;403.302;447.279;0.550003
58;408.185;455.336;0.560005
59;420.392;441.42;0.57
60;428.022;453.383;0.580002
61;430.464;457.289;0.590004
62;432.905;447.279;0.599998
63;430.464;453.383;0.610001
64;428.022;453.383;0.620003
65;428.022;459.243;0.630005
66;428.022;451.186;0.639999
67;430.464;453.383;0.639999
68;432.905;451.186;0.650002
69;428.022;463.149;0.660004
70;422.834;455.336;0.669998
71;420.392;455.336;0.68
72;430.464;465.102;0.690002
73;435.347;461.196;0.700005
74;442.671;461.196;0.709999
75;442.671;465.102;0.720001
76;445.112;465.102;0.730003
77;445.112;470.962;0.740005
78;457.625;470.962;0.740005
79;472.274;459.243;0.75
80;482.345;472.915;0.760002
81;489.669;469.008;0.770004
82;492.111;465.102;0.779999
83;492.111;465.102;0.790001
84;484.786;469.008;0.800003
85;487.228;467.055;0.810005
86;489.669;467.055;0.82
87;492.111;463.149;0.830002
88;492.111;469.008;0.830002
89;489.669;475.112;0.840004
90;482.345;467.055;0.849998
91;477.157;472.915;0.860001
92;487.228;484.878;0.870003
93;487.228;472.915;0.880005
94;492.111;477.065;0.889999
95;492.111;463.149;0.900002
96;492.111;477.065;0.910004
97;489.669;477.065;0.910004
98;496.994;490.738;0.919998
99;514.389;463.149;0.93
100;521.714;479.019;0.940002
101;524.155;482.925;0.950005
102;524.155;469.008;0.959999
103;519.272;477.065;0.970001
104;511.948;477.065;0.970001
105;511.948;486.831;0.980003
106;514.389;477.065;0.990005
107;514.389;477.065;1
108;514.389;467.055;1.01
109;511.948;492.691;1.01
110;504.318;480.972;1.02
111;499.435;470.962;1.03
112;506.76;488.784;1.04
113;514.389;480.972;1.05
114;516.831;480.972;1.05
115;519.272;472.915;1.06001
116;519.272;484.878;1.07
117;519.272;484.878;1.08
118;529.038;494.644;1.09
119;548.875;470.962;1.09
120;558.641;482.925;1.1
121;563.829;488.784;1.11
122;563.829;477.065;1.12
123;561.083;480.972;1.13
124;556.2;480.972;1.14
125;558.641;486.831;1.14
126;563.829;479.019;1.15
127;566.271;479.019;1.16
128;566.271;472.915;1.17
129;561.083;492.691;1.18
130;553.758;479.019;1.19
131;551.317;475.112;1.2
132;561.083;490.738;1.2
133;571.154;479.019;1.21
134;573.595;479.019;1.22
135;578.478;472.915;1.23
136;580.92;479.019;1.24001
137;583.361;482.925;1.25
138;593.432;488.784;1.26
139;612.964;469.008;1.27
140;625.477;480.972;1.27
141;632.801;482.925;1.28
142;635.243;472.915;1.29
143;632.801;477.065;1.3
144;627.918;477.065;1.31001
145;635.243;482.925;1.32
146;640.126;470.962;1.33
147;645.314;469.008;1.34
148;650.197;469.008;1.35
149;650.197;482.925;1.36
150;642.567;470.962;1.37
151;645.314;470.962;1.38
152;659.963;479.019;1.39
153;672.475;472.915;1.4
154;677.358;469.008;1.41
155;682.241;469.008;1.42
156;684.683;470.962;1.43
157;687.124;479.019;1.45
158;699.637;477.065;1.46
159;724.052;463.149;1.47
160;736.564;477.065;1.48
161;741.447;472.915;1.49001
162;746.33;467.055;1.5
163;741.447;469.008;1.51
164;734.123;472.915;1.52
165;739.006;469.008;1.53
166;743.889;467.055;1.54
167;748.772;467.055;1.55
168;751.213;457.289;1.56001
169;743.889;486.831;1.58
170;731.681;469.008;1.59
171;726.798;459.243;1.6
172;748.772;484.878;1.61
173;756.401;467.055;1.62
174;761.284;469.008;1.63
175;766.167;459.243;1.64
176;771.05;470.962;1.66
177;766.167;467.055;1.67
178;786.004;480.972;1.68
179;810.724;449.232;1.69
180;825.373;465.102;1.71
181;835.444;472.915;1.72
182;845.21;451.186;1.73
183;840.327;463.149;1.74001
184;835.444;463.149;1.75
185;842.769;470.962;1.77
186;854.976;457.289;1.78
187;862.606;461.196;1.79
188;867.489;451.186;1.8
189;862.606;479.019;1.82
190;852.535;461.196;1.83
191;852.535;455.336;1.84
192;872.372;475.112;1.85
193;884.579;461.196;1.86
194;897.092;459.243;1.88
195;901.974;453.383;1.89
196;906.858;463.149;1.9
197;906.858;465.102;1.91
198;924.253;475.112;1.92
199;948.973;445.326;1.94
200;963.622;461.196;1.95
201;973.693;467.055;1.96
202;976.135;451.186;1.97
203;968.505;457.289;1.98
204;958.739;459.243;1.99001
205;963.622;463.149;2.01
206;973.693;455.336;2.02
207;981.017;449.232;2.03
208;983.459;451.186;2.04
209;976.135;470.962;2.05
210;958.739;457.289;2.06001
211;958.739;457.289;2.07
212;978.576;469.008;2.08
213;993.225;459.243;2.09
214;1003.3;457.289;2.1
215;1010.62;455.336;2.11
216;1008.18;465.102;2.13
217;1005.74;470.962;2.14
218;1025.57;470.962;2.15
219;1052.74;451.186;2.16
220;1067.38;472.915;2.17
221;1082.34;469.008;2.18
222;1087.22;457.289;2.19
223;1082.34;467.055;2.2
224;1072.27;470.962;2.21
225;1089.66;470.962;2.22
226;1104.31;465.102;2.22
227;1114.38;461.196;2.23
228;1119.27;467.055;2.24001
229;1114.38;479.019;2.25
230;1099.43;463.149;2.26
231;1101.87;475.112;2.27
232;1133.92;482.925;2.28
233;1148.87;470.962;2.28
234;1163.82;469.008;2.29
235;1173.59;475.112;2.3
236;1178.47;480.972;2.31001
237;1180.91;494.644;2.31001
238;1203.19;484.878;2.32
239;1235.24;472.915;2.33
240;1257.52;494.644;2.34
241;1272.47;488.784;2.34
242;1277.35;477.065;2.35
243;1269.72;484.878;2.36
244;1262.4;488.784;2.36
245;1279.79;492.691;2.37
246;1294.44;482.925;2.38
247;1306.96;479.019;2.39
248;1311.84;482.925;2.39
249;1302.07;504.654;2.4
250;1282.24;484.878;2.41
251;1284.68;490.738;2.41
252;1314.28;504.654;2.42
253;1329.23;492.691;2.42
254;1339;488.784;2.43
255;1346.32;492.691;2.44
256;1343.88;504.654;2.44
257;1336.56;512.467;2.45
258;1358.84;506.607;2.45
259;1388.44;486.831;2.46
260;1405.53;510.514;2.47
261;1420.48;504.654;2.47
262;1420.48;492.691;2.48
263;1405.53;504.654;2.48
264;1393.32;510.514;2.49001
265;1410.72;506.607;2.49001
266;1422.93;498.795;2.5
267;1432.69;490.738;2.5
268;1432.69;504.654;2.51
269;1420.48;516.373;2.51
270;1395.76;494.644;2.52
271;1395.76;508.56;2.52
272;1425.37;516.373;2.53
273;1442.76;508.56;2.53
274;1450.09;498.795;2.53
275;1457.41;508.56;2.54
276;1450.09;516.373;2.54
277;1437.88;528.336;2.55
278;1465.04;514.42;2.55
279;1494.64;490.738;2.56001
280;1509.29;512.467;2.56001
281;1524.25;522.477;2.57
282;1524.25;496.597;2.57
283;1506.85;514.42;2.57
284;1494.64;516.373;2.58
285;1506.85;524.43;2.58
286;1521.81;506.607;2.59
287;1526.69;510.514;2.59
288;1531.57;504.654;2.6
289;1511.73;540.056;2.6
290;1487.01;518.326;2.6
291;1484.57;508.56;2.61
292;1514.18;538.102;2.61
293;1529.13;520.524;2.62
294;1538.9;514.42;2.62
295;1544.08;512.467;2.62
296;1536.45;530.29;2.63
297;1524.25;528.336;2.63
298;1551.41;536.149;2.63
299;1583.45;502.701;2.64
300;1600.85;524.43;2.64
301;1613.06;528.336;2.65
302;1608.17;510.514;2.65
303;1590.78;524.43;2.65
304;1576.13;530.29;2.66
305;1588.34;532.243;2.66
306;1603.29;520.524;2.66
307;1608.17;518.326;2.67
308;1608.17;516.373;2.67
309;1588.34;542.009;2.67
310;1558.73;520.524;2.68
311;1558.73;522.477;2.68
312;1588.34;544.206;2.68
313;1600.85;526.383;2.69
314;1610.61;522.477;2.69
315;1613.06;522.477;2.69
316;1603.29;536.149;2.7
317;1590.78;542.009;2.7
318;1613.06;542.009;2.7
319;1649.98;514.42;2.71
320;1664.94;538.102;2.71
321;1674.7;534.196;2.71
322;1669.82;520.524;2.72
323;1649.98;530.29;2.72
324;1630.45;538.102;2.72
325;1647.54;536.149;2.72
326;1657.61;526.383;2.73
327;1664.94;516.373;2.73
328;1662.5;530.29;2.73
329;1640.22;548.112;2.74001
330;1608.17;522.477;2.74001
331;1610.61;532.243;2.74001
332;1642.66;544.206;2.74001
333;1655.17;532.243;2.75
334;1660.05;522.477;2.75
335;1662.5;532.243;2.75
336;1649.98;538.102;2.75
337;1635.33;553.972;2.76
338;1662.5;542.009;2.76
339;1694.54;524.43;2.76
340;1711.94;548.112;2.77
341;1724.14;536.149;2.77
342;1716.82;530.29;2.77
343;1696.98;536.149;2.77
344;1674.7;546.159;2.78
345;1689.66;540.056;2.78
346;1701.86;536.149;2.78
347;1709.49;520.524;2.78
348;1704.31;538.102;2.79
349;1682.33;550.066;2.79
350;1647.54;524.43;2.79
351;1647.54;542.009;2.79
352;1679.89;546.159;2.8
353;1692.1;540.056;2.8
354;1699.42;536.149;2.8
355;1699.42;530.29;2.8
356;1684.77;552.019;2.81001
357;1669.82;546.159;2.81001
358;1694.54;555.925;2.81001
359;1729.03;518.326;2.81001
360;1743.98;542.009;2.81001
361;1753.75;550.066;2.82
362;1746.42;522.477;2.82
363;1724.14;540.056;2.82
364;1699.42;546.159;2.82
365;1716.82;550.066;2.83
366;1729.03;534.196;2.83
367;1736.66;534.196;2.83
368;1729.03;528.336;2.83
369;1701.86;563.738;2.83
370;1672.26;538.102;2.84
371;1669.82;536.149;2.84
372;1699.42;561.785;2.84
373;1714.38;544.206;2.84
374;1719.26;538.102;2.85
375;1719.26;536.149;2.85
376;1701.86;553.972;2.85
377;1684.77;553.972;2.85
378;1711.94;557.878;2.85
379;1743.98;524.43;2.86
380;1761.38;550.066;2.86
381;1773.58;552.019;2.86
382;1763.82;528.336;2.86
383;1739.1;546.159;2.86
384;1719.26;553.972;2.86
385;1734.21;552.019;2.87
386;1751.3;538.102;2.87
387;1753.75;532.243;2.87
388;1751.3;538.102;2.87
389;1721.7;565.935;2.87
390;1692.1;542.009;2.88
391;1692.1;542.009;2.88
392;1726.58;563.738;2.88
393;1739.1;548.112;2.88
394;1748.86;538.102;2.88
395;1748.86;544.206;2.89
396;1729.03;553.972;2.89
397;1716.82;565.935;2.89
398;1743.98;557.878;2.89
399;1780.91;532.243;2.89
400;1798.3;557.878;2.89
401;1808.07;550.066;2.9
402;1800.74;542.009;2.9
403;1773.58;548.112;2.9
404;1753.75;559.832;2.9
405;1763.82;555.925;2.9
406;1783.35;546.159;2.91
407;1788.23;532.243;2.91
408;1788.23;548.112;2.91
409;1763.82;563.738;2.91
410;1731.47;542.009;2.91
411;1719.26;552.019;2.91
412;1751.3;563.738;2.92
413;1776.02;552.019;2.92
414;1780.91;540.056;2.92
415;1783.35;550.066;2.92
416;1768.7;557.878;2.92
417;1748.86;573.748;2.92
418;1766.26;555.925;2.93
419;1805.63;540.056;2.93
420;1827.91;567.888;2.93
421;1840.11;552.019;2.93
422;1832.79;548.112;2.93
423;1808.07;552.019;2.93
424;1783.35;565.935;2.94
425;1795.86;557.878;2.94
426;1812.95;550.066;2.94
427;1818.14;530.29;2.94
428;1815.39;546.159;2.94
429;1793.42;573.748;2.94
430;1758.63;548.112;2.94
431;1746.42;552.019;2.95
432;1780.91;571.795;2.95
433;1798.3;553.972;2.95
434;1805.63;544.206;2.95
435;1808.07;553.972;2.95
436;1793.42;563.738;2.95
437;1771.14;573.748;2.96
438;1790.98;565.935;2.96
439;1830.35;540.056;2.96
440;1850.18;567.888;2.96
441;1862.39;559.832;2.96
442;1857.51;548.112;2.96
443;1830.35;557.878;2.96
444;1805.63;567.888;2.97
445;1812.95;561.785;2.97
446;1832.79;553.972;2.97
447;1837.67;540.056;2.97
448;1835.23;555.925;2.97
449;1812.95;573.748;2.97
450;1776.02;548.112;2.97
451;1763.82;561.785;2.98
452;1793.42;569.842;2.98
453;1815.39;561.785;2.98
454;1823.02;546.159;2.98
455;1823.02;559.832;2.98
456;1808.07;563.738;2.98
457;1785.79;579.608;2.98
458;1803.19;563.738;2.99001
459;1847.74;550.066;2.99001
460;1867.27;573.748;2.99001
461;1877.35;561.785;2.99001
462;1869.72;553.972;2.99001
463;1845.3;561.785;2.99001
464;1818.14;573.748;2.99001
465;1827.91;565.935;3
466;1847.74;548.112;3
467;1852.63;553.972;3
468;1850.18;546.159;3
469;1827.91;589.618;3
470;1788.23;561.785;3
471;1780.91;552.019;3
472;1810.51;587.42;3
473;1830.35;561.785;3.01
474;1840.11;555.925;3.01
475;1837.67;557.878;3.01
476;1820.58;575.701;3.01
477;1800.74;569.842;3.01
478;1820.58;581.561;3.01
479;1864.83;538.102;3.01
480;1882.23;567.888;3.01
481;1894.44;571.795;3.02
482;1884.67;546.159;3.02
483;1859.95;563.738;3.02
484;1832.79;569.842;3.02
485;1845.3;573.748;3.02
486;1862.39;555.925;3.02
487;1867.27;552.019;3.02
488;1864.83;553.972;3.02
489;1840.11;587.42;3.03
490;1803.19;559.832;3.03
491;1790.98;557.878;3.03
492;1820.58;583.514;3.03
493;1842.55;563.738;3.03
494;1847.74;555.925;3.03
495;1850.18;559.832;3.03
496;1830.35;573.748;3.03
497;1810.51;577.654;3.04
498;1830.35;577.654;3.04
499;1872.46;544.206;3.04
500;1891.99;573.748;3.04
501;1899.62;569.842;3.04
502;1894.44;553.972;3.04
503;1864.83;563.738;3.04
504;1842.55;573.748;3.04
505;1855.07;571.795;3.04
506;1872.46;557.878;3.05
507;1879.79;550.066;3.05
508;1874.9;559.832;3.05
509;1845.3;583.514;3.05
510;1810.51;553.972;3.05
511;1803.19;565.935;3.05
512;1835.23;579.608;3.05
513;1855.07;565.935;3.05
514;1859.95;552.019;3.06001
515;1862.39;563.738;3.06001
516;1845.3;571.795;3.06001
517;1823.02;583.514;3.06001
518;1845.3;573.748;3.06001
519;1887.11;550.066;3.06001
520;1904.51;577.654;3.06001
521;1919.16;567.888;3.06001
522;1911.83;557.878;3.06001
523;1882.23;567.888;3.07
524;1857.51;579.608;3.07
525;1869.72;571.795;3.07
526;1887.11;563.738;3.07
527;1894.44;546.159;3.07
528;1889.55;567.888;3.07
529;1862.39;581.561;3.07
530;1825.46;555.925;3.07
531;1815.39;569.842;3.07
532;1850.18;579.608;3.08
533;1869.72;569.842;3.08
534;1877.35;555.925;3.08
535;1879.79;567.888;3.08
536;1862.39;571.795;3.08
537;1840.11;589.618;3.08
538;1862.39;569.842;3.08
539;1904.51;555.925;3.08
540;1926.79;583.514;3.08
541;1938.99;577.654;3.08
542;1931.67;550.066;3.09
543;1902.07;567.888;3.09
544;1877.35;571.795;3.09
545;1884.67;577.654;3.09
546;1909.39;555.925;3.09
547;1909.39;561.785;3.09
548;1906.95;555.925;3.09
549;1882.23;593.524;3.09
550;1842.55;565.935;3.09
551;1832.79;561.785;3.1
552;1867.27;593.524;3.1
553;1887.11;569.842;3.1
554;1896.88;561.785;3.1
555;1894.44;563.738;3.1
556;1874.9;577.654;3.1
557;1857.51;579.608;3.1
558;1877.35;585.467;3.1
559;1916.72;548.112;3.1
560;1941.44;573.748;3.1
561;1951.2;577.654;3.11
562;1943.88;552.019;3.11
563;1914.27;569.842;3.11
564;1887.11;575.701;3.11
565;1899.62;575.701;3.11
566;1916.72;557.878;3.11
567;1926.79;555.925;3.11
568;1921.6;559.832;3.11
569;1894.44;587.42;3.11
570;1852.63;563.738;3.11
571;1845.3;565.935;3.12
572;1882.23;589.618;3.12
573;1899.62;567.888;3.12
574;1909.39;561.785;3.12
575;1909.39;563.738;3.12
576;1889.55;575.701;3.12
577;1867.27;583.514;3.12
578;1889.55;579.608;3.12
579;1931.67;552.019;3.12
580;1953.95;579.608;3.12
581;1966.16;571.795;3.13
582;1953.95;557.878;3.13
583;1924.04;569.842;3.13
584;1899.62;579.608;3.13
585;1909.39;573.748;3.13
586;1929.23;561.785;3.13
587;1936.55;552.019;3.13
588;1931.67;563.738;3.13
589;1904.51;585.467;3.13
590;1862.39;559.832;3.13
591;1852.63;569.842;3.14
592;1889.55;583.514;3.14
593;1906.95;569.842;3.14
594;1919.16;555.925;3.14
595;1911.83;567.888;3.14
596;1894.44;575.701;3.14
597;1872.46;587.42;3.14
598;1896.88;577.654;3.14
599;1938.99;557.878;3.14
600;1958.83;581.561;3.14
601;1971.04;569.842;3.14
602;1958.83;561.785;3.15
603;1929.23;569.842;3.15
604;1902.07;581.561;3.15
605;1919.16;573.748;3.15
606;1936.55;563.738;3.15
607;1938.99;548.112;3.15
608;1936.55;571.795;3.15
609;1906.95;581.561;3.15
610;1867.27;557.878;3.15
611;1855.07;573.748;3.15
612;1891.99;579.608;3.16
613;1911.83;569.842;3.16
614;1919.16;553.972;3.16
615;1919.16;569.842;3.16
616;1896.88;577.654;3.16
617;1877.35;583.514;3.16
618;1896.88;581.561;3.16
619;1941.44;553.972;3.16
620;1963.71;579.608;3.16
621;1975.92;573.748;3.16
622;1966.16;557.878;3.16
623;1934.11;569.842;3.17
624;1906.95;575.701;3.17
625;1921.6;573.748;3.17
626;1938.99;561.785;3.17
627;1943.88;552.019;3.17
628;1938.99;565.935;3.17
629;1911.83;585.467;3.17
630;1869.72;559.832;3.17
631;1862.39;571.795;3.17
632;1896.88;583.514;3.17
633;1916.72;569.842;3.18
634;1924.04;557.878;3.18
635;1921.6;569.842;3.18
636;1902.07;575.701;3.18
637;1879.79;589.618;3.18
638;1902.07;575.701;3.18
639;1943.88;557.878;3.18
640;1968.6;581.561;3.18
641;1975.92;567.888;3.18
642;1966.16;563.738;3.18
643;1934.11;569.842;3.18
644;1909.39;581.561;3.19
645;1921.6;575.701;3.19
646;1941.44;565.935;3.19
647;1946.32;550.066;3.19
648;1941.44;573.748;3.19
649;1911.83;583.514;3.19
650;1872.46;555.925;3.19
651;1862.39;573.748;3.19
652;1899.62;579.608;3.19
653;1916.72;569.842;3.19
654;1926.79;563.738;3.2
655;1926.79;561.785;3.2
656;1904.51;583.514;3.2
657;1882.23;577.654;3.2
658;1906.95;587.42;3.2
659;1948.76;546.159;3.2
660;1968.6;573.748;3.2
661;1978.36;577.654;3.2
662;1968.6;550.066;3.2
663;1936.55;569.842;3.2
664;1914.27;577.654;3.2
665;1929.23;577.654;3.21
666;1946.32;559.832;3.21
667;1951.2;561.785;3.21
668;1948.76;557.878;3.21
669;1916.72;595.477;3.21
670;1877.35;565.935;3.21
671;1869.72;563.738;3.21
672;1904.51;593.524;3.21
673;1921.6;569.842;3.21
674;1934.11;561.785;3.21
675;1929.23;565.935;3.22
676;1911.83;579.608;3.22
677;1887.11;581.561;3.22
678;1914.27;585.467;3.22
679;1956.39;550.066;3.22
680;1975.92;575.701;3.22
681;1988.43;575.701;3.22
682;1975.92;555.925;3.22
683;1946.32;571.795;3.22
684;1916.72;579.608;3.22
685;1936.55;575.701;3.22
686;1951.2;561.785;3.23
687;1956.39;555.925;3.23
688;1956.39;565.935;3.23
689;1921.6;589.618;3.23
690;1882.23;563.738;3.23
691;1874.9;569.842;3.23
692;1911.83;589.618;3.23
693;1931.67;569.842;3.23
694;1941.44;561.785;3.23
695;1938.99;567.888;3.23
696;1916.72;579.608;3.23
697;1894.44;589.618;3.24001
698;1916.72;579.608;3.24001
699;1963.71;555.925;3.24001
700;1983.55;581.561;3.24001
701;1990.88;573.748;3.24001
702;1981.11;561.785;3.24001
703;1951.2;571.795;3.24001
704;1926.79;581.561;3.24001
705;1941.44;575.701;3.24001
706;1958.83;565.935;3.24001
707;1961.27;552.019;3.24001
708;1958.83;567.888;3.24001
709;1926.79;587.42;3.25
710;1889.55;559.832;3.25
711;1879.79;571.795;3.25
712;1919.16;585.467;3.25
713;1938.99;571.795;3.25
714;1946.32;557.878;3.25
715;1941.44;569.842;3.25
716;1924.04;575.701;3.25
717;1902.07;595.477;3.25
718;1926.79;577.654;3.25
719;1971.04;557.878;3.25
720;1988.43;587.42;3.25
721;1998.2;569.842;3.26
722;1988.43;563.738;3.26
723;1956.39;571.795;3.26
724;1934.11;585.467;3.26
725;1948.76;573.748;3.26
726;1963.71;569.842;3.26
727;1971.04;563.738;3.26
728;1963.71;555.925;3.26
729;1934.11;601.337;3.26
730;1894.44;569.842;3.26
731;1887.11;563.738;3.26
732;1924.04;591.571;3.26
733;1946.32;569.842;3.27
734;1951.2;563.738;3.27
735;1951.2;563.738;3.27
736;1929.23;583.514;3.27
737;1906.95;577.654;3.27
738;1931.67;591.571;3.27
739;1973.48;548.112;3.27
740;1995.76;573.748;3.27
741;2003.08;581.561;3.27
742;1990.88;552.019;3.27
743;1961.27;571.795;3.27
744;1936.55;579.608;3.27
745;1951.2;581.561;3.27
746;1966.16;561.785;3.28
747;1973.48;559.832;3.28
748;1966.16;561.785;3.28
749;1934.11;595.477;3.28
750;1896.88;567.888;3.28
751;1889.55;565.935;3.28
752;1924.04;593.524;3.28
753;1946.32;571.795;3.28
754;1956.39;561.785;3.28
755;1948.76;567.888;3.28
756;1931.67;579.608;3.28
757;1906.95;585.467;3.28
758;1931.67;583.514;3.29
759;1975.92;552.019;3.29
760;1995.76;579.608;3.29
761;2005.52;577.654;3.29
762;1993.32;557.878;3.29
763;1963.71;573.748;3.29
764;1936.55;581.561;3.29
765;1951.2;577.654;3.29
766;1966.16;563.738;3.29
767;1971.04;555.925;3.29
768;1968.6;565.935;3.29
769;1934.11;591.571;3.29
770;1894.44;563.738;3.29
771;1887.11;567.888;3.3
772;1924.04;587.42;3.3
773;1943.88;571.795;3.3
774;1953.95;557.878;3.3
775;1951.2;571.795;3.3
776;1926.79;579.608;3.3
777;1906.95;589.618;3.3
778;1934.11;579.608;3.3
779;1975.92;555.925;3.3
780;1995.76;583.514;3.3
781;2005.52;573.748;3.3
782;1993.32;563.738;3.3
783;1963.71;573.748;3.31001
784;1936.55;585.467;3.31001
785;1956.39;577.654;3.31001
786;1968.6;565.935;3.31001
787;1973.48;552.019;3.31001
788;1968.6;571.795;3.31001
789;1936.55;585.467;3.31001
790;1896.88;555.925;3.31001
791;1891.99;575.701;3.31001
792;1929.23;583.514;3.31001
793;1946.32;571.795;3.31001
794;1956.39;557.878;3.31001
795;1948.76;571.795;3.32
796;1929.23;579.608;3.32
797;1906.95;593.524;3.32
798;1931.67;575.701;3.32
799;1975.92;561.785;3.32
800;1998.2;585.467;3.32
801;2005.52;569.842;3.32
802;1993.32;557.878;3.32
803;1961.27;571.795;3.32
804;1938.99;581.561;3.32
805;1951.2;575.701;3.32
806;1971.04;563.738;3.32
807;1973.48;555.925;3.32
808;1966.16;567.888;3.33
809;1934.11;591.571;3.33
810;1894.44;561.785;3.33
811;1891.99;569.842;3.33
812;1926.79;587.42;3.33
813;1943.88;571.795;3.33
814;1956.39;557.878;3.33
815;1951.2;567.888;3.33
816;1929.23;577.654;3.33
817;1909.39;589.618;3.33
818;1936.55;579.608;3.33
819;1978.36;555.925;3.33
820;2000.64;581.561;3.34
821;2010.71;571.795;3.34
822;1998.2;561.785;3.34
823;1966.16;571.795;3.34
824;1941.44;583.514;3.34
825;1956.39;575.701;3.34
826;1973.48;565.935;3.34
827;1975.92;552.019;3.34
828;1971.04;569.842;3.34
829;1941.44;583.514;3.34
830;1902.07;557.878;3.34
831;1894.44;573.748;3.34
832;1934.11;585.467;3.35
833;1951.2;571.795;3.35
834;1961.27;557.878;3.35
835;1958.83;571.795;3.35
836;1936.55;579.608;3.35
837;1914.27;595.477;3.35
838;1938.99;575.701;3.35
839;1983.55;546.159;3.35
840;2003.08;575.701;3.35
841;2013.15;583.514;3.35
842;1998.2;550.066;3.35
843;1968.6;571.795;3.35
844;1941.44;575.701;3.35
845;1956.39;581.561;3.36
846;1973.48;559.832;3.36
847;1975.92;563.738;3.36
848;1971.04;555.925;3.36
849;1936.55;597.43;3.36
850;1896.88;567.888;3.36
851;1891.99;563.738;3.36
852;1929.23;595.477;3.36
853;1943.88;569.842;3.36
854;1953.95;561.785;3.36
855;1951.2;561.785;3.36
856;1931.67;583.514;3.36
857;1906.95;583.514;3.36
858;1934.11;587.42;3.37
859;1975.92;550.066;3.37
860;1995.76;575.701;3.37
861;2005.52;579.608;3.37
862;1990.88;555.925;3.37
863;1958.83;571.795;3.37
864;1936.55;579.608;3.37
865;1951.2;579.608;3.37
866;1968.6;563.738;3.37
867;1971.04;557.878;3.37
868;1963.71;563.738;3.37
869;1934.11;593.524;3.37
870;1891.99;565.935;3.37
871;1891.99;567.888;3.38
872;1926.79;593.524;3.38
873;1943.88;571.795;3.38
874;1953.95;559.832;3.38
875;1948.76;565.935;3.38
876;1926.79;579.608;3.38
877;1906.95;589.618;3.38
878;1934.11;583.514;3.38
879;1975.92;550.066;3.38
880;1993.32;583.514;3.38
881;2003.08;575.701;3.38
882;1990.88;561.785;3.38
883;1961.27;573.748;3.38
884;1934.11;583.514;3.38
885;1951.2;579.608;3.39
886;1966.16;565.935;3.39
887;1973.48;552.019;3.39
888;1961.27;567.888;3.39
889;1934.11;591.571;3.39
890;1891.99;561.785;3.39
891;1887.11;571.795;3.39
892;1926.79;587.42;3.39
893;1943.88;571.795;3.39
894;1953.95;561.785;3.39
895;1948.76;573.748;3.39
896;1929.23;577.654;3.39
897;1909.39;593.524;3.39
898;1936.55;579.608;3.39
899;1975.92;557.878;3.4
900;1995.76;585.467;3.4
901;2005.52;573.748;3.4
902;1990.88;561.785;3.4
903;1961.27;571.795;3.4
904;1938.99;583.514;3.4
905;1951.2;577.654;3.4
906;1971.04;569.842;3.4
907;1973.48;550.066;3.4
908;1966.16;575.701;3.4
909;1936.55;585.467;3.4
910;1894.44;561.785;3.4
911;1891.99;577.654;3.4
912;1929.23;581.561;3.4
913;1946.32;573.748;3.41
914;1953.95;567.888;3.41
915;1951.2;561.785;3.41
916;1929.23;585.467;3.41
917;1906.95;579.608;3.41
918;1934.11;591.571;3.41
919;1978.36;546.159;3.41
920;1995.76;575.701;3.41
921;2005.52;579.608;3.41
922;1993.32;552.019;3.41
923;1961.27;573.748;3.41
924;1941.44;579.608;3.41
925;1956.39;583.514;3.41
926;1971.04;561.785;3.41
927;1973.48;561.785;3.41
928;1968.6;559.832;3.42
929;1934.11;599.384;3.42
930;1896.88;571.795;3.42
931;1889.55;563.738;3.42
932;1926.79;595.477;3.42
933;1943.88;571.795;3.42
934;1953.95;565.935;3.42
935;1951.2;563.738;3.42
936;1929.23;583.514;3.42
937;1906.95;583.514;3.42
938;1936.55;589.618;3.42
939;1975.92;550.066;3.42
940;1998.2;581.561;3.42
941;2008.27;579.608;3.42
942;1990.88;557.878;3.42
943;1961.27;571.795;3.43
944;1941.44;581.561;3.43
945;1956.39;581.561;3.43
946;1968.6;565.935;3.43
947;1973.48;557.878;3.43
948;1968.6;565.935;3.43
949;1936.55;595.477;3.43
950;1894.44;565.935;3.43
951;1894.44;569.842;3.43
952;1929.23;593.524;3.43
953;1946.32;571.795;3.43
954;1953.95;563.738;3.43
955;1948.76;569.842;3.43
956;1929.23;579.608;3.43
957;1906.95;589.618;3.43
958;1916.72;583.514;3.44
959;1966.16;553.972;3.44
960;1990.88;583.514;3.44
961;2005.52;577.654;3.44
962;2000.64;561.785;3.44
963;1975.92;573.748;3.44
964;1946.32;583.514;3.44
965;1943.88;577.654;3.44
966;1968.6;565.935;3.44
967;1975.92;553.972;3.44
968;1973.48;569.842;3.44
969;1951.2;589.618;3.44
970;1911.83;561.785;3.44
971;1887.11;571.795;3.44
972;1916.72;585.467;3.44
973;1941.44;573.748;3.45
974;1951.2;559.832;3.45
975;1953.95;571.795;3.45
976;1938.99;579.608;3.45
977;1911.83;593.524;3.45
978;1919.16;575.701;3.45
979;1963.71;557.878;3.45
980;1990.88;587.42;3.45
981;2005.52;573.748;3.45
982;2003.08;565.935;3.45
983;1975.92;573.748;3.45
984;1943.88;585.467;3.45
985;1946.32;575.701;3.45
986;1966.16;567.888;3.45
987;1973.48;550.066;3.45
988;1973.48;573.748;3.45
989;1948.76;593.524;3.46
990;1909.39;565.935;3.46
991;1884.67;569.842;3.46
992;1916.72;589.618;3.46
993;1943.88;571.795;3.46
994;1951.2;561.785;3.46
995;1953.95;567.888;3.46
996;1936.55;579.608;3.46
997;1914.27;587.42;3.46
998;1919.16;585.467;3.46
999;1966.16;553.972;3.46
1000;1993.32;583.514;3.46
1001;2005.52;577.654;3.46
1002;2000.64;561.785;3.46
1003;1975.92;573.748;3.46
1004;1946.32;581.561;3.46
1005;1946.32;579.608;3.47
1006;1963.71;565.935;3.47
1007;1971.04;555.925;3.47
1008;1973.48;573.748;3.47
1009;1951.2;589.618;3.47
1010;1911.83;561.785;3.47
1011;1884.67;571.795;3.47
1012;1916.72;585.467;3.47
1013;1941.44;571.795;3.47
1014;1951.2;559.832;3.47
1015;1958.83;571.795;3.47
1016;1938.99;579.608;3.47
1017;1914.27;593.524;3.47
1018;1921.6;579.608;3.47
1019;1968.6;559.832;3.47
1020;1993.32;587.42;3.47
1021;2010.71;569.842;3.48
1022;2003.08;563.738;3.48
1023;1978.36;569.842;3.48
1024;1948.76;585.467;3.48
1025;1946.32;575.701;3.48
1026;1968.6;559.832;3.48
1027;1975.92;565.935;3.48
1028;1975.92;557.878;3.48
1029;1953.95;599.384;3.48
1030;1911.83;571.795;3.48
1031;1889.55;563.738;3.48
1032;1921.6;595.477;3.48
1033;1946.32;573.748;3.48
1034;1956.39;567.888;3.48
1035;1958.83;563.738;3.48
1036;1941.44;585.467;3.48
1037;1916.72;579.608;3.48
1038;1919.16;591.571;3.49001
1039;1971.04;548.112;3.49001
1040;1995.76;575.701;3.49001
1041;2010.71;583.514;3.49001
1042;2005.52;553.972;3.49001
1043;1975.92;571.795;3.49001
1044;1948.76;577.654;3.49001
1045;1948.76;581.561;3.49001
1046;1971.04;561.785;3.49001
1047;1975.92;561.785;3.49001
1048;1975.92;559.832;3.49001
1049;1951.2;599.384;3.49001
1050;1914.27;567.888;3.49001
1051;1887.11;567.888;3.49001
1052;1921.6;593.524;3.49001
1053;1943.88;571.795;3.49001
1054;1956.39;563.738;3.49001
1055;1958.83;567.888;3.5
1056;1943.88;581.561;3.5
1057;1914.27;583.514;3.5
1058;1924.04;585.467;3.5
1059;1968.6;552.019;3.5
1060;1995.76;579.608;3.5
1061;2008.27;577.654;3.5
1062;2005.52;557.878;3.5
1063;1978.36;573.748;3.5
1064;1946.32;581.561;3.5
1065;1948.76;579.608;3.5
1066;1968.6;563.738;3.5
1067;1975.92;557.878;3.5
1068;1975.92;565.935;3.5
1069;1953.95;591.571;3.5
1070;1914.27;561.785;3.5
1071;1887.11;569.842;3.5
1072;1921.6;587.42;3.51
1073;1946.32;573.748;3.51
1074;1956.39;559.832;3.51
1075;1958.83;567.888;3.51
1076;1941.44;579.608;3.51
1077;1919.16;591.571;3.51
1078;1926.79;581.561;3.51
1079;1973.48;557.878;3.51
1080;1998.2;583.514;3.51
1081;2013.15;575.701;3.51
1082;2010.71;563.738;3.51
1083;1978.36;569.842;3.51
1084;1948.76;583.514;3.51
1085;1953.95;577.654;3.51
1086;1971.04;567.888;3.51
1087;1978.36;552.019;3.51
1088;1978.36;571.795;3.51
1089;1953.95;587.42;3.51
1090;1914.27;561.785;3.52
1091;1889.55;573.748;3.52
1092;1924.04;585.467;3.52
1093;1948.76;571.795;3.52
1094;1958.83;559.832;3.52
1095;1963.71;571.795;3.52
1096;1946.32;577.654;3.52
1097;1919.16;593.524;3.52
1098;1926.79;575.701;3.52
1099;1975.92;559.832;3.52
1100;1998.2;585.467;3.52
1101;2013.15;583.514;3.52
1102;2005.52;552.019;3.52
1103;1978.36;571.795;3.52
1104;1946.32;573.748;3.52
1105;1951.2;581.561;3.52
1106;1973.48;557.878;3.52
1107;1978.36;567.888;3.52
1108;1978.36;553.972;3.53
1109;1953.95;599.384;3.53
1110;1914.27;571.795;3.53
1111;1891.99;563.738;3.53
1112;1921.6;593.524;3.53
1113;1946.32;573.748;3.53
1114;1958.83;567.888;3.53
1115;1958.83;561.785;3.53
1116;1943.88;583.514;3.53
1117;1914.27;579.608;3.53
1118;1924.04;589.618;3.53
1119;1968.6;548.112;3.53
1120;1995.76;575.701;3.53
1121;2008.27;581.561;3.53
1122;2003.08;555.925;3.53
1123;1978.36;571.795;3.53
1124;1946.32;579.608;3.53
1125;1948.76;581.561;3.53
1126;1971.04;563.738;3.54
1127;1975.92;559.832;3.54
1128;1975.92;557.878;3.54
1129;1956.39;597.43;3.54
1130;1911.83;569.842;3.54
1131;1889.55;567.888;3.54
1132;1921.6;591.571;3.54
1133;1948.76;573.748;3.54
1134;1958.83;563.738;3.54
1135;1958.83;565.935;3.54
1136;1943.88;581.561;3.54
1137;1919.16;585.467;3.54
1138;1926.79;587.42;3.54
1139;1973.48;552.019;3.54
1140;1995.76;579.608;3.54
1141;2013.15;575.701;3.54
1142;2005.52;557.878;3.54
1143;1981.11;571.795;3.55
1144;1948.76;583.514;3.55
1145;1953.95;579.608;3.55
1146;1973.48;563.738;3.55
1147;1978.36;555.925;3.55
1148;1975.92;565.935;3.55
1149;1953.95;589.618;3.55
1150;1916.72;559.832;3.55
1151;1889.55;569.842;3.55
1152;1926.79;589.618;3.55
1153;1948.76;569.842;3.55
1154;1958.83;559.832;3.55
1155;1961.27;571.795;3.55
1156;1943.88;577.654;3.55
1157;1919.16;591.571;3.55
1158;1926.79;579.608;3.55
1159;1975.92;557.878;3.55
1160;2000.64;583.514;3.56001
1161;2010.71;573.748;3.56001
1162;2008.27;559.832;3.56001
1163;1978.36;571.795;3.56001
1164;1951.2;585.467;3.56001
1165;1951.2;575.701;3.56001
1166;1973.48;567.888;3.56001
1167;1981.11;552.019;3.56001
1168;1975.92;569.842;3.56001
1169;1956.39;585.467;3.56001
1170;1914.27;559.832;3.56001
1171;1891.99;573.748;3.56001
1172;1926.79;583.514;3.56001
1173;1951.2;571.795;3.56001
1174;1961.27;559.832;3.56001
1175;1963.71;571.795;3.56001
1176;1946.32;579.608;3.56001
1177;1919.16;585.467;3.57
1178;1929.23;585.467;3.57
1179;1975.92;552.019;3.57
1180;2000.64;579.608;3.57
1181;2013.15;575.701;3.57
1182;2008.27;559.832;3.57
1183;1978.36;571.795;3.57
1184;1948.76;581.561;3.57
1185;1951.2;577.654;3.57
1186;1973.48;563.738;3.57
1187;1981.11;553.972;3.57
1188;1978.36;565.935;3.57
1189;1956.39;589.618;3.57
1190;1916.72;561.785;3.57
1191;1894.44;571.795;3.57
1192;1929.23;587.42;3.57
1193;1948.76;571.795;3.57
1194;1963.71;557.878;3.58
1195;1966.16;569.842;3.58
1196;1946.32;579.608;3.58
1197;1919.16;591.571;3.58
1198;1934.11;579.608;3.58
1199;1975.92;555.925;3.58
1200;2000.64;581.561;3.58
1201;2018.04;571.795;3.58
1202;2008.27;561.785;3.58
1203;1978.36;571.795;3.58
1204;1951.2;583.514;3.58
1205;1956.39;575.701;3.58
1206;1975.92;565.935;3.58
1207;1983.55;550.066;3.58
1208;1978.36;571.795;3.58
1209;1961.27;587.42;3.58
1210;1916.72;559.832;3.58
1211;1894.44;573.748;3.58
1212;1931.67;583.514;3.59
1213;1956.39;573.748;3.59
1214;1966.16;565.935;3.59
1215;1966.16;563.738;3.59
1216;1948.76;585.467;3.59
1217;1921.6;577.654;3.59
1218;1934.11;591.571;3.59
1219;1981.11;544.206;3.59
1220;2003.08;571.795;3.59
1221;2015.59;579.608;3.59
1222;2010.71;550.066;3.59
1223;1983.55;571.795;3.59
1224;1951.2;573.748;3.59
1225;1958.83;581.561;3.59
1226;1978.36;557.878;3.59
1227;1983.55;561.785;3.59
1228;1981.11;555.925;3.59
1229;1958.83;601.337;3.6
1230;1919.16;567.888;3.6
1231;1899.62;561.785;3.6
1232;1931.67;593.524;3.6
1233;1953.95;571.795;3.6
1234;1966.16;563.738;3.6
1235;1968.6;563.738;3.6
1236;1951.2;583.514;3.6
1237;1926.79;583.514;3.6
1238;1934.11;587.42;3.6
1239;1981.11;548.112;3.6
1240;2005.52;577.654;3.6
1241;2020.48;579.608;3.6
1242;2015.59;553.972;3.6
1243;1985.99;571.795;3.6
1244;1953.95;577.654;3.6
1245;1961.27;579.608;3.6
1246;1978.36;561.785;3.61
1247;1985.99;559.832;3.61
1248;1983.55;561.785;3.61
1249;1961.27;593.524;3.61
1250;1921.6;565.935;3.61
1251;1899.62;567.888;3.61
1252;1931.67;591.571;3.61
1253;1958.83;569.842;3.61
1254;1966.16;557.878;3.61
1255;1968.6;567.888;3.61
1256;1948.76;579.608;3.61
1257;1926.79;587.42;3.61
1258;1936.55;583.514;3.61
1259;1981.11;550.066;3.61
1260;2005.52;581.561;3.61
1261;2020.48;573.748;3.61
1262;2013.15;559.832;3.61
1263;1983.55;571.795;3.62
1264;1953.95;579.608;3.62
1265;1958.83;577.654;3.62
1266;1981.11;563.738;3.62
1267;1985.99;553.972;3.62
1268;1985.99;567.888;3.62
1269;1961.27;585.467;3.62
1270;1919.16;561.785;3.62
1271;1902.07;569.842;3.62
1272;1936.55;585.467;3.62
1273;1958.83;571.795;3.62
1274;1971.04;559.832;3.62
1275;1971.04;569.842;3.62
1276;1956.39;579.608;3.62
1277;1929.23;589.618;3.62
1278;1938.99;577.654;3.62
1279;1983.55;553.972;3.62
1280;2008.27;585.467;3.63
1281;2020.48;569.842;3.63
1282;2015.59;561.785;3.63
1283;1985.99;571.795;3.63
1284;1956.39;583.514;3.63
1285;1961.27;573.748;3.63
1286;1983.55;567.888;3.63
1287;1985.99;550.066;3.63
1288;1985.99;552.019;3.63
1289;1961.27;599.384;3.63
1290;1919.16;567.888;3.63
1291;1899.62;557.878;3.63
1292;1936.55;597.43;3.63
1293;1961.27;569.842;3.63
1294;1968.6;563.738;3.63
1295;1971.04;565.935;3.63
1296;1951.2;583.514;3.63
1297;1926.79;579.608;3.64
1298;1938.99;589.618;3.64
1299;1985.99;546.159;3.64
1300;2008.27;575.701;3.64
1301;2020.48;577.654;3.64
1302;2013.15;552.019;3.64
1303;1985.99;569.842;3.64
1304;1956.39;575.701;3.64
1305;1961.27;579.608;3.64
1306;1978.36;559.832;3.64
1307;1988.43;559.832;3.64
1308;1985.99;557.878;3.64
1309;1961.27;595.477;3.64
1310;1921.6;567.888;3.64
1311;1902.07;565.935;3.64
1312;1936.55;593.524;3.64
1313;1961.27;567.888;3.64
1314;1973.48;561.785;3.65
1315;1971.04;565.935;3.65
1316;1956.39;581.561;3.65
1317;1926.79;579.608;3.65
1318;1941.44;585.467;3.65
1319;1985.99;546.159;3.65
1320;2008.27;575.701;3.65
1321;2022.92;575.701;3.65
1322;2015.59;555.925;3.65
1323;1985.99;571.795;3.65
1324;1956.39;577.654;3.65
1325;1963.71;577.654;3.65
1326;1985.99;561.785;3.65
1327;1988.43;555.925;3.65
1328;1988.43;561.785;3.65
1329;1963.71;589.618;3.65
1330;1921.6;563.738;3.65
1331;1902.07;565.935;3.66
1332;1938.99;587.42;3.66
1333;1961.27;567.888;3.66
1334;1971.04;559.832;3.66
1335;1971.04;565.935;3.66
1336;1956.39;579.608;3.66
1337;1929.23;587.42;3.66
1338;1938.99;579.608;3.66
1339;1985.99;553.972;3.66
1340;2010.71;581.561;3.66
1341;2025.36;571.795;3.66
1342;2018.04;559.832;3.66
1343;1985.99;569.842;3.66
1344;1958.83;581.561;3.66
1345;1961.27;575.701;3.66
1346;1985.99;561.785;3.66
1347;1988.43;550.066;3.66
1348;1988.43;569.842;3.67
1349;1963.71;587.42;3.67
1350;1921.6;559.832;3.67
1351;1904.51;569.842;3.67
1352;1938.99;583.514;3.67
1353;1963.71;569.842;3.67
1354;1971.04;555.925;3.67
1355;1971.04;567.888;3.67
1356;1951.2;575.701;3.67
1357;1929.23;591.571;3.67
1358;1936.55;577.654;3.67
1359;1985.99;557.878;3.67
1360;2010.71;585.467;3.67
1361;2025.36;569.842;3.67
1362;2015.59;563.738;3.67
1363;1985.99;571.795;3.67
1364;1958.83;577.654;3.67
1365;1963.71;577.654;3.67
1366;1983.55;561.785;3.68
1367;1990.88;553.972;3.68
1368;1985.99;561.785;3.68
1369;1961.27;589.618;3.68
1370;1924.04;561.785;3.68
1371;1904.51;567.888;3.68
1372;1936.55;587.42;3.68
1373;1961.27;569.842;3.68
1374;1971.04;557.878;3.68
1375;1971.04;565.935;3.68
1376;1953.95;577.654;3.68
1377;1929.23;585.467;3.68
1378;1938.99;579.608;3.68
1379;1988.43;552.019;3.68
1380;2010.71;579.608;3.68
1381;2020.48;571.795;3.68
1382;2015.59;557.878;3.68
1383;1985.99;571.795;3.69
1384;1958.83;581.561;3.69
1385;1963.71;571.795;3.69
1386;1983.55;561.785;3.69
1387;1988.43;552.019;3.69
1388;1988.43;567.888;3.69
1389;1963.71;585.467;3.69
1390;1924.04;559.832;3.69
1391;1904.51;571.795;3.69
1392;1938.99;583.514;3.69
1393;1961.27;571.795;3.69
1394;1973.48;555.925;3.69
1395;1973.48;567.888;3.69
1396;1953.95;577.654;3.69
1397;1931.67;593.524;3.69
1398;1941.44;573.748;3.69
1399;1988.43;555.925;3.69
1400;2013.15;569.842;3.69
1401;2022.92;581.561;3.7
1402;2018.04;548.112;3.7
1403;1988.43;569.842;3.7
1404;1958.83;571.795;3.7
1405;1966.16;581.561;3.7
1406;1983.55;555.925;3.7
1407;1988.43;561.785;3.7
1408;1985.99;552.019;3.7
1409;1963.71;597.43;3.7
1410;1921.6;569.842;3.7
1411;1904.51;559.832;3.7
1412;1938.99;593.524;3.7
1413;1963.71;567.888;3.7
1414;1973.48;561.785;3.7
1415;1971.04;561.785;3.7
1416;1953.95;583.514;3.7
1417;1926.79;575.701;3.7
1418;1941.44;589.618;3.71
1419;1985.99;544.206;3.71
1420;2013.15;571.795;3.71
1421;2022.92;575.701;3.71
1422;2015.59;550.066;3.71
1423;1985.99;571.795;3.71
1424;1956.39;575.701;3.71
1425;1968.6;577.654;3.71
1426;1985.99;559.832;3.71
1427;1990.88;557.878;3.71
1428;1988.43;557.878;3.71
1429;1966.16;595.477;3.71
1430;1924.04;565.935;3.71
1431;1906.95;563.738;3.71
1432;1941.44;591.571;3.71
1433;1966.16;569.842;3.71
1434;1973.48;559.832;3.71
1435;1973.48;563.738;3.72
1436;1956.39;577.654;3.72
1437;1929.23;579.608;3.72
1438;1943.88;583.514;3.72
1439;1990.88;550.066;3.72
1440;2013.15;577.654;3.72
1441;2025.36;575.701;3.72
1442;2018.04;555.925;3.72
1443;1988.43;569.842;3.72
1444;1958.83;577.654;3.72
1445;1966.16;573.748;3.72
1446;1985.99;561.785;3.72
1447;1993.32;553.972;3.72
1448;1993.32;563.738;3.72
1449;1963.71;587.42;3.72
1450;1924.04;559.832;3.72
1451;1906.95;567.888;3.72
1452;1941.44;585.467;3.72
1453;1963.71;567.888;3.73
1454;1975.92;555.925;3.73
1455;1973.48;569.842;3.73
1456;1958.83;577.654;3.73
1457;1929.23;587.42;3.73
1458;1946.32;577.654;3.73
1459;1988.43;553.972;3.73
1460;2015.59;579.608;3.73
1461;2027.8;571.795;3.73
1462;2018.04;559.832;3.73
1463;1988.43;569.842;3.73
1464;1961.27;581.561;3.73
1465;1968.6;571.795;3.73
1466;1985.99;561.785;3.73
1467;1993.32;548.112;3.73
1468;1988.43;567.888;3.73
1469;1963.71;583.514;3.73
1470;1924.04;557.878;3.73
1471;1906.95;571.795;3.74001
1472;1941.44;581.561;3.74001
1473;1963.71;569.842;3.74001
1474;1973.48;553.972;3.74001
1475;1973.48;559.832;3.74001
1476;1956.39;585.467;3.74001
1477;1929.23;573.748;3.74001
1478;1943.88;593.524;3.74001
1479;1990.88;542.009;3.74001
1480;2013.15;569.842;3.74001
1481;2025.36;579.608;3.74001
1482;2015.59;550.066;3.74001
1483;1985.99;569.842;3.74001
1484;1958.83;571.795;3.74001
1485;1966.16;579.608;3.74001
1486;1985.99;553.972;3.74001
1487;1988.43;561.785;3.74001
1488;1988.43;555.925;3.75
1489;1961.27;597.43;3.75
1490;1924.04;567.888;3.75
1491;1906.95;561.785;3.75
1492;1938.99;593.524;3.75
1493;1963.71;569.842;3.75
1494;1975.92;563.738;3.75
1495;1975.92;561.785;3.75
1496;1953.95;581.561;3.75
1497;1929.23;575.701;3.75
1498;1941.44;589.618;3.75
1499;1988.43;544.206;3.75
1500;2013.15;571.795;3.75
1501;2025.36;575.701;3.75
1502;2018.04;550.066;3.75
1503;1988.43;569.842;3.75
1504;1958.83;577.654;3.75
1505;1966.16;577.654;3.75
1506;1985.99;557.878;3.76
1507;1988.43;557.878;3.76
1508;1988.43;559.832;3.76
1509;1963.71;593.524;3.76
1510;1921.6;561.785;3.76
1511;1904.51;563.738;3.76
1512;1941.44;589.618;3.76
1513;1963.71;569.842;3.76
1514;1973.48;557.878;3.76
1515;1973.48;565.935;3.76
1516;1953.95;577.654;3.76
1517;1929.23;581.561;3.76
1518;1943.88;579.608;3.76
1519;1990.88;548.112;3.76
1520;2013.15;577.654;3.76
1521;2022.92;571.795;3.76
1522;2015.59;555.925;3.76
1523;1983.55;569.842;3.76
1524;1958.83;577.654;3.77
1525;1966.16;575.701;3.77
1526;1983.55;559.832;3.77
1527;1988.43;550.066;3.77
1528;1988.43;561.785;3.77
1529;1958.83;589.618;3.77
1530;1919.16;557.878;3.77
1531;1904.51;567.888;3.77
1532;1938.99;585.467;3.77
1533;1961.27;567.888;3.77
1534;1971.04;555.925;3.77
1535;1973.48;565.935;3.77
1536;1953.95;575.701;3.77
1537;1929.23;587.42;3.77
1538;1941.44;575.701;3.77
1539;1988.43;553.972;3.77
1540;2013.15;581.561;3.77
1541;2022.92;569.842;3.77
1542;2015.59;559.832;3.78
1543;1985.99;569.842;3.78
1544;1956.39;579.608;3.78
1545;1966.16;573.748;3.78
1546;1985.99;563.738;3.78
1547;1990.88;546.159;3.78
1548;1985.99;571.795;3.78
1549;1961.27;583.514;3.78
1550;1919.16;561.785;3.78
1551;1906.95;565.935;3.78
1552;1941.44;589.618;3.78
1553;1963.71;567.888;3.78
1554;1971.04;557.878;3.78
1555;1973.48;563.738;3.78
1556;1953.95;579.608;3.78
1557;1929.23;581.561;3.78
1558;1943.88;581.561;3.78
1559;1988.43;548.112;3.78
1560;2013.15;575.701;3.79
1561;2022.92;571.795;3.79
1562;2015.59;555.925;3.79
1563;1985.99;569.842;3.79
1564;1958.83;581.561;3.79
1565;1966.16;573.748;3.79
1566;1985.99;557.878;3.79
1567;1990.88;552.019;3.79
1568;1988.43;563.738;3.79
1569;1961.27;585.467;3.79
1570;1924.04;559.832;3.79
1571;1906.95;569.842;3.79
1572;1943.88;585.467;3.79
1573;1963.71;567.888;3.79
1574;1971.04;553.972;3.79
1575;1973.48;565.935;3.79
1576;1953.95;575.701;3.79
1577;1929.23;585.467;3.79
1578;1943.88;575.701;3.8
1579;1988.43;553.972;3.8
1580;2013.15;581.561;3.8
1581;2022.92;569.842;3.8
1582;2015.59;559.832;3.8
1583;1985.99;567.888;3.8
1584;1956.39;581.561;3.8
1585;1963.71;571.795;3.8
1586;1983.55;563.738;3.8
1587;1988.43;546.159;3.8
1588;1983.55;550.066;3.8
1589;1958.83;595.477;3.8
1590;1921.6;569.842;3.8
1591;1906.95;555.925;3.8
1592;1941.44;591.571;3.8
1593;1958.83;569.842;3.8
1594;1971.04;561.785;3.8
1595;1971.04;557.878;3.8
1596;1953.95;585.467;3.8
1597;1926.79;571.795;3.81001
1598;1941.44;587.42;3.81001
1599;1988.43;542.009;3.81001
1600;2010.71;569.842;3.81001
1601;2022.92;579.608;3.81001
1602;2015.59;548.112;3.81001
1603;1983.55;567.888;3.81001
1604;1956.39;573.748;3.81001
1605;1966.16;575.701;3.81001
1606;1983.55;552.019;3.81001
1607;1990.88;557.878;3.81001
1608;1985.99;555.925;3.81001
1609;1958.83;593.524;3.81001
1610;1916.72;563.738;3.81001
1611;1906.95;559.832;3.81001
1612;1941.44;591.571;3.81001
1613;1961.27;567.888;3.81001
1614;1971.04;559.832;3.81001
1615;1973.48;561.785;3.82
1616;1951.2;579.608;3.82
1617;1926.79;577.654;3.82
1618;1943.88;583.514;3.82
1619;1988.43;546.159;3.82
1620;2010.71;573.748;3.82
1621;2025.36;577.654;3.82
1622;2015.59;550.066;3.82
1623;1983.55;567.888;3.82
1624;1956.39;573.748;3.82
1625;1966.16;575.701;3.82
1626;1985.99;557.878;3.82
1627;1990.88;553.972;3.82
1628;1988.43;557.878;3.82
1629;1961.27;589.618;3.82
1630;1921.6;561.785;3.82
1631;1906.95;561.785;3.82
1632;1941.44;589.618;3.82
1633;1961.27;567.888;3.82
1634;1973.48;555.925;3.83
1635;1973.48;563.738;3.83
1636;1951.2;577.654;3.83
1637;1929.23;583.514;3.83
1638;1948.76;579.608;3.83
1639;1990.88;550.066;3.83
1640;2013.15;575.701;3.83
1641;2025.36;571.795;3.83
1642;2015.59;555.925;3.83
1643;1983.55;567.888;3.83
1644;1956.39;577.654;3.83
1645;1966.16;571.795;3.83
1646;1985.99;559.832;3.83
1647;1993.32;552.019;3.83
1648;1988.43;563.738;3.83
1649;1958.83;583.514;3.83
1650;1919.16;557.878;3.83
1651;1906.95;567.888;3.83
1652;1943.88;583.514;3.83
1653;1963.71;567.888;3.83
1654;1975.92;553.972;3.84
1655;1973.48;565.935;3.84
1656;1953.95;573.748;3.84
1657;1931.67;587.42;3.84
1658;1946.32;573.748;3.84
1659;1990.88;553.972;3.84
1660;2015.59;579.608;3.84
1661;2022.92;567.888;3.84
1662;2015.59;546.159;3.84
1663;1983.55;569.842;3.84
1664;1956.39;569.842;3.84
1665;1968.6;579.608;3.84
1666;1985.99;550.066;3.84
1667;1990.88;559.832;3.84
1668;1988.43;550.066;3.84
1669;1961.27;599.384;3.84
1670;1919.16;569.842;3.84
1671;1906.95;555.925;3.84
1672;1941.44;591.571;3.84
1673;1963.71;567.888;3.84
1674;1971.04;563.738;3.85
1675;1973.48;559.832;3.85
1676;1953.95;581.561;3.85
1677;1926.79;573.748;3.85
1678;1946.32;585.467;3.85
1679;1993.32;540.056;3.85
1680;2013.15;569.842;3.85
1681;2022.92;575.701;3.85
1682;2010.71;548.112;3.85
1683;1981.11;567.888;3.85
1684;1953.95;571.795;3.85
1685;1968.6;579.608;3.85
1686;1983.55;553.972;3.85
1687;1985.99;557.878;3.85
1688;1985.99;553.972;3.85
1689;1961.27;593.524;3.85
1690;1916.72;563.738;3.85
1691;1904.51;557.878;3.85
1692;1938.99;589.618;3.85
1693;1963.71;565.935;3.86
1694;1973.48;557.878;3.86
1695;1971.04;561.785;3.86
1696;1951.2;579.608;3.86
1697;1926.79;579.608;3.86
1698;1943.88;583.514;3.86
1699;1988.43;544.206;3.86
1700;2010.71;571.795;3.86
1701;2020.48;571.795;3.86
1702;2010.71;550.066;3.86
1703;1981.11;565.935;3.86
1704;1953.95;577.654;3.86
1705;1961.27;575.701;3.86
1706;1981.11;557.878;3.86
1707;1985.99;552.019;3.86
1708;1983.55;561.785;3.86
1709;1953.95;587.42;3.86
1710;1916.72;559.832;3.86
1711;1904.51;563.738;3.86
1712;1938.99;583.514;3.86
1713;1958.83;565.935;3.87
1714;1968.6;555.925;3.87
1715;1971.04;561.785;3.87
1716;1948.76;575.701;3.87
1717;1926.79;585.467;3.87
1718;1941.44;577.654;3.87
1719;1988.43;550.066;3.87
1720;2008.27;577.654;3.87
1721;2020.48;569.842;3.87
1722;2008.27;555.925;3.87
1723;1981.11;567.888;3.87
1724;1951.2;577.654;3.87
1725;1961.27;571.795;3.87
1726;1978.36;559.832;3.87
1727;1985.99;546.159;3.87
1728;1983.55;565.935;3.87
1729;1956.39;583.514;3.87
1730;1914.27;555.925;3.87
1731;1899.62;567.888;3.87
1732;1936.55;581.561;3.88
1733;1958.83;567.888;3.88
1734;1968.6;553.972;3.88
1735;1966.16;567.888;3.88
1736;1948.76;573.748;3.88
1737;1919.16;579.608;3.88
1738;1943.88;583.514;3.88
1739;1985.99;546.159;3.88
1740;2008.27;573.748;3.88
1741;2015.59;571.795;3.88
1742;2008.27;552.019;3.88
1743;1975.92;567.888;3.88
1744;1951.2;575.701;3.88
1745;1961.27;577.654;3.88
1746;1981.11;559.832;3.88
1747;1981.11;552.019;3.88
1748;1981.11;557.878;3.88
1749;1953.95;587.42;3.88
1750;1914.27;559.832;3.88
1751;1902.07;561.785;3.88
1752;1936.55;583.514;3.89
1753;1958.83;569.842;3.89
1754;1966.16;557.878;3.89
1755;1966.16;563.738;3.89
1756;1948.76;573.748;3.89
1757;1919.16;585.467;3.89
1758;1941.44;577.654;3.89
1759;1988.43;550.066;3.89
1760;2005.52;577.654;3.89
1761;2018.04;567.888;3.89
1762;2005.52;555.925;3.89
1763;1973.48;565.935;3.89
1764;1948.76;577.654;3.89
1765;1958.83;571.795;3.89
1766;1978.36;559.832;3.89
1767;1981.11;548.112;3.89
1768;1978.36;561.785;3.89
1769;1951.2;581.561;3.89
1770;1911.83;555.925;3.89
1771;1899.62;567.888;3.89
1772;1936.55;577.654;3.9
1773;1956.39;567.888;3.9
1774;1968.6;563.738;3.9
1775;1963.71;555.925;3.9
1776;1946.32;583.514;3.9
1777;1919.16;569.842;3.9
1778;1938.99;587.42;3.9
1779;1983.55;540.056;3.9
1780;2000.64;567.888;3.9
1781;2015.59;577.654;3.9
1782;2005.52;550.066;3.9
1783;1973.48;567.888;3.9
1784;1946.32;569.842;3.9
1785;1958.83;577.654;3.9
1786;1975.92;552.019;3.9
1787;1978.36;559.832;3.9
1788;1978.36;552.019;3.9
1789;1948.76;595.477;3.9
1790;1909.39;565.935;3.9
1791;1896.88;557.878;3.9
1792;1934.11;589.618;3.91
1793;1953.95;567.888;3.91
1794;1963.71;559.832;3.91
1795;1961.27;555.925;3.91
1796;1941.44;577.654;3.91
1797;1916.72;575.701;3.91
1798;1936.55;585.467;3.91
1799;1981.11;542.009;3.91
1800;2000.64;569.842;3.91
1801;2013.15;577.654;3.91
1802;2003.08;546.159;3.91
1803;1971.04;565.935;3.91
1804;1943.88;569.842;3.91
1805;1956.39;579.608;3.91
1806;1973.48;557.878;3.91
1807;1978.36;553.972;3.91
1808;1975.92;553.972;3.91
1809;1946.32;591.571;3.91
1810;1906.95;561.785;3.91
1811;1896.88;557.878;3.91
1812;1934.11;589.618;3.91
1813;1948.76;565.935;3.92
1814;1961.27;555.925;3.92
1815;1958.83;559.832;3.92
1816;1938.99;577.654;3.92
1817;1916.72;577.654;3.92
1818;1934.11;579.608;3.92
1819;1981.11;544.206;3.92
1820;1998.2;573.748;3.92
1821;2013.15;571.795;3.92
1822;2000.64;552.019;3.92
1823;1971.04;565.935;3.92
1824;1943.88;577.654;3.92
1825;1956.39;573.748;3.92
1826;1971.04;557.878;3.92
1827;1975.92;550.066;3.92
1828;1975.92;561.785;3.92
1829;1943.88;585.467;3.92
1830;1906.95;555.925;3.92
1831;1894.44;563.738;3.92
1832;1931.67;583.514;3.92
1833;1953.95;565.935;3.93
1834;1958.83;553.972;3.93
1835;1956.39;561.785;3.93
1836;1936.55;573.748;3.93
1837;1911.83;583.514;3.93
1838;1934.11;575.701;3.93
1839;1981.11;552.019;3.93
1840;2000.64;579.608;3.93
1841;2010.71;569.842;3.93
1842;2000.64;557.878;3.93
1843;1971.04;565.935;3.93
1844;1943.88;579.608;3.93
1845;1956.39;569.842;3.93
1846;1973.48;559.832;3.93
1847;1975.92;546.159;3.93
1848;1975.92;563.738;3.93
1849;1946.32;595.477;3.93
1850;1904.51;567.888;3.93
1851;1894.44;553.972;3.93
1852;1931.67;589.618;3.93
1853;1948.76;567.888;3.94
1854;1961.27;561.785;3.94
1855;1956.39;555.925;3.94
1856;1936.55;579.608;3.94
1857;1911.83;569.842;3.94
1858;1934.11;587.42;3.94
1859;1978.36;540.056;3.94
1860;1998.2;567.888;3.94
1861;2008.27;579.608;3.94
1862;1998.2;546.159;3.94
1863;1968.6;567.888;3.94
1864;1941.44;569.842;3.94
1865;1953.95;575.701;3.94
1866;1971.04;553.972;3.94
1867;1973.48;557.878;3.94
1868;1971.04;552.019;3.94
1869;1941.44;593.524;3.94
1870;1902.07;565.935;3.94
1871;1889.55;557.878;3.94
1872;1926.79;591.571;3.94
1873;1946.32;567.888;3.95
1874;1956.39;559.832;3.95
1875;1953.95;557.878;3.95
1876;1934.11;579.608;3.95
1877;1909.39;577.654;3.95
