<WeldAnalyseData xmlns:i="http:www.w3.org/2001/XMLSchema-instance">
<WeldParameter>
<TimeStamp>DT#2023-12-05-14:12:59</TimeStamp>
<Generator>SG-22-10000</Generator>
<GenFreq>20</GenFreq>
<MaxForce>8000</MaxForce>
<MaxPower>10000</MaxPower>
<RunupPressure>1.5</RunupPressure>
<RunupDist>10</RunupDist>
<RunPress>0.8</RunPress>
<ShakeDelay>0.03</ShakeDelay>
<ShakeTime>0.3</ShakeTime>
<RunBackPress1>6</RunBackPress1>
<RunBackPress2>2</RunBackPress2>
<RunBackDist>1</RunBackDist>
<TrigValue>500</TrigValue>
<TrigModeUnit>W</TrigModeUnit>
<WeldModeUnit>Ws</WeldModeUnit>
<PressNr>0</PressNr>
<MaxLoss>1500</MaxLoss>
</WeldParameter>
<WeldSets>
<WeldSet>
<PressRiseTime>0</PressRiseTime>
<RunPressure>1</RunPressure>
<Amplitude>86</Amplitude>
<WeldMode>3270</WeldMode>
</WeldSet>
</WeldSets>
<WeldValue>
<WeldNr>2405</WeldNr>
<RecipeName>RickStyle</RecipeName>
<WeldTime>1779</WeldTime>
<DistDiff>3.53</DistDiff>
<DistAbs>78.31</DistAbs>
<Energy>3270.13</Energy>
<MaxPower>2071.62</MaxPower>
<CycleTime>6070</CycleTime>
<TrigForce>500.748</TrigForce>
<TrigDist>74.78</TrigDist>
<RunSpeed>68.6685</RunSpeed>
<MaxForce>605.243</MaxForce>
<LossPower>246.876</LossPower>
</WeldValue>
</WeldAnalyseData>
#CSV-START#
ms;Power[W];Force[N];Distance[mm]
1;0;0;0
2;0;504.654;0
3;0;500.748;0
4;0;500.748;0
5;0;504.654;0
6;0;502.701;0
7;0;502.701;0
8;0;500.748;0.0100021
9;0;477.065;0.0100021
10;7.34351;461.196;0.0200043
11;21.9924;453.383;0.0400009
12;32.0635;441.42;0.0599976
13;49.1539;433.607;0.0699997
14;73.8739;433.607;0.090004
15;101.035;423.597;0.110001
16;133.08;419.691;0.120003
17;170.312;419.691;0.139999
18;197.474;403.821;0.160004
19;224.635;411.878;0.169998
20;246.914;407.971;0.190002
21;266.446;401.868;0.209999
22;288.724;401.868;0.230003
23;306.12;403.821;0.25
24;325.957;399.915;0.260002
25;343.047;399.915;0.279999
26;358.001;394.055;0.300003
27;370.209;401.868;0.32
28;375.092;409.925;0.330002
29;377.533;399.915;0.349998
30;387.604;409.925;0.360001
31;402.253;411.878;0.380005
32;409.883;409.925;0.389999
33;419.649;405.774;0.410004
34;426.973;415.784;0.419998
35;429.414;409.925;0.440002
36;441.927;419.691;0.450005
37;456.576;407.971;0.470001
38;471.53;405.774;0.480003
39;483.737;417.737;0.5
40;488.62;403.821;0.510002
41;491.367;407.971;0.529999
42;491.367;411.878;0.540001
43;486.179;413.831;0.559998
44;488.62;403.821;0.57
45;493.809;407.971;0.580002
46;496.25;399.915;0.590004
47;496.25;419.691;0.610001
48;493.809;415.784;0.620003
49;486.179;403.821;0.630005
50;486.179;419.691;0.650002
51;498.692;417.737;0.660004
52;503.574;415.784;0.669998
53;503.574;409.925;0.68
54;503.574;421.644;0.700005
55;501.133;419.691;0.709999
56;503.574;433.607;0.720001
57;515.782;413.831;0.739998
58;533.177;421.644;0.75
59;538.06;435.56;0.760002
60;542.943;415.784;0.770004
61;545.69;423.597;0.790001
62;540.502;425.55;0.800003
63;538.06;425.55;0.809998
64;540.502;417.737;0.82
65;542.943;423.597;0.840004
66;548.131;413.831;0.849998
67;545.69;431.654;0.860001
68;540.502;431.654;0.870003
69;535.619;417.737;0.889999
70;533.177;431.654;0.900002
71;542.943;431.654;0.910004
72;550.573;431.654;0.919998
73;555.456;423.597;0.940002
74;560.339;437.513;0.950005
75;560.339;435.56;0.959999
76;562.78;447.279;0.980003
77;577.734;433.607;0.989998
78;594.825;431.654;1
79;609.779;447.279;1.02
80;621.986;429.456;1.03
81;621.986;435.56;1.04
82;619.545;435.56;1.06
83;617.103;439.467;1.07
84;619.545;431.654;1.08
85;624.428;435.56;1.1
86;629.616;421.644;1.11
87;632.057;449.232;1.13
88;629.616;439.467;1.14
89;621.986;423.597;1.16
90;621.986;445.326;1.17
91;636.94;439.467;1.18
92;649.148;435.56;1.2
93;656.777;431.654;1.22
94;659.219;435.56;1.23
95;661.66;441.42;1.24
96;666.543;445.326;1.26
97;681.497;445.326;1.28
98;703.471;431.654;1.29
99;718.425;447.279;1.31
100;725.749;441.42;1.32
101;728.191;437.513;1.34
102;728.191;439.467;1.35
103;725.749;443.373;1.37
104;730.632;439.467;1.38
105;735.82;439.467;1.39
106;745.586;431.654;1.41
107;743.145;441.42;1.42
108;740.703;447.279;1.44
109;733.074;433.607;1.45
110;735.82;445.326;1.47
111;752.911;449.232;1.48
112;767.865;443.373;1.49
113;775.189;437.513;1.5
114;782.514;449.232;1.52
115;784.955;445.326;1.53
116;784.955;457.289;1.54
117;807.234;447.279;1.56
118;831.954;441.42;1.57
119;849.349;457.289;1.58
120;859.115;443.373;1.59
121;863.998;443.373;1.6
122;861.557;449.232;1.62
123;861.557;455.336;1.63
124;871.628;441.42;1.64
125;886.277;447.279;1.65
126;896.043;431.654;1.66
127;903.672;453.383;1.67
128;906.114;455.336;1.68
129;898.789;439.467;1.69
130;906.114;457.289;1.7
131;933.275;453.383;1.71
132;950.365;451.186;1.72
133;962.878;443.373;1.73
134;975.085;463.149;1.74
135;985.157;453.383;1.75
136;987.598;472.915;1.76
137;1012.32;451.186;1.77
138;1041.92;453.383;1.78
139;1054.13;470.962;1.79
140;1064.2;447.279;1.8
141;1064.2;457.289;1.81
142;1056.57;457.289;1.82
143;1049.25;469.008;1.83
144;1064.2;451.186;1.83
145;1078.85;459.243;1.84
146;1088.92;443.373;1.85
147;1093.8;477.065;1.86
148;1088.92;470.962;1.86
149;1078.85;453.383;1.87
150;1083.73;479.019;1.88
151;1113.33;469.008;1.89
152;1130.73;472.915;1.89
153;1142.94;459.243;1.9
154;1155.45;482.925;1.91
155;1160.33;472.915;1.91
156;1160.33;482.925;1.92
157;1187.49;479.019;1.92
158;1224.42;463.149;1.93
159;1239.38;484.878;1.94
160;1256.77;472.915;1.94
161;1261.65;472.915;1.95
162;1254.33;477.065;1.96
163;1246.7;482.925;1.96
164;1266.54;482.925;1.97
165;1283.93;475.112;1.98
166;1291.26;463.149;1.98
167;1296.14;479.019;1.99
168;1288.82;488.784;1.99
169;1273.86;469.008;2
170;1281.49;486.831;2
171;1311.09;488.784;2.01
172;1325.74;482.925;2.02
173;1338.26;472.915;2.02
174;1350.46;488.784;2.03
175;1345.58;486.831;2.03
176;1345.58;506.607;2.04
177;1372.74;486.831;2.05
178;1402.34;482.925;2.05
179;1422.18;502.701;2.06
180;1439.27;482.925;2.06
181;1436.83;484.878;2.07
182;1422.18;490.738;2.07
183;1414.55;502.701;2.08
184;1431.95;482.925;2.08
185;1451.78;490.738;2.09
186;1459.11;469.008;2.09
187;1466.43;502.701;2.1
188;1446.9;498.795;2.1
189;1427.06;480.972;2.11
190;1436.83;504.654;2.11
191;1466.43;498.795;2.12
192;1483.83;498.795;2.12
193;1493.59;484.878;2.13
194;1501.22;512.467;2.13
195;1493.59;500.748;2.14
196;1488.71;520.524;2.14
197;1518.31;494.644;2.15
198;1547.92;494.644;2.15
199;1565.31;518.326;2.15
200;1580.27;490.738;2.16
201;1575.08;500.748;2.16
202;1560.43;498.795;2.17
203;1547.92;514.42;2.17
204;1567.75;484.878;2.17
205;1577.52;502.701;2.18
206;1590.03;480.972;2.18
207;1590.03;520.524;2.19
208;1570.2;512.467;2.19
209;1543.03;490.738;2.19
210;1553.11;522.477;2.2
211;1585.15;510.514;2.2
212;1597.36;514.42;2.21
213;1607.43;496.597;2.21
214;1609.87;524.43;2.21
215;1599.8;510.514;2.22
216;1587.59;534.196;2.22
217;1619.64;496.597;2.23
218;1649.24;508.56;2.23
219;1666.63;528.336;2.23
220;1671.52;502.701;2.24
221;1669.08;512.467;2.24
222;1641.91;510.514;2.24
223;1631.84;526.383;2.25
224;1646.8;500.748;2.25
225;1661.75;510.514;2.25
226;1669.08;490.738;2.26
227;1666.63;530.29;2.26
228;1644.36;522.477;2.27
229;1617.19;500.748;2.27
230;1626.96;528.336;2.27
231;1659.01;520.524;2.28
232;1671.52;522.477;2.28
233;1681.28;504.654;2.28
234;1683.73;536.149;2.29
235;1671.52;520.524;2.29
236;1661.75;548.112;2.29
237;1696.24;506.607;2.3
238;1728.28;514.42;2.3
239;1743.24;536.149;2.3
240;1755.44;506.607;2.31
241;1745.68;520.524;2.31
242;1720.96;516.373;2.31
243;1706;532.243;2.32
244;1728.28;504.654;2.32
245;1738.05;522.477;2.32
246;1745.68;504.654;2.33
247;1740.49;542.009;2.33
248;1713.33;528.336;2.33
249;1683.73;510.514;2.33
250;1696.24;524.43;2.34
251;1728.28;532.243;2.34
252;1740.49;526.383;2.34
253;1750.56;514.42;2.35
254;1750.56;526.383;2.35
255;1735.61;530.29;2.35
256;1723.4;550.066;2.36
257;1757.89;526.383;2.36
258;1789.93;520.524;2.36
259;1807.33;544.206;2.36
260;1814.65;524.43;2.37
261;1802.44;522.477;2.37
262;1775.28;526.383;2.37
263;1762.77;538.102;2.38
264;1785.05;528.336;2.38
265;1797.25;526.383;2.38
266;1802.44;504.654;2.38
267;1794.81;536.149;2.39
268;1765.21;536.149;2.39
269;1735.61;514.42;2.39
270;1748.12;542.009;2.4
271;1775.28;534.196;2.4
272;1789.93;534.196;2.4
273;1797.25;518.326;2.4
274;1792.37;548.112;2.41
275;1772.84;534.196;2.41
276;1767.65;557.878;2.41
277;1800;530.29;2.41
278;1827.16;528.336;2.42
279;1841.81;550.066;2.42
280;1849.14;524.43;2.42
281;1836.93;532.243;2.42
282;1804.88;530.29;2.43
283;1794.81;548.112;2.43
284;1814.65;520.524;2.43
285;1824.42;532.243;2.43
286;1827.16;514.42;2.43
287;1819.53;548.112;2.44
288;1789.93;544.206;2.44
289;1757.89;522.477;2.44
290;1775.28;552.019;2.44
291;1804.88;540.056;2.45
292;1817.09;542.009;2.45
293;1827.16;526.383;2.45
294;1819.53;557.878;2.45
295;1802.44;540.056;2.45
296;1789.93;567.888;2.46
297;1827.16;524.43;2.46
298;1856.77;536.149;2.46
299;1873.86;559.832;2.46
300;1878.74;526.383;2.47
301;1864.09;542.009;2.47
302;1832.05;538.102;2.47
303;1821.97;553.972;2.47
304;1844.25;522.477;2.47
305;1851.58;540.056;2.48
306;1856.77;522.477;2.48
307;1846.69;567.888;2.48
308;1817.09;546.159;2.48
309;1785.05;530.29;2.48
310;1802.44;559.832;2.49
311;1829.6;550.066;2.49
312;1841.81;544.206;2.49
313;1854.32;528.336;2.49
314;1846.69;546.159;2.49
315;1827.16;548.112;2.5
316;1817.09;567.888;2.5
317;1856.77;546.159;2.5
318;1883.93;536.149;2.5
319;1901.02;563.738;2.5
320;1905.9;542.009;2.5
321;1888.81;542.009;2.51
322;1856.77;544.206;2.51
323;1849.14;561.785;2.51
324;1868.97;544.206;2.51
325;1878.74;542.009;2.51
326;1881.49;522.477;2.52
327;1871.41;555.925;2.52
328;1839.37;557.878;2.52
329;1809.77;530.29;2.52
330;1827.16;557.878;2.52
331;1856.77;553.972;2.52
332;1871.41;552.019;2.53
333;1878.74;536.149;2.53
334;1871.41;563.738;2.53
335;1851.58;552.019;2.53
336;1841.81;577.654;2.53
337;1878.74;546.159;2.53
338;1908.65;546.159;2.54
339;1923.3;571.795;2.54
340;1925.74;540.056;2.54
341;1903.46;548.112;2.54
342;1876.3;548.112;2.54
343;1864.09;565.935;2.54
344;1888.81;536.149;2.55
345;1898.58;552.019;2.55
346;1901.02;526.383;2.55
347;1891.25;563.738;2.55
348;1859.21;557.878;2.55
349;1832.05;536.149;2.55
350;1849.14;567.888;2.56
351;1878.74;555.925;2.56
352;1891.25;557.878;2.56
353;1898.58;540.056;2.56
354;1891.25;573.748;2.56
355;1866.53;555.925;2.56
356;1859.21;579.608;2.57
357;1898.58;542.009;2.57
358;1928.18;548.112;2.57
359;1943.13;571.795;2.57
360;1943.13;540.056;2.57
361;1920.85;553.972;2.57
362;1888.81;553.972;2.58
363;1878.74;569.842;2.58
364;1903.46;536.149;2.58
365;1913.53;555.925;2.58
366;1918.41;534.196;2.58
367;1905.9;581.561;2.58
368;1871.41;559.832;2.58
369;1841.81;544.206;2.59
370;1864.09;573.748;2.59
371;1896.13;559.832;2.59
372;1908.65;561.785;2.59
373;1915.97;546.159;2.59
374;1905.9;577.654;2.59
375;1881.49;559.832;2.6
376;1873.86;587.42;2.6
377;1913.53;550.066;2.6
378;1940.69;553.972;2.6
379;1955.34;577.654;2.6
380;1955.34;546.159;2.6
381;1933.06;557.878;2.6
382;1901.02;553.972;2.61
383;1891.25;571.795;2.61
384;1915.97;542.009;2.61
385;1925.74;555.925;2.61
386;1928.18;534.196;2.61
387;1913.53;579.608;2.61
388;1881.49;563.738;2.61
389;1851.58;546.159;2.62
390;1871.41;575.701;2.62
391;1903.46;561.785;2.62
392;1915.97;563.738;2.62
393;1925.74;548.112;2.62
394;1911.09;579.608;2.62
395;1886.37;559.832;2.62
396;1878.74;583.514;2.63
397;1920.85;542.009;2.63
398;1945.57;557.878;2.63
399;1960.22;575.701;2.63
400;1957.78;546.159;2.63
401;1935.81;561.785;2.63
402;1905.9;557.878;2.63
403;1898.58;575.701;2.64
404;1918.41;563.738;2.64
405;1930.62;557.878;2.64
406;1933.06;538.102;2.64
407;1915.97;565.935;2.64
408;1883.93;571.795;2.64
409;1851.58;544.206;2.64
410;1878.74;569.842;2.64
411;1908.65;569.842;2.65
412;1920.85;565.935;2.65
413;1923.3;548.112;2.65
414;1915.97;573.748;2.65
415;1891.25;567.888;2.65
416;1883.93;589.618;2.65
417;1925.74;559.832;2.65
418;1952.9;557.878;2.65
419;1965.41;585.467;2.66
420;1965.41;553.972;2.66
421;1940.69;563.738;2.66
422;1911.09;559.832;2.66
423;1905.9;577.654;2.66
424;1928.18;553.972;2.66
425;1930.62;563.738;2.66
426;1940.69;538.102;2.66
427;1923.3;575.701;2.67
428;1888.81;569.842;2.67
429;1859.21;546.159;2.67
430;1888.81;579.608;2.67
431;1915.97;567.888;2.67
432;1928.18;569.842;2.67
433;1930.62;552.019;2.67
434;1920.85;585.467;2.67
435;1896.13;567.888;2.67
436;1893.69;595.477;2.68
437;1935.81;555.925;2.68
438;1955.34;559.832;2.68
439;1970.29;585.467;2.68
440;1975.18;550.066;2.68
441;1952.9;565.935;2.68
442;1923.3;561.785;2.68
443;1908.65;579.608;2.68
444;1933.06;546.159;2.69
445;1943.13;563.738;2.69
446;1945.57;544.206;2.69
447;1935.81;587.42;2.69
448;1901.02;571.795;2.69
449;1868.97;553.972;2.69
450;1888.81;583.514;2.69
451;1920.85;569.842;2.69
452;1933.06;569.842;2.69
453;1938.25;555.925;2.7
454;1933.06;587.42;2.7
455;1903.46;567.888;2.7
456;1896.13;589.618;2.7
457;1933.06;548.112;2.7
458;1962.97;565.935;2.7
459;1977.62;579.608;2.7
460;1980.06;550.066;2.7
461;1960.22;567.888;2.7
462;1925.74;565.935;2.71
463;1913.53;581.561;2.71
464;1935.81;552.019;2.71
465;1950.46;565.935;2.71
466;1952.9;544.206;2.71
467;1940.69;573.748;2.71
468;1903.46;577.654;2.71
469;1871.41;550.066;2.71
470;1893.69;579.608;2.71
471;1925.74;573.748;2.72
472;1938.25;573.748;2.72
473;1945.57;552.019;2.72
474;1935.81;581.561;2.72
475;1911.09;571.795;2.72
476;1901.02;597.43;2.72
477;1940.69;567.888;2.72
478;1965.41;563.738;2.72
479;1982.5;585.467;2.72
480;1984.94;559.832;2.72
481;1960.22;567.888;2.73
482;1930.62;567.888;2.73
483;1920.85;585.467;2.73
484;1943.13;555.925;2.73
485;1955.34;567.888;2.73
486;1957.78;548.112;2.73
487;1945.57;581.561;2.73
488;1908.65;573.748;2.73
489;1881.49;552.019;2.73
490;1898.58;585.467;2.73
491;1930.62;573.748;2.74
492;1945.57;575.701;2.74
493;1950.46;557.878;2.74
494;1943.13;589.618;2.74
495;1915.97;571.795;2.74
496;1903.46;597.43;2.74
497;1945.57;561.785;2.74
498;1975.18;565.935;2.74
499;1987.38;587.42;2.74
500;1990.13;557.878;2.74
501;1965.41;569.842;2.75
502;1935.81;567.888;2.75
503;1925.74;583.514;2.75
504;1948.02;550.066;2.75
505;1957.78;569.842;2.75
506;1960.22;548.112;2.75
507;1945.57;591.571;2.75
508;1911.09;573.748;2.75
509;1881.49;555.925;2.75
510;1903.46;589.618;2.75
511;1935.81;573.748;2.75
512;1945.57;575.701;2.76
513;1952.9;561.785;2.76
514;1943.13;591.571;2.76
515;1918.41;571.795;2.76
516;1908.65;597.43;2.76
517;1950.46;550.066;2.76
518;1980.06;571.795;2.76
519;1995.01;587.42;2.76
520;1995.01;555.925;2.76
521;1970.29;571.795;2.76
522;1940.69;569.842;2.76
523;1935.81;583.514;2.77
524;1955.34;555.925;2.77
525;1962.97;571.795;2.77
526;1967.85;552.019;2.77
527;1952.9;601.337;2.77
528;1918.41;575.701;2.77
529;1886.37;555.925;2.77
530;1908.65;589.618;2.77
531;1938.25;577.654;2.77
532;1952.9;577.654;2.77
533;1960.22;559.832;2.77
534;1945.57;593.524;2.78
535;1923.3;573.748;2.78
536;1915.97;597.43;2.78
537;1955.34;555.925;2.78
538;1984.94;567.888;2.78
539;1999.9;587.42;2.78
540;2002.34;557.878;2.78
541;1980.06;571.795;2.78
542;1950.46;567.888;2.78
543;1938.25;587.42;2.78
544;1962.97;553.972;2.78
545;1975.18;573.748;2.79
546;1977.62;552.019;2.79
547;1962.97;601.337;2.79
548;1925.74;577.654;2.79
549;1898.58;561.785;2.79
550;1923.3;593.524;2.79
551;1950.46;575.701;2.79
552;1965.41;573.748;2.79
553;1972.74;561.785;2.79
554;1957.78;591.571;2.79
555;1930.62;575.701;2.79
556;1923.3;597.43;2.79
557;1972.74;552.019;2.8
558;1999.9;571.795;2.8
559;2012.1;595.477;2.8
560;2012.1;565.935;2.8
561;1987.38;569.842;2.8
562;1960.22;569.842;2.8
563;1950.46;587.42;2.8
564;1975.18;569.842;2.8
565;1984.94;569.842;2.8
566;1984.94;552.019;2.8
567;1970.29;581.561;2.8
568;1930.62;583.514;2.8
569;1905.9;557.878;2.8
570;1930.62;585.467;2.81
571;1962.97;577.654;2.81
572;1975.18;577.654;2.81
573;1980.06;559.832;2.81
574;1965.41;591.571;2.81
575;1938.25;575.701;2.81
576;1933.06;601.337;2.81
577;1977.62;567.888;2.81
578;2004.78;569.842;2.81
579;2022.18;593.524;2.81
580;2019.73;565.935;2.81
581;1992.57;573.748;2.81
582;1965.41;571.795;2.81
583;1960.22;589.618;2.82
584;1982.5;555.925;2.82
585;1990.13;573.748;2.82
586;1990.13;550.066;2.82
587;1975.18;591.571;2.82
588;1935.81;579.608;2.82
589;1908.65;557.878;2.82
590;1935.81;589.618;2.82
591;1962.97;575.701;2.82
592;1975.18;577.654;2.82
593;1980.06;563.738;2.82
594;1962.97;595.477;2.82
595;1938.25;575.701;2.83
596;1938.25;601.337;2.83
597;1984.94;557.878;2.83
598;2012.1;571.795;2.83
599;2024.62;589.618;2.83
600;2024.62;559.832;2.83
601;1999.9;573.748;2.83
602;1970.29;573.748;2.83
603;1967.85;585.467;2.83
604;1990.13;557.878;2.83
605;1995.01;575.701;2.83
606;1997.46;553.972;2.83
607;1980.06;601.337;2.83
608;1940.69;579.608;2.84
609;1913.53;563.738;2.84
610;1938.25;595.477;2.84
611;1967.85;577.654;2.84
612;1980.06;577.654;2.84
613;1984.94;561.785;2.84
614;1972.74;593.524;2.84
615;1943.13;575.701;2.84
616;1945.57;599.384;2.84
617;1992.57;552.019;2.84
618;2017.29;573.748;2.84
619;2034.38;589.618;2.84
620;2031.94;555.925;2.84
621;2007.22;571.795;2.84
622;1977.62;571.795;2.85
623;1972.74;587.42;2.85
624;1995.01;565.935;2.85
625;2002.34;571.795;2.85
626;2004.78;550.066;2.85
627;1995.01;585.467;2.85
628;1960.22;581.561;2.85
629;1923.3;555.925;2.85
630;1930.62;587.42;2.85
631;1965.41;579.608;2.85
632;1982.5;579.608;2.85
633;1987.38;561.785;2.85
634;1982.5;593.524;2.85
635;1957.78;577.654;2.85
636;1943.13;603.29;2.86
637;1980.06;567.888;2.86
638;2017.29;571.795;2.86
639;2034.38;595.477;2.86
640;2041.71;565.935;2.86
641;2022.18;575.701;2.86
642;1992.57;571.795;2.86
643;1975.18;591.571;2.86
644;1995.01;559.832;2.86
645;2004.78;573.748;2.86
646;2009.66;550.066;2.86
647;1997.46;593.524;2.86
648;1962.97;581.561;2.86
649;1928.18;559.832;2.86
650;1938.25;593.524;2.87
651;1972.74;577.654;2.87
652;1984.94;579.608;2.87
653;1995.01;561.785;2.87
654;1984.94;597.43;2.87
655;1960.22;575.701;2.87
656;1945.57;603.29;2.87
657;1984.94;559.832;2.87
658;2022.18;573.748;2.87
659;2041.71;593.524;2.87
660;2046.9;561.785;2.87
661;2027.06;577.654;2.87
662;1995.01;571.795;2.87
663;1980.06;589.618;2.87
664;1999.9;557.878;2.88
665;2009.66;571.795;2.88
666;2017.29;552.019;2.88
667;2002.34;605.243;2.88
668;1967.85;579.608;2.88
669;1930.62;563.738;2.88
670;1943.13;595.477;2.88
671;1977.62;579.608;2.88
672;1990.13;577.654;2.88
673;1997.46;563.738;2.88
674;1992.57;593.524;2.88
675;1965.41;577.654;2.88
676;1950.46;599.384;2.88
677;1987.38;548.112;2.88
678;2024.62;573.748;2.88
679;2041.71;589.618;2.89
680;2049.34;557.878;2.89
681;2027.06;575.701;2.89
682;1997.46;577.654;2.89
683;1982.5;589.618;2.89
684;1997.46;555.925;2.89
685;2014.55;573.748;2.89
686;2014.55;553.972;2.89
687;2004.78;599.384;2.89
688;1970.29;579.608;2.89
689;1930.62;561.785;2.89
690;1948.02;593.524;2.89
691;1977.62;575.701;2.89
692;1992.57;577.654;2.89
693;1999.9;561.785;2.89
694;1990.13;593.524;2.89
695;1967.85;577.654;2.9
696;1952.9;599.384;2.9
697;1992.57;550.066;2.9
698;2029.5;571.795;2.9
699;2046.9;589.618;2.9
700;2051.78;557.878;2.9
701;2031.94;575.701;2.9
702;1999.9;573.748;2.9
703;1984.94;587.42;2.9
704;2007.22;557.878;2.9
705;2017.29;571.795;2.9
706;2022.18;555.925;2.9
707;2007.22;605.243;2.9
708;1972.74;579.608;2.9
709;1935.81;565.935;2.9
710;1952.9;597.43;2.9
711;1984.94;575.701;2.9
712;1997.46;571.795;2.9
713;2002.34;565.935;2.91
714;1992.57;589.618;2.91
715;1970.29;577.654;2.91
716;1957.78;605.243;2.91
717;1997.46;569.842;2.91
718;2034.38;567.888;2.91
719;2051.78;599.384;2.91
720;2054.22;565.935;2.91
721;2034.38;575.701;2.91
722;2002.34;571.795;2.91
723;1987.38;589.618;2.91
724;2009.66;559.832;2.91
725;2019.73;573.748;2.91
726;2027.06;548.112;2.91
727;2009.66;593.524;2.91
728;1975.18;581.561;2.91
729;1938.25;557.878;2.91
730;1955.34;591.571;2.92
731;1987.38;579.608;2.92
732;1999.9;581.561;2.92
733;2007.22;561.785;2.92
734;1997.46;595.477;2.92
735;1972.74;579.608;2.92
736;1962.97;601.337;2.92
737;2004.78;561.785;2.92
738;2036.82;573.748;2.92
739;2054.22;591.571;2.92
740;2056.66;563.738;2.92
741;2034.38;573.748;2.92
742;2002.34;573.748;2.92
743;1990.13;593.524;2.92
744;2012.1;557.878;2.92
745;2024.62;571.795;2.92
746;2024.62;552.019;2.93
747;2009.66;599.384;2.93
748;1970.29;579.608;2.93
749;1938.25;561.785;2.93
750;1955.34;593.524;2.93
751;1987.38;577.654;2.93
752;2002.34;579.608;2.93
753;2007.22;559.832;2.93
754;1999.9;595.477;2.93
755;1972.74;575.701;2.93
756;1965.41;601.337;2.93
757;2007.22;550.066;2.93
758;2039.27;573.748;2.93
759;2054.22;591.571;2.93
760;2059.1;561.785;2.93
761;2036.82;575.701;2.93
762;2002.34;573.748;2.93
763;1992.57;587.42;2.94
764;2014.55;559.832;2.94
765;2022.18;571.795;2.94
766;2024.62;557.878;2.94
767;2009.66;605.243;2.94
768;1972.74;577.654;2.94
769;1940.69;563.738;2.94
770;1957.78;599.384;2.94
771;1992.57;575.701;2.94
772;2002.34;573.748;2.94
773;2012.1;565.935;2.94
774;1999.9;589.618;2.94
775;1972.74;579.608;2.94
776;1967.85;595.477;2.94
777;2009.66;567.888;2.94
778;2039.27;569.842;2.94
779;2059.1;595.477;2.94
780;2059.1;567.888;2.95
781;2034.38;571.795;2.95
782;1999.9;569.842;2.95
783;1995.01;591.571;2.95
784;2017.29;559.832;2.95
785;2024.62;571.795;2.95
786;2029.5;548.112;2.95
787;2012.1;591.571;2.95
788;1972.74;579.608;2.95
789;1940.69;553.972;2.95
790;1960.22;589.618;2.95
791;1992.57;577.654;2.95
792;2004.78;579.608;2.95
793;2009.66;559.832;2.95
794;1999.9;597.43;2.95
795;1972.74;577.654;2.95
796;1965.41;601.337;2.95
797;2012.1;557.878;2.96
798;2039.27;569.842;2.96
799;2059.1;593.524;2.96
800;2061.54;559.832;2.96
801;2036.82;573.748;2.96
802;2004.78;569.842;2.96
803;1992.57;587.42;2.96
804;2017.29;555.925;2.96
805;2027.06;573.748;2.96
806;2027.06;553.972;2.96
807;2007.22;599.384;2.96
808;1972.74;577.654;2.96
809;1940.69;561.785;2.96
810;1965.41;593.524;2.96
811;1992.57;577.654;2.96
812;2004.78;579.608;2.96
813;2009.66;563.738;2.96
814;1997.46;591.571;2.97
815;1975.18;577.654;2.97
816;1970.29;599.384;2.97
817;2014.55;550.066;2.97
818;2046.9;573.748;2.97
819;2061.54;589.618;2.97
820;2063.99;557.878;2.97
821;2036.82;573.748;2.97
822;2004.78;573.748;2.97
823;1997.46;587.42;2.97
824;2017.29;557.878;2.97
825;2024.62;569.842;2.97
826;2029.5;555.925;2.97
827;2009.66;605.243;2.97
828;1965.41;579.608;2.97
829;1935.81;565.935;2.97
830;1962.97;597.43;2.98
831;1990.13;573.748;2.98
832;2002.34;573.748;2.98
833;2009.66;565.935;2.98
834;1997.46;589.618;2.98
835;1972.74;579.608;2.98
836;1967.85;591.571;2.98
837;2019.73;548.112;2.98
838;2046.9;577.654;2.98
839;2063.99;591.571;2.98
840;2063.99;557.878;2.98
841;2039.27;575.701;2.98
842;2007.22;571.795;2.98
843;1999.9;585.467;2.98
844;2019.73;557.878;2.98
845;2027.06;571.795;2.98
846;2029.5;552.019;2.98
847;2007.22;603.29;2.99
848;1967.85;577.654;2.99
849;1935.81;561.785;2.99
850;1962.97;595.477;2.99
851;1990.13;577.654;2.99
852;2004.78;575.701;2.99
853;2007.22;563.738;2.99
854;1997.46;591.571;2.99
855;1972.74;577.654;2.99
856;1970.29;597.43;2.99
857;2017.29;548.112;2.99
858;2049.34;575.701;2.99
859;2063.99;587.42;2.99
860;2063.99;555.925;2.99
861;2036.82;577.654;2.99
862;2007.22;571.795;2.99
863;1999.9;585.467;3
864;2017.29;559.832;3
865;2027.06;567.888;3
866;2027.06;559.832;3
867;2004.78;601.337;3
868;1967.85;573.748;3
869;1938.25;567.888;3
870;1965.41;587.42;3
871;1990.13;579.608;3
872;2004.78;577.654;3
873;2007.22;561.785;3
874;1992.57;593.524;3
875;1970.29;577.654;3
876;1972.74;601.337;3
877;2022.18;565.935;3
878;2049.34;569.842;3
879;2061.54;589.618;3
880;2061.54;561.785;3.01
881;2036.82;573.748;3.01
882;2004.78;567.888;3.01
883;1999.9;589.618;3.01
884;2019.73;557.878;3.01
885;2024.62;573.748;3.01
886;2024.62;552.019;3.01
887;2004.78;597.43;3.01
888;1962.97;577.654;3.01
889;1935.81;557.878;3.01
890;1965.41;593.524;3.01
891;1992.57;577.654;3.01
892;2004.78;577.654;3.01
893;2007.22;561.785;3.01
894;1995.01;593.524;3.01
895;1972.74;575.701;3.02
896;1972.74;601.337;3.02
897;2022.18;552.019;3.02
898;2049.34;571.795;3.02
899;2063.99;591.571;3.02
900;2061.54;559.832;3.02
901;2036.82;575.701;3.02
902;2002.34;569.842;3.02
903;2002.34;585.467;3.02
904;2019.73;557.878;3.02
905;2027.06;573.748;3.02
906;2027.06;553.972;3.02
907;2004.78;603.29;3.02
908;1965.41;577.654;3.02
909;1938.25;563.738;3.02
910;1967.85;593.524;3.02
911;1995.01;573.748;3.02
912;2004.78;575.701;3.03
913;2009.66;563.738;3.03
914;1992.57;589.618;3.03
915;1967.85;577.654;3.03
916;1972.74;595.477;3.03
917;2022.18;546.159;3.03
918;2046.9;573.748;3.03
919;2063.99;583.514;3.03
920;2061.54;552.019;3.03
921;2034.38;573.748;3.03
922;1999.9;575.701;3.03
923;1999.9;581.561;3.03
924;2019.73;563.738;3.03
925;2024.62;567.888;3.03
926;2024.62;559.832;3.03
927;1999.9;601.337;3.03
928;1962.97;571.795;3.04
929;1938.25;567.888;3.04
930;1972.74;601.337;3.04
931;1995.01;573.748;3.04
932;2007.22;577.654;3.04
933;2009.66;559.832;3.04
934;1997.46;595.477;3.04
935;1970.29;571.795;3.04
936;1977.62;599.384;3.04
937;2024.62;561.785;3.04
938;2049.34;569.842;3.04
939;2063.99;589.618;3.04
940;2059.1;561.785;3.04
941;2027.06;571.795;3.04
942;1999.9;567.888;3.04
943;1997.46;589.618;3.04
944;2019.73;555.925;3.04
945;2024.62;571.795;3.05
946;2024.62;550.066;3.05
947;1999.9;593.524;3.05
948;1960.22;579.608;3.05
949;1938.25;559.832;3.05
950;1970.29;589.618;3.05
951;1995.01;575.701;3.05
952;2004.78;577.654;3.05
953;2007.22;561.785;3.05
954;1995.01;593.524;3.05
955;1967.85;573.748;3.05
956;1977.62;597.43;3.05
957;2027.06;552.019;3.05
958;2049.34;569.842;3.05
959;2063.99;587.42;3.05
960;2061.54;555.925;3.05
961;2031.94;573.748;3.06
962;1997.46;571.795;3.06
963;1999.9;585.467;3.06
964;2019.73;557.878;3.06
965;2024.62;571.795;3.06
966;2024.62;553.972;3.06
967;1999.9;601.337;3.06
968;1957.78;575.701;3.06
969;1938.25;559.832;3.06
970;1970.29;597.43;3.06
971;1995.01;573.748;3.06
972;2007.22;573.748;3.06
973;2012.1;563.738;3.06
974;1995.01;587.42;3.06
975;1970.29;577.654;3.06
976;1980.06;593.524;3.06
977;2027.06;546.159;3.06
978;2051.78;573.748;3.07
979;2063.99;583.514;3.07
980;2061.54;552.019;3.07
981;2029.5;575.701;3.07
982;1997.46;573.748;3.07
983;2002.34;585.467;3.07
984;2022.18;561.785;3.07
985;2024.62;565.935;3.07
986;2027.06;559.832;3.07
987;1999.9;601.337;3.07
988;1960.22;571.795;3.07
989;1938.25;565.935;3.07
990;1975.18;599.384;3.07
991;1997.46;573.748;3.07
992;2009.66;565.935;3.07
993;2014.55;565.935;3.07
994;1997.46;591.571;3.08
995;1980.06;573.748;3.08
996;1970.29;593.524;3.08
997;2012.1;548.112;3.08
998;2046.9;571.795;3.08
999;2061.54;583.514;3.08
1000;2066.43;555.925;3.08
1001;2044.45;573.748;3.08
1002;2009.66;571.795;3.08
1003;1995.01;585.467;3.08
1004;2017.29;559.832;3.08
1005;2027.06;567.888;3.08
1006;2027.06;553.972;3.08
1007;2012.1;603.29;3.08
1008;1977.62;573.748;3.08
1009;1943.13;563.738;3.08
1010;1960.22;597.43;3.09
1011;1992.57;573.748;3.09
1012;2007.22;567.888;3.09
1013;2012.1;563.738;3.09
1014;2004.78;587.42;3.09
1015;1980.06;579.608;3.09
1016;1970.29;591.571;3.09
1017;2012.1;550.066;3.09
1018;2049.34;577.654;3.09
1019;2066.43;585.467;3.09
1020;2068.87;553.972;3.09
1021;2046.9;573.748;3.09
1022;2012.1;579.608;3.09
1023;2002.34;583.514;3.09
1024;2022.18;561.785;3.09
1025;2029.5;569.842;3.09
1026;2029.5;550.066;3.09
1027;2014.55;591.571;3.1
1028;1977.62;579.608;3.1
1029;1940.69;557.878;3.1
1030;1957.78;589.618;3.1
1031;1992.57;575.701;3.1
1032;2004.78;579.608;3.1
1033;2012.1;561.785;3.1
1034;1999.9;593.524;3.1
1035;1977.62;573.748;3.1
1036;1967.85;599.384;3.1
1037;2014.55;553.972;3.1
1038;2049.34;569.842;3.1
1039;2066.43;591.571;3.1
1040;2071.62;557.878;3.1
1041;2046.9;573.748;3.1
1042;2014.55;567.888;3.1
1043;2002.34;583.514;3.1
1044;2024.62;557.878;3.11
1045;2029.5;571.795;3.11
1046;2031.94;552.019;3.11
1047;2014.55;601.337;3.11
1048;1975.18;577.654;3.11
1049;1940.69;559.832;3.11
1050;1962.97;593.524;3.11
1051;1995.01;573.748;3.11
1052;2007.22;573.748;3.11
1053;2009.66;561.785;3.11
1054;2002.34;589.618;3.11
1055;1977.62;577.654;3.11
1056;1970.29;595.477;3.11
1057;2019.73;548.112;3.11
1058;2046.9;571.795;3.11
1059;2066.43;585.467;3.11
1060;2066.43;555.925;3.11
1061;2044.45;573.748;3.12
1062;2009.66;571.795;3.12
1063;2002.34;583.514;3.12
1064;2024.62;559.832;3.12
1065;2031.94;567.888;3.12
1066;2029.5;555.925;3.12
1067;2017.29;601.337;3.12
1068;1977.62;569.842;3.12
1069;1943.13;565.935;3.12
1070;1967.85;599.384;3.12
1071;1999.9;571.795;3.12
1072;2014.55;567.888;3.12
1073;2019.73;565.935;3.12
1074;2007.22;585.467;3.12
1075;1982.5;579.608;3.12
1076;1975.18;589.618;3.12
1077;2022.18;548.112;3.12
1078;2051.78;579.608;3.13
1079;2066.43;579.608;3.13
1080;2066.43;553.972;3.13
1081;2041.71;573.748;3.13
1082;2007.22;581.561;3.13
1083;1999.9;581.561;3.13
1084;2022.18;561.785;3.13
1085;2027.06;563.738;3.13
1086;2034.38;559.832;3.13
1087;2014.55;593.524;3.13
1088;1980.06;577.654;3.13
1089;1948.02;557.878;3.13
1090;1975.18;589.618;3.13
1091;2004.78;573.748;3.13
1092;2017.29;575.701;3.13
1093;2019.73;559.832;3.13
1094;2009.66;595.477;3.13
1095;1982.5;571.795;3.14
1096;1977.62;597.43;3.14
1097;2022.18;552.019;3.14
1098;2051.78;567.888;3.14
1099;2061.54;585.467;3.14
1100;2063.99;557.878;3.14
1101;2036.82;573.748;3.14
1102;2002.34;567.888;3.14
1103;1997.46;585.467;3.14
1104;2022.18;553.972;3.14
1105;2029.5;569.842;3.14
1106;2031.94;553.972;3.14
1107;2014.55;599.384;3.14
1108;1975.18;575.701;3.14
1109;1948.02;561.785;3.14
1110;1977.62;591.571;3.14
1111;2004.78;571.795;3.14
1112;2017.29;571.795;3.14
1113;2022.18;561.785;3.15
1114;2009.66;589.618;3.15
1115;1982.5;573.748;3.15
1116;1980.06;595.477;3.15
1117;2024.62;544.206;3.15
1118;2051.78;571.795;3.15
1119;2068.87;583.514;3.15
1120;2063.99;552.019;3.15
1121;2039.27;571.795;3.15
1122;2004.78;575.701;3.15
1123;1999.9;583.514;3.15
1124;2022.18;555.925;3.15
1125;2031.94;567.888;3.15
1126;2031.94;555.925;3.15
1127;2014.55;601.337;3.15
1128;1975.18;571.795;3.15
1129;1948.02;565.935;3.15
1130;1977.62;597.43;3.15
1131;2004.78;575.701;3.16
1132;2019.73;567.888;3.16
1133;2022.18;563.738;3.16
1134;2009.66;583.514;3.16
1135;1982.5;577.654;3.16
1136;1980.06;589.618;3.16
1137;2022.18;548.112;3.16
1138;2054.22;577.654;3.16
1139;2066.43;579.608;3.16
1140;2063.99;553.972;3.16
1141;2039.27;575.701;3.16
1142;2004.78;577.654;3.16
1143;2002.34;581.561;3.16
1144;2024.62;559.832;3.16
1145;2034.38;561.785;3.16
1146;2031.94;559.832;3.16
1147;2014.55;595.477;3.16
1148;1975.18;565.935;3.16
1149;1950.46;563.738;3.17
1150;1980.06;595.477;3.17
1151;2004.78;571.795;3.17
1152;2014.55;569.842;3.17
1153;2022.18;563.738;3.17
1154;2007.22;587.42;3.17
1155;1980.06;575.701;3.17
1156;1980.06;593.524;3.17
1157;2027.06;546.159;3.17
1158;2051.78;573.748;3.17
1159;2066.43;581.561;3.17
1160;2063.99;552.019;3.17
1161;2034.38;571.795;3.17
1162;2002.34;575.701;3.17
1163;1999.9;583.514;3.17
1164;2024.62;561.785;3.17
1165;2034.38;563.738;3.17
1166;2031.94;559.832;3.17
1167;2012.1;597.43;3.18
1168;1975.18;567.888;3.18
1169;1950.46;565.935;3.18
1170;1980.06;595.477;3.18
1171;2007.22;571.795;3.18
1172;2014.55;561.785;3.18
1173;2022.18;565.935;3.18
1174;2009.66;583.514;3.18
1175;1977.62;583.514;3.18
1176;1982.5;587.42;3.18
1177;2027.06;550.066;3.18
1178;2054.22;579.608;3.18
1179;2068.87;577.654;3.18
1180;2063.99;557.878;3.18
1181;2034.38;571.795;3.18
1182;2002.34;565.935;3.18
1183;2002.34;583.514;3.18
1184;2024.62;552.019;3.19
1185;2031.94;571.795;3.19
1186;2034.38;546.159;3.19
1187;2012.1;597.43;3.19
1188;1972.74;577.654;3.19
1189;1950.46;557.878;3.19
1190;1982.5;591.571;3.19
1191;2004.78;571.795;3.19
1192;2019.73;573.748;3.19
1193;2022.18;559.832;3.19
1194;2007.22;589.618;3.19
1195;1980.06;571.795;3.19
1196;1984.94;593.524;3.19
1197;2029.5;548.112;3.19
1198;2054.22;569.842;3.19
1199;2066.43;583.514;3.19
1200;2061.54;553.972;3.19
1201;2034.38;571.795;3.2
1202;1999.9;569.842;3.2
1203;2002.34;583.514;3.2
1204;2024.62;555.925;3.2
1205;2031.94;569.842;3.2
1206;2029.5;553.972;3.2
1207;2009.66;599.384;3.2
1208;1970.29;571.795;3.2
1209;1948.02;559.832;3.2
1210;1984.94;593.524;3.2
1211;2004.78;571.795;3.2
1212;2019.73;567.888;3.2
1213;2019.73;563.738;3.2
1214;2004.78;585.467;3.2
1215;1980.06;575.701;3.2
1216;1984.94;589.618;3.2
1217;2029.5;544.206;3.2
1218;2054.22;575.701;3.21
1219;2068.87;579.608;3.21
1220;2063.99;550.066;3.21
1221;2034.38;573.748;3.21
1222;2002.34;577.654;3.21
1223;2004.78;583.514;3.21
1224;2027.06;561.785;3.21
1225;2031.94;561.785;3.21
1226;2029.5;557.878;3.21
1227;2009.66;597.43;3.21
1228;1967.85;567.888;3.21
1229;1948.02;567.888;3.21
1230;1980.06;593.524;3.21
1231;2007.22;569.842;3.21
1232;2017.29;561.785;3.21
1233;2019.73;567.888;3.21
1234;2002.34;583.514;3.21
1235;1977.62;581.561;3.22
1236;1984.94;583.514;3.22
1237;2031.94;550.066;3.22
1238;2056.66;581.561;3.22
1239;2068.87;575.701;3.22
1240;2066.43;555.925;3.22
1241;2031.94;571.795;3.22
1242;2002.34;569.842;3.22
1243;2004.78;585.467;3.22
1244;2027.06;552.019;3.22
1245;2031.94;569.842;3.22
1246;2031.94;548.112;3.22
1247;2009.66;599.384;3.22
1248;1970.29;573.748;3.22
1249;1950.46;557.878;3.22
1250;1984.94;589.618;3.22
1251;2009.66;571.795;3.22
1252;2019.73;573.748;3.23
1253;2022.18;559.832;3.23
1254;2004.78;591.571;3.23
1255;1977.62;571.795;3.23
1256;1987.38;593.524;3.23
1257;2031.94;548.112;3.23
1258;2056.66;569.842;3.23
1259;2068.87;583.514;3.23
1260;2061.54;552.019;3.23
1261;2031.94;571.795;3.23
1262;1999.9;571.795;3.23
1263;2007.22;581.561;3.23
1264;2027.06;555.925;3.23
1265;2031.94;565.935;3.23
1266;2031.94;553.972;3.23
1267;2009.66;601.337;3.23
1268;1967.85;571.795;3.23
1269;1952.9;561.785;3.23
1270;1987.38;595.477;3.24
1271;2009.66;569.842;3.24
1272;2019.73;569.842;3.24
1273;2022.18;561.785;3.24
1274;2002.34;585.467;3.24
1275;1977.62;577.654;3.24
1276;1987.38;589.618;3.24
1277;2034.38;546.159;3.24
1278;2056.66;575.701;3.24
1279;2068.87;579.608;3.24
1280;2061.54;552.019;3.24
1281;2031.94;571.795;3.24
1282;2002.34;579.608;3.24
1283;2007.22;577.654;3.24
1284;2029.5;557.878;3.24
1285;2034.38;561.785;3.24
1286;2031.94;557.878;3.24
1287;2007.22;597.43;3.25
1288;1965.41;567.888;3.25
1289;1950.46;567.888;3.25
1290;1987.38;593.524;3.25
1291;2009.66;571.795;3.25
1292;2019.73;559.832;3.25
1293;2019.73;563.738;3.25
1294;1999.9;581.561;3.25
1295;1972.74;581.561;3.25
1296;1987.38;583.514;3.25
1297;2029.5;550.066;3.25
1298;2049.34;579.608;3.25
1299;2063.99;573.748;3.25
1300;2056.66;555.925;3.25
1301;2022.18;569.842;3.25
1302;1992.57;581.561;3.25
1303;2002.34;579.608;3.25
1304;2022.18;555.925;3.26
1305;2029.5;565.935;3.26
1306;2027.06;555.925;3.26
1307;2002.34;595.477;3.26
1308;1965.41;567.888;3.26
1309;1952.9;565.935;3.26
1310;1987.38;595.477;3.26
1311;2009.66;569.842;3.26
1312;2022.18;561.785;3.26
1313;2019.73;563.738;3.26
1314;2004.78;583.514;3.26
1315;1980.06;579.608;3.26
1316;1990.13;587.42;3.26
1317;2031.94;546.159;3.26
1318;2054.22;577.654;3.26
1319;2066.43;579.608;3.26
1320;2054.22;553.972;3.26
1321;2022.18;571.795;3.27
1322;1992.57;583.514;3.27
1323;2004.78;579.608;3.27
1324;2027.06;561.785;3.27
1325;2031.94;557.878;3.27
1326;2029.5;563.738;3.27
1327;2004.78;591.571;3.27
1328;1965.41;561.785;3.27
1329;1955.34;569.842;3.27
1330;1992.57;587.42;3.27
1331;2012.1;569.842;3.27
1332;2024.62;557.878;3.27
1333;2024.62;557.878;3.27
1334;2007.22;589.618;3.27
1335;1977.62;571.795;3.27
1336;1992.57;593.524;3.27
1337;2036.82;548.112;3.27
1338;2054.22;567.888;3.28
1339;2066.43;585.467;3.28
1340;2054.22;553.972;3.28
1341;2024.62;571.795;3.28
1342;1992.57;571.795;3.28
1343;2004.78;581.561;3.28
1344;2024.62;552.019;3.28
1345;2031.94;567.888;3.28
1346;2027.06;552.019;3.28
1347;2002.34;601.337;3.28
1348;1962.97;573.748;3.28
1349;1955.34;559.832;3.28
1350;1992.57;593.524;3.28
1351;2009.66;571.795;3.28
1352;2024.62;571.795;3.28
1353;2019.73;561.785;3.28
1354;2002.34;585.467;3.28
1355;1977.62;573.748;3.29
1356;1995.01;591.571;3.29
1357;2036.82;546.159;3.29
1358;2056.66;569.842;3.29
1359;2063.99;577.654;3.29
1360;2054.22;548.112;3.29
1361;2024.62;571.795;3.29
1362;1995.01;573.748;3.29
1363;2004.78;581.561;3.29
1364;2024.62;557.878;3.29
1365;2029.5;561.785;3.29
1366;2029.5;557.878;3.29
1367;2007.22;597.43;3.29
1368;1970.29;567.888;3.29
1369;1950.46;563.738;3.29
1370;1984.94;593.524;3.29
1371;2009.66;569.842;3.29
1372;2022.18;557.878;3.3
1373;2022.18;563.738;3.3
1374;2007.22;581.561;3.3
1375;1980.06;579.608;3.3
1376;1984.94;583.514;3.3
1377;2031.94;548.112;3.3
1378;2054.22;577.654;3.3
1379;2063.99;575.701;3.3
1380;2059.1;555.925;3.3
1381;2029.5;571.795;3.3
1382;1999.9;579.608;3.3
1383;2002.34;579.608;3.3
1384;2024.62;559.832;3.3
1385;2029.5;557.878;3.3
1386;2029.5;561.785;3.3
1387;2007.22;591.571;3.3
1388;1970.29;559.832;3.3
1389;1950.46;571.795;3.31
1390;1987.38;587.42;3.31
1391;2009.66;569.842;3.31
1392;2024.62;557.878;3.31
1393;2024.62;565.935;3.31
1394;2004.78;579.608;3.31
1395;1977.62;569.842;3.31
1396;1984.94;591.571;3.31
1397;2029.5;548.112;3.31
1398;2051.78;569.842;3.31
1399;2061.54;583.514;3.31
1400;2054.22;552.019;3.31
1401;2024.62;571.795;3.31
1402;1992.57;569.842;3.31
1403;1999.9;581.561;3.31
1404;2019.73;552.019;3.31
1405;2027.06;567.888;3.31
1406;2029.5;552.019;3.32
1407;2004.78;601.337;3.32
1408;1965.41;573.748;3.32
1409;1948.02;559.832;3.32
1410;1987.38;593.524;3.32
1411;2009.66;569.842;3.32
1412;2019.73;567.888;3.32
1413;2022.18;559.832;3.32
1414;2004.78;585.467;3.32
1415;1975.18;573.748;3.32
1416;1984.94;591.571;3.32
1417;2031.94;544.206;3.32
1418;2046.9;571.795;3.32
1419;2061.54;579.608;3.32
1420;2054.22;548.112;3.32
1421;2022.18;569.842;3.32
1422;1992.57;573.748;3.32
1423;1999.9;579.608;3.33
1424;2019.73;557.878;3.33
1425;2029.5;565.935;3.33
1426;2027.06;555.925;3.33
1427;2004.78;595.477;3.33
1428;1965.41;565.935;3.33
1429;1950.46;565.935;3.33
1430;1984.94;593.524;3.33
1431;2009.66;569.842;3.33
1432;2017.29;559.832;3.33
1433;2019.73;563.738;3.33
1434;2002.34;581.561;3.33
1435;1975.18;579.608;3.33
1436;1987.38;583.514;3.33
1437;2031.94;552.019;3.33
1438;2049.34;579.608;3.33
1439;2061.54;573.748;3.33
1440;2051.78;553.972;3.34
1441;2022.18;569.842;3.34
1442;1990.13;581.561;3.34
1443;1999.9;577.654;3.34
1444;2019.73;559.832;3.34
1445;2027.06;555.925;3.34
1446;2024.62;561.785;3.34
1447;1999.9;591.571;3.34
1448;1965.41;561.785;3.34
1449;1950.46;569.842;3.34
1450;1984.94;587.42;3.34
1451;2009.66;571.795;3.34
1452;2017.29;555.925;3.34
1453;2019.73;565.935;3.34
1454;1999.9;577.654;3.34
1455;1977.62;585.467;3.34
1456;1987.38;581.561;3.34
1457;2029.5;546.159;3.34
1458;2051.78;577.654;3.35
1459;2059.1;577.654;3.35
1460;2049.34;552.019;3.35
1461;2019.73;571.795;3.35
1462;1990.13;579.608;3.35
1463;1997.46;577.654;3.35
1464;2022.18;561.785;3.35
1465;2024.62;559.832;3.35
1466;2024.62;559.832;3.35
1467;1997.46;593.524;3.35
1468;1962.97;563.738;3.35
1469;1950.46;567.888;3.35
1470;1987.38;589.618;3.35
1471;2007.22;571.795;3.35
1472;2019.73;555.925;3.35
1473;2017.29;565.935;3.35
1474;1999.9;575.701;3.35
1475;1975.18;583.514;3.36
1476;1984.94;581.561;3.36
1477;2031.94;552.019;3.36
1478;2049.34;581.561;3.36
1479;2059.1;571.795;3.36
1480;2049.34;557.878;3.36
1481;2017.29;569.842;3.36
1482;1987.38;581.561;3.36
1483;2002.34;575.701;3.36
1484;2019.73;561.785;3.36
1485;2027.06;553.972;3.36
1486;2024.62;563.738;3.36
1487;1997.46;587.42;3.36
1488;1957.78;571.795;3.36
1489;1952.9;559.832;3.36
1490;1990.13;593.524;3.36
1491;2007.22;571.795;3.36
1492;2017.29;569.842;3.37
1493;2017.29;557.878;3.37
1494;1999.9;587.42;3.37
1495;1972.74;571.795;3.37
1496;1987.38;591.571;3.37
1497;2031.94;544.206;3.37
1498;2051.78;569.842;3.37
1499;2056.66;579.608;3.37
1500;2049.34;550.066;3.37
1501;2017.29;569.842;3.37
1502;1987.38;569.842;3.37
1503;2002.34;581.561;3.37
1504;2019.73;555.925;3.37
1505;2024.62;563.738;3.37
1506;2022.18;552.019;3.37
1507;1995.01;597.43;3.37
1508;1955.34;567.888;3.37
1509;1948.02;561.785;3.37
1510;1987.38;595.477;3.38
1511;2007.22;569.842;3.38
1512;2014.55;561.785;3.38
1513;2014.55;561.785;3.38
1514;1992.57;581.561;3.38
1515;1970.29;575.701;3.38
1516;1987.38;585.467;3.38
1517;2029.5;546.159;3.38
1518;2046.9;575.701;3.38
1519;2059.1;573.748;3.38
1520;2044.45;553.972;3.38
1521;2012.1;567.888;3.38
1522;1987.38;579.608;3.38
1523;1999.9;577.654;3.38
1524;2017.29;559.832;3.38
1525;2024.62;559.832;3.38
1526;2022.18;561.785;3.38
1527;1995.01;595.477;3.39
1528;1955.34;559.832;3.39
1529;1950.46;567.888;3.39
1530;1987.38;583.514;3.39
1531;2007.22;569.842;3.39
1532;2019.73;555.925;3.39
1533;2014.55;563.738;3.39
1534;1992.57;575.701;3.39
1535;1970.29;585.467;3.39
1536;1990.13;581.561;3.39
1537;2031.94;552.019;3.39
1538;2049.34;579.608;3.39
1539;2056.66;571.795;3.39
1540;2046.9;559.832;3.39
1541;2012.1;571.795;3.39
1542;1984.94;583.514;3.39
1543;1997.46;573.748;3.39
1544;2014.55;561.785;3.4
1545;2022.18;552.019;3.4
1546;2017.29;563.738;3.4
1547;1990.13;583.514;3.4
1548;1952.9;555.925;3.4
1549;1948.02;569.842;3.4
1550;1984.94;591.571;3.4
1551;2002.34;571.795;3.4
1552;2014.55;567.888;3.4
1553;2009.66;559.832;3.4
1554;1999.9;585.467;3.4
1555;1972.74;573.748;3.4
1556;1972.74;589.618;3.4
1557;2017.29;542.009;3.4
1558;2044.45;567.888;3.4
1559;2056.66;579.608;3.4
1560;2056.66;550.066;3.4
1561;2027.06;569.842;3.4
1562;1997.46;567.888;3.41
1563;1995.01;581.561;3.41
1564;2017.29;555.925;3.41
1565;2022.18;561.785;3.41
1566;2022.18;553.972;3.41
1567;2004.78;597.43;3.41
1568;1965.41;565.935;3.41
1569;1940.69;561.785;3.41
1570;1967.85;593.524;3.41
1571;1995.01;569.842;3.41
1572;2004.78;561.785;3.41
1573;2012.1;559.832;3.41
1574;1995.01;579.608;3.41
1575;1967.85;577.654;3.41
1576;1975.18;585.467;3.41
1577;2017.29;546.159;3.41
1578;2046.9;575.701;3.41
1579;2056.66;577.654;3.41
1580;2051.78;552.019;3.42
1581;2024.62;571.795;3.42
1582;1992.57;579.608;3.42
1583;1992.57;577.654;3.42
1584;2014.55;559.832;3.42
1585;2019.73;555.925;3.42
1586;2019.73;559.832;3.42
1587;1999.9;595.477;3.42
1588;1962.97;561.785;3.42
1589;1938.25;567.888;3.42
1590;1970.29;589.618;3.42
1591;1997.46;567.888;3.42
1592;2004.78;553.972;3.42
1593;2009.66;563.738;3.42
1594;1995.01;575.701;3.42
1595;1970.29;585.467;3.42
1596;1970.29;579.608;3.42
1597;2017.29;552.019;3.43
1598;2041.71;581.561;3.43
1599;2054.22;571.795;3.43
1600;2051.78;557.878;3.43
1601;2022.18;569.842;3.43
1602;1992.57;577.654;3.43
1603;1992.57;573.748;3.43
1604;2014.55;563.738;3.43
1605;2022.18;550.066;3.43
1606;2019.73;565.935;3.43
1607;1997.46;585.467;3.43
1608;1962.97;555.925;3.43
1609;1935.81;571.795;3.43
1610;1972.74;579.608;3.43
1611;1995.01;569.842;3.43
1612;2007.22;557.878;3.43
1613;2007.22;563.738;3.43
1614;1995.01;575.701;3.43
1615;1967.85;577.654;3.44
1616;1972.74;581.561;3.44
1617;2019.73;546.159;3.44
1618;2041.71;577.654;3.44
1619;2051.78;573.748;3.44
1620;2051.78;555.925;3.44
1621;2022.18;569.842;3.44
1622;1987.38;579.608;3.44
1623;1990.13;575.701;3.44
1624;2009.66;561.785;3.44
1625;2014.55;552.019;3.44
1626;2017.29;563.738;3.44
1627;1992.57;589.618;3.44
1628;1955.34;557.878;3.44
1629;1930.62;569.842;3.44
1630;1970.29;583.514;3.44
1631;1995.01;571.795;3.44
1632;2002.34;553.972;3.44
1633;2009.66;567.888;3.45
1634;1992.57;575.701;3.45
1635;1967.85;587.42;3.45
1636;1975.18;575.701;3.45
1637;2017.29;553.972;3.45
1638;2044.45;585.467;3.45
1639;2054.22;567.888;3.45
1640;2049.34;561.785;3.45
1641;2017.29;567.888;3.45
1642;1987.38;581.561;3.45
1643;1987.38;579.608;3.45
1644;2009.66;553.972;3.45
1645;2014.55;565.935;3.45
1646;2014.55;552.019;3.45
1647;1987.38;595.477;3.45
1648;1950.46;569.842;3.45
1649;1928.18;559.832;3.45
1650;1965.41;591.571;3.45
1651;1990.13;567.888;3.46
1652;1999.9;563.738;3.46
1653;2004.78;557.878;3.46
1654;1987.38;581.561;3.46
1655;1962.97;573.748;3.46
1656;1972.74;587.42;3.46
1657;2017.29;542.009;3.46
1658;2039.27;571.795;3.46
1659;2051.78;577.654;3.46
1660;2044.45;548.112;3.46
1661;2014.55;565.935;3.46
1662;1982.5;573.748;3.46
1663;1984.94;577.654;3.46
1664;2007.22;557.878;3.46
1665;2009.66;557.878;3.46
1666;2007.22;557.878;3.46
1667;1984.94;593.524;3.46
1668;1945.57;561.785;3.46
1669;1930.62;565.935;3.47
1670;1965.41;587.42;3.47
1671;1987.38;569.842;3.47
1672;1999.9;555.925;3.47
1673;2002.34;563.738;3.47
1674;1984.94;577.654;3.47
1675;1960.22;579.608;3.47
1676;1970.29;579.608;3.47
1677;2017.29;550.066;3.47
1678;2039.27;577.654;3.47
1679;2049.34;573.748;3.47
1680;2044.45;553.972;3.47
1681;2012.1;567.888;3.47
1682;1982.5;579.608;3.47
1683;1984.94;575.701;3.47
1684;2004.78;559.832;3.47
1685;2007.22;552.019;3.47
1686;2004.78;561.785;3.47
1687;1982.5;587.42;3.47
1688;1943.13;555.925;3.48
1689;1925.74;569.842;3.48
1690;1965.41;581.561;3.48
1691;1987.38;567.888;3.48
1692;1997.46;553.972;3.48
1693;1997.46;563.738;3.48
1694;1984.94;573.748;3.48
1695;1955.34;587.42;3.48
1696;1970.29;573.748;3.48
1697;2014.55;553.972;3.48
1698;2036.82;583.514;3.48
1699;2046.9;565.935;3.48
1700;2039.27;559.832;3.48
1701;2007.22;565.935;3.48
1702;1977.62;579.608;3.48
1703;1982.5;573.748;3.48
1704;1999.9;561.785;3.48
1705;2004.78;561.785;3.48
1706;2002.34;550.066;3.49
1707;1975.18;599.384;3.49
1708;1938.25;567.888;3.49
1709;1923.3;559.832;3.49
1710;1957.78;593.524;3.49
1711;1982.5;565.935;3.49
1712;1992.57;561.785;3.49
1713;1995.01;557.878;3.49
1714;1977.62;579.608;3.49
1715;1952.9;571.795;3.49
1716;1967.85;585.467;3.49
1717;2009.66;542.009;3.49
1718;2031.94;573.748;3.49
1719;2044.45;575.701;3.49
1720;2031.94;550.066;3.49
1721;2002.34;567.888;3.49
1722;1972.74;575.701;3.49
1723;1980.06;575.701;3.49
1724;1999.9;557.878;3.49
1725;2002.34;555.925;3.5
1726;1995.01;555.925;3.5
1727;1972.74;589.618;3.5
1728;1933.06;559.832;3.5
1729;1920.85;565.935;3.5
1730;1957.78;587.42;3.5
1731;1980.06;567.888;3.5
1732;1990.13;557.878;3.5
1733;1990.13;561.785;3.5
1734;1975.18;575.701;3.5
1735;1950.46;581.561;3.5
1736;1965.41;579.608;3.5
1737;2007.22;548.112;3.5
1738;2029.5;579.608;3.5
1739;2039.27;569.842;3.5
1740;2029.5;553.972;3.5
1741;1997.46;567.888;3.5
1742;1970.29;575.701;3.5
1743;1977.62;573.748;3.51
1744;1992.57;559.832;3.51
1745;1997.46;552.019;3.51
1746;1992.57;561.785;3.51
1747;1967.85;585.467;3.51
1748;1925.74;552.019;3.51
1749;1918.41;567.888;3.51
1750;1955.34;581.561;3.51
1751;1977.62;567.888;3.51
1752;1987.38;553.972;3.51
1753;1987.38;565.935;3.51
1754;1970.29;571.795;3.51
1755;1943.13;587.42;3.51
1756;1962.97;573.748;3.51
1757;2007.22;555.925;3.51
1758;2024.62;581.561;3.51
1759;2034.38;565.935;3.51
1760;2027.06;561.785;3.51
1761;1992.57;567.888;3.52
1762;1967.85;579.608;3.52
1763;1975.18;569.842;3.52
1764;1987.38;561.785;3.52
1765;1992.57;548.112;3.52
1766;1987.38;571.795;3.52
1767;1962.97;587.42;3.52
1768;1923.3;557.878;3.52
1769;1913.53;565.935;3.52
1770;1952.9;581.561;3.52
1771;1972.74;567.888;3.52
1772;1982.5;553.972;3.52
1773;1982.5;561.785;3.52
1774;1962.97;573.748;3.52
1775;1940.69;583.514;3.52
1776;1962.97;575.701;3.52
1777;2004.78;552.019;3.52
1778;2024.62;579.608;3.52
1779;2034.38;567.888;3.52
