<WeldAnalyseData xmlns:i="http:www.w3.org/2001/XMLSchema-instance">
<WeldParameter>
<TimeStamp>DT#2023-12-05-14:52:25</TimeStamp>
<Generator>SG-22-10000</Generator>
<GenFreq>20</GenFreq>
<MaxForce>8000</MaxForce>
<MaxPower>10000</MaxPower>
<RunupPressure>1.5</RunupPressure>
<RunupDist>10</RunupDist>
<RunPress>0.8</RunPress>
<ShakeDelay>0.03</ShakeDelay>
<ShakeTime>0.3</ShakeTime>
<RunBackPress1>6</RunBackPress1>
<RunBackPress2>2</RunBackPress2>
<RunBackDist>1</RunBackDist>
<TrigValue>500</TrigValue>
<TrigModeUnit>W</TrigModeUnit>
<WeldModeUnit>Ws</WeldModeUnit>
<PressNr>0</PressNr>
<MaxLoss>1500</MaxLoss>
</WeldParameter>
<WeldSets>
<WeldSet>
<PressRiseTime>0</PressRiseTime>
<RunPressure>1</RunPressure>
<Amplitude>86</Amplitude>
<WeldMode>3270</WeldMode>
</WeldSet>
</WeldSets>
<WeldValue>
<WeldNr>2423</WeldNr>
<RecipeName>RickStyle</RecipeName>
<WeldTime>1856</WeldTime>
<DistDiff>3.66</DistDiff>
<DistAbs>78.36</DistAbs>
<Energy>3270.4</Energy>
<MaxPower>2071.63</MaxPower>
<CycleTime>6200</CycleTime>
<TrigForce>504.654</TrigForce>
<TrigDist>74.7</TrigDist>
<RunSpeed>67.6018</RunSpeed>
<MaxForce>601.337</MaxForce>
<LossPower>249.298</LossPower>
</WeldValue>
</WeldAnalyseData>
#CSV-START#
ms;Power[W];Force[N];Distance[mm]
1;0;0;0
2;0;504.654;0
3;0;502.701;0
4;0;504.654;0
5;0;504.654;0
6;0;502.701;0
7;0;506.607;0
8;0;494.644;0
9;0;482.925;0.0100021
10;0.038147;469.008;0.0200043
11;14.687;453.383;0.0300064
12;14.687;451.186;0.0400009
13;29.6411;443.373;0.0600052
14;51.9196;439.467;0.0699997
15;76.3344;429.456;0.0800018
16;101.054;433.607;0.100006
17;123.333;427.503;0.110001
18;143.17;437.513;0.130005
19;170.331;411.878;0.139999
20;192.61;421.644;0.150002
21;212.142;429.456;0.170006
22;231.979;411.878;0.18
23;246.933;421.644;0.200005
24;261.582;421.644;0.210007
25;271.653;429.456;0.220001
26;286.302;419.691;0.230003
27;298.814;421.644;0.240005
28;308.58;413.831;0.25
29;315.905;443.373;0.270004
30;315.905;431.654;0.280006
31;318.346;425.55;0.290001
32;323.534;447.279;0.300003
33;330.859;435.56;0.310005
34;333.3;433.607;0.32
35;335.742;429.456;0.330002
36;335.742;441.42;0.340004
37;335.742;439.467;0.350006
38;338.183;453.383;0.360001
39;347.949;423.597;0.370003
40;355.579;439.467;0.380005
41;355.579;449.232;0.389999
42;355.579;431.654;0.400002
43;350.696;443.373;0.410004
44;347.949;441.42;0.420006
45;343.066;453.383;0.43
46;340.625;447.279;0.43
47;345.508;447.279;0.440002
48;345.508;435.56;0.450005
49;340.625;461.196;0.460007
50;335.742;453.383;0.470001
51;328.417;443.373;0.480003
52;333.3;457.289;0.480003
53;333.3;453.383;0.490005
54;338.183;453.383;0.5
55;338.183;449.232;0.510002
56;340.625;461.196;0.520004
57;343.066;457.289;0.530006
58;343.066;469.008;0.540001
59;360.462;455.336;0.540001
60;367.786;459.243;0.550003
61;372.669;467.055;0.560005
62;375.111;453.383;0.57
63;375.111;461.196;0.580002
64;372.669;461.196;0.580002
65;372.669;467.055;0.590004
66;377.857;455.336;0.600006
67;380.299;461.196;0.610001
68;380.299;451.186;0.620003
69;382.74;475.112;0.620003
70;380.299;467.055;0.630005
71;372.669;457.289;0.639999
72;377.857;475.112;0.650002
73;387.623;465.102;0.660004
74;390.065;465.102;0.670006
75;394.948;463.149;0.670006
76;397.389;475.112;0.68
77;402.272;470.962;0.690002
78;405.019;480.972;0.700005
79;417.226;457.289;0.710007
80;424.551;472.915;0.710007
81;429.434;482.925;0.720001
82;431.875;461.196;0.730003
83;434.622;470.962;0.740005
84;426.992;470.962;0.740005
85;429.434;479.019;0.75
86;431.875;469.008;0.760002
87;434.622;472.915;0.770004
88;434.622;461.196;0.770004
89;434.622;488.784;0.780006
90;431.875;477.065;0.790001
91;426.992;469.008;0.800003
92;434.622;490.738;0.810005
93;441.946;477.065;0.810005
94;449.271;479.019;0.82
95;451.712;470.962;0.830002
96;454.154;482.925;0.840004
97;456.595;480.972;0.850006
98;459.036;494.644;0.850006
99;471.549;465.102;0.860001
100;481.315;479.019;0.870003
101;488.945;488.784;0.880005
102;493.828;463.149;0.880005
103;491.386;477.065;0.889999
104;488.945;477.065;0.900002
105;491.386;486.831;0.910004
106;493.828;472.915;0.920006
107;498.711;479.019;0.93
108;501.152;467.055;0.93
109;506.035;492.691;0.940002
110;498.711;482.925;0.950005
111;496.269;469.008;0.960007
112;501.152;484.878;0.970001
113;510.918;482.925;0.980003
114;510.918;479.019;0.980003
115;513.359;472.915;0.990005
116;513.359;488.784;1
117;513.359;480.972;1.01
118;516.106;492.691;1.01
119;528.314;479.019;1.02
120;540.521;479.019;1.03001
121;543.268;490.738;1.04
122;543.268;472.915;1.05
123;543.268;477.065;1.06001
124;538.079;479.019;1.07
125;535.638;484.878;1.07
126;540.521;470.962;1.08
127;545.709;477.065;1.09
128;550.592;463.149;1.10001
129;550.592;488.784;1.11
130;545.709;480.972;1.12
131;540.521;467.055;1.13
132;550.592;482.925;1.14
133;560.358;477.065;1.15
134;565.241;477.065;1.16
135;567.682;467.055;1.17001
136;570.429;484.878;1.18
137;570.429;479.019;1.19
138;577.753;490.738;1.2
139;597.591;463.149;1.21001
140;609.798;470.962;1.22
141;617.122;486.831;1.23
142;622.005;463.149;1.24001
143;619.564;472.915;1.25
144;617.122;470.962;1.26
145;612.239;479.019;1.27
146;619.564;463.149;1.28001
147;627.193;470.962;1.29
148;629.635;457.289;1.31001
149;629.635;486.831;1.32
150;627.193;475.112;1.33
151;624.752;461.196;1.34
152;634.518;480.972;1.35001
153;649.167;469.008;1.36
154;656.796;472.915;1.37
155;666.562;461.196;1.39
156;671.445;477.065;1.4
157;669.004;469.008;1.41
158;673.887;482.925;1.42001
159;696.165;449.232;1.43
160;711.119;465.102;1.45
161;723.327;475.112;1.46001
162;728.21;451.186;1.47
163;728.21;463.149;1.49001
164;723.327;459.243;1.5
165;723.327;470.962;1.51
166;735.839;453.383;1.52
167;740.722;459.243;1.54
168;750.488;445.326;1.55
169;750.488;479.019;1.56001
170;743.164;461.196;1.57
171;738.281;451.186;1.58
172;752.93;477.065;1.59
173;767.884;461.196;1.61
174;772.767;463.149;1.62
175;780.091;453.383;1.63
176;780.091;472.915;1.64
177;782.533;465.102;1.65
178;787.721;479.019;1.66
179;812.136;449.232;1.67001
180;829.531;461.196;1.68
181;842.044;479.019;1.69
182;851.81;449.232;1.7
183;851.81;461.196;1.71001
184;846.927;461.196;1.72
185;849.368;470.962;1.73
186;859.134;453.383;1.74001
187;876.53;461.196;1.75
188;883.854;449.232;1.76
189;886.296;484.878;1.77
190;881.413;469.008;1.78001
191;878.971;455.336;1.79
192;896.367;484.878;1.8
193;918.34;469.008;1.81001
194;933.294;470.962;1.82
195;940.619;463.149;1.83
196;950.69;480.972;1.83
197;950.69;472.915;1.84
198;958.014;490.738;1.85001
199;987.617;457.289;1.86
200;1009.9;472.915;1.87
201;1024.54;486.831;1.87
202;1034.62;459.243;1.88
203;1034.62;479.019;1.89
204;1026.99;477.065;1.9
205;1032.17;486.831;1.9
206;1046.82;472.915;1.91
207;1056.59;479.019;1.92001
208;1064.22;465.102;1.93
209;1066.66;486.831;1.93
210;1054.15;488.784;1.94
211;1044.38;470.962;1.95
212;1066.66;492.691;1.95
213;1086.5;490.738;1.96001
214;1098.7;488.784;1.97
215;1110.91;477.065;1.97
216;1120.98;502.701;1.98
217;1120.98;494.644;1.99001
218;1130.75;510.514;1.99001
219;1150.59;486.831;2
220;1177.75;488.784;2
221;1194.84;508.56;2.01
222;1209.79;484.878;2.02
223;1214.67;492.691;2.02
224;1202.47;490.738;2.03001
225;1200.03;504.654;2.03001
226;1214.67;482.925;2.04
227;1229.63;494.644;2.05
228;1239.39;477.065;2.05
229;1241.84;510.514;2.06001
230;1232.07;502.701;2.06001
231;1214.67;484.878;2.07
232;1224.75;512.467;2.08
233;1256.79;502.701;2.08
234;1269;504.654;2.09
235;1281.51;490.738;2.09
236;1291.28;518.326;2.10001
237;1286.39;504.654;2.10001
238;1288.83;524.43;2.11
239;1313.55;488.784;2.12
240;1343.16;502.701;2.12
241;1357.81;520.524;2.13
242;1372.76;492.691;2.13
243;1370.32;506.607;2.14
244;1355.37;500.748;2.14
245;1350.48;518.326;2.15
246;1367.88;494.644;2.15
247;1377.64;510.514;2.16
248;1384.97;490.738;2.16
249;1384.97;530.29;2.17001
250;1367.88;514.42;2.18
251;1350.48;498.795;2.18
252;1357.81;530.29;2.19
253;1384.97;512.467;2.19
254;1397.48;514.42;2.19
255;1409.69;500.748;2.2
256;1414.88;528.336;2.2
257;1407.25;512.467;2.21001
258;1402.36;532.243;2.21001
259;1429.53;494.644;2.22
260;1459.13;514.42;2.22
261;1474.08;526.383;2.23
262;1483.85;498.795;2.23
263;1478.97;516.373;2.24001
264;1461.57;514.42;2.24001
265;1451.8;528.336;2.24001
266;1466.45;512.467;2.25
267;1476.52;514.42;2.25
268;1481.41;496.597;2.26
269;1481.41;524.43;2.26
270;1464.01;524.43;2.26
271;1439.29;502.701;2.27
272;1446.92;528.336;2.27
273;1474.08;524.43;2.28001
274;1486.29;522.477;2.28001
275;1498.8;508.56;2.29
276;1503.69;534.196;2.29
277;1488.73;524.43;2.29
278;1481.41;544.206;2.3
279;1513.45;520.524;2.3
280;1538.17;516.373;2.31001
281;1553.13;542.009;2.31001
282;1560.45;514.42;2.31001
283;1553.13;520.524;2.32
284;1535.73;522.477;2.32
285;1523.52;534.196;2.32
286;1538.17;512.467;2.33
287;1547.94;524.43;2.33
288;1555.57;502.701;2.34
289;1553.13;536.149;2.34
290;1530.85;530.29;2.34
291;1511.01;514.42;2.35001
292;1518.33;540.056;2.35001
293;1550.68;530.29;2.35001
294;1562.89;530.29;2.36
295;1572.66;518.326;2.36
296;1572.66;544.206;2.36
297;1562.89;530.29;2.37
298;1555.57;553.972;2.37
299;1585.17;520.524;2.37
300;1614.77;526.383;2.38
301;1632.17;548.112;2.38
302;1641.93;520.524;2.39
303;1632.17;532.243;2.39
304;1607.45;524.43;2.39
305;1597.38;542.009;2.39
306;1617.21;518.326;2.4
307;1624.54;528.336;2.4
308;1629.42;510.514;2.4
309;1624.54;553.972;2.41
310;1602.26;534.196;2.41
311;1575.1;520.524;2.41
312;1585.17;550.066;2.42001
313;1614.77;534.196;2.42001
314;1626.98;538.102;2.42001
315;1637.05;522.477;2.43
316;1637.05;550.066;2.43
317;1622.1;536.149;2.43
318;1617.21;555.925;2.43
319;1646.82;514.42;2.44
320;1671.54;532.243;2.44
321;1688.93;548.112;2.44
322;1696.26;522.477;2.45
323;1686.49;536.149;2.45
324;1664.21;534.196;2.45
325;1649.26;548.112;2.45
326;1664.21;524.43;2.46001
327;1673.98;532.243;2.46001
328;1678.86;512.467;2.46001
329;1673.98;552.019;2.46001
330;1649.26;542.009;2.47
331;1619.66;520.524;2.47
332;1632.17;553.972;2.47
333;1659.33;542.009;2.48
334;1669.1;544.206;2.48
335;1676.42;528.336;2.48
336;1673.98;555.925;2.48
337;1659.33;542.009;2.49001
338;1651.7;567.888;2.49001
339;1681.3;526.383;2.49001
340;1710.91;538.102;2.49001
341;1725.86;557.878;2.5
342;1733.18;526.383;2.5
343;1720.98;542.009;2.5
344;1693.82;536.149;2.5
345;1678.86;553.972;2.51
346;1698.7;524.43;2.51
347;1703.58;542.009;2.51
348;1708.46;522.477;2.51
349;1701.14;567.888;2.51
350;1673.98;546.159;2.52
351;1646.82;530.29;2.52
352;1656.58;559.832;2.52
353;1683.74;544.206;2.52
354;1696.26;548.112;2.53001
355;1701.14;534.196;2.53001
356;1698.7;561.785;2.53001
357;1686.49;546.159;2.53001
358;1673.98;569.842;2.53001
359;1706.02;546.159;2.54
360;1733.18;536.149;2.54
361;1748.14;563.738;2.54
362;1755.46;540.056;2.54
363;1740.81;542.009;2.55
364;1710.91;544.206;2.55
365;1698.7;557.878;2.55
366;1718.54;542.009;2.55
367;1728.3;546.159;2.55
368;1733.18;524.43;2.56001
369;1725.86;555.925;2.56001
370;1696.26;557.878;2.56001
371;1669.1;532.243;2.56001
372;1681.3;555.925;2.56001
373;1708.46;553.972;2.56001
374;1720.98;550.066;2.57
375;1730.74;538.102;2.57
376;1725.86;559.832;2.57
377;1713.65;552.019;2.57
378;1701.14;573.748;2.57
379;1733.18;546.159;2.58
380;1762.79;546.159;2.58
381;1780.18;569.842;2.58
382;1787.51;542.009;2.58
383;1770.42;546.159;2.58
384;1745.7;546.159;2.59
385;1730.74;563.738;2.59
386;1748.14;538.102;2.59
387;1760.35;552.019;2.59
388;1762.79;528.336;2.59
389;1755.46;565.935;2.59
390;1725.86;559.832;2.60001
391;1698.7;536.149;2.60001
392;1710.91;567.888;2.60001
393;1740.81;555.925;2.60001
394;1753.02;559.832;2.60001
395;1762.79;540.056;2.60001
396;1760.35;573.748;2.61
397;1740.81;555.925;2.61
398;1730.74;583.514;2.61
399;1765.23;544.206;2.61
400;1794.83;552.019;2.61
401;1807.34;571.795;2.61
402;1817.11;542.009;2.62
403;1802.46;553.972;2.62
404;1772.86;552.019;2.62
405;1757.9;567.888;2.62
406;1775.3;540.056;2.62
407;1785.07;555.925;2.62
408;1789.95;534.196;2.63
409;1780.18;579.608;2.63
410;1750.58;561.785;2.63
411;1720.98;544.206;2.63
412;1730.74;573.748;2.63
413;1765.23;557.878;2.63
414;1775.3;561.785;2.64
415;1785.07;546.159;2.64
416;1777.74;575.701;2.64
417;1760.35;559.832;2.64
418;1750.58;581.561;2.64
419;1785.07;559.832;2.64
420;1814.67;550.066;2.65
421;1829.62;577.654;2.65
422;1834.51;552.019;2.65
423;1817.11;553.972;2.65
424;1787.51;557.878;2.65
425;1775.3;571.795;2.65
426;1794.83;559.832;2.66
427;1804.9;555.925;2.66
428;1807.34;536.149;2.66
429;1797.58;561.785;2.66
430;1767.98;569.842;2.66
431;1738.07;544.206;2.66
432;1748.14;567.888;2.67001
433;1782.62;565.935;2.67001
434;1789.95;561.785;2.67001
435;1800.02;548.112;2.67001
436;1794.83;569.842;2.67001
437;1775.3;563.738;2.67001
438;1765.23;585.467;2.67001
439;1804.9;557.878;2.68
440;1829.62;553.972;2.68
441;1844.27;579.608;2.68
442;1849.15;550.066;2.68
443;1834.51;559.832;2.68
444;1804.9;557.878;2.68
445;1792.39;573.748;2.68
446;1812.23;552.019;2.69
447;1824.74;559.832;2.69
448;1824.74;538.102;2.69
449;1817.11;573.748;2.69
450;1787.51;567.888;2.69
451;1755.46;546.159;2.69
452;1772.86;575.701;2.7
453;1802.46;565.935;2.7
454;1812.23;563.738;2.7
455;1819.55;550.066;2.7
456;1814.67;581.561;2.7
457;1794.83;565.935;2.7
458;1785.07;589.618;2.7
459;1819.55;555.925;2.7
460;1844.27;557.878;2.71001
461;1859.23;579.608;2.71001
462;1864.11;552.019;2.71001
463;1844.27;559.832;2.71001
464;1817.11;559.832;2.71001
465;1802.46;575.701;2.71001
466;1829.62;546.159;2.71001
467;1836.95;563.738;2.72
468;1839.39;540.056;2.72
469;1829.62;583.514;2.72
470;1800.02;567.888;2.72
471;1770.42;548.112;2.72
472;1787.51;581.561;2.72
473;1814.67;565.935;2.72
474;1827.18;567.888;2.72
475;1834.51;552.019;2.73
476;1829.62;583.514;2.73
477;1809.79;567.888;2.73
478;1797.58;593.524;2.73
479;1834.51;548.112;2.73
480;1861.67;557.878;2.73
481;1879.06;583.514;2.73
482;1881.5;555.925;2.73
483;1859.23;561.785;2.74001
484;1832.06;561.785;2.74001
485;1819.55;577.654;2.74001
486;1839.39;550.066;2.74001
487;1849.15;561.785;2.74001
488;1856.78;542.009;2.74001
489;1844.27;575.701;2.74001
490;1814.67;571.795;2.74001
491;1782.62;548.112;2.75
492;1800.02;577.654;2.75
493;1827.18;565.935;2.75
494;1841.83;569.842;2.75
495;1849.15;552.019;2.75
496;1839.39;589.618;2.75
497;1819.55;569.842;2.75
498;1809.79;589.618;2.75
499;1849.15;555.925;2.75
500;1873.87;561.785;2.76
501;1888.83;583.514;2.76
502;1893.71;553.972;2.76
503;1873.87;565.935;2.76
504;1841.83;561.785;2.76
505;1832.06;581.561;2.76
506;1851.9;548.112;2.76
507;1864.11;563.738;2.76
508;1866.55;542.009;2.77
509;1856.78;587.42;2.77
510;1824.74;569.842;2.77
511;1794.83;552.019;2.77
512;1812.23;573.748;2.77
513;1841.83;573.748;2.77
514;1854.34;567.888;2.77
515;1864.11;553.972;2.77
516;1854.34;565.935;2.77
517;1832.06;571.795;2.78001
518;1824.74;587.42;2.78001
519;1859.23;569.842;2.78001
520;1888.83;557.878;2.78001
521;1903.48;583.514;2.78001
522;1906.22;561.785;2.78001
523;1886.39;561.785;2.78001
524;1856.78;563.738;2.78001
525;1844.27;577.654;2.79
526;1864.11;569.842;2.79
527;1873.87;563.738;2.79
528;1879.06;544.206;2.79
529;1866.55;571.795;2.79
530;1834.51;577.654;2.79
531;1804.9;548.112;2.79
532;1824.74;577.654;2.79
533;1851.9;571.795;2.79
534;1864.11;567.888;2.8
535;1871.43;553.972;2.8
536;1864.11;579.608;2.8
537;1844.27;569.842;2.8
538;1829.62;593.524;2.8
539;1871.43;563.738;2.8
540;1898.59;559.832;2.8
541;1911.11;587.42;2.8
542;1915.99;555.925;2.8
543;1896.15;565.935;2.81001
544;1864.11;565.935;2.81001
545;1854.34;581.561;2.81001
546;1873.87;557.878;2.81001
547;1883.95;565.935;2.81001
548;1888.83;544.206;2.81001
549;1873.87;579.608;2.81001
550;1841.83;573.748;2.81001
551;1812.23;548.112;2.81001
552;1832.06;581.561;2.82
553;1864.11;571.795;2.82
554;1873.87;573.748;2.82
555;1883.95;553.972;2.82
556;1876.32;587.42;2.82
557;1854.34;569.842;2.82
558;1844.27;593.524;2.82
559;1881.5;559.832;2.82
560;1908.67;563.738;2.82
561;1923.31;583.514;2.83
562;1925.76;555.925;2.83
563;1903.48;567.888;2.83
564;1871.43;565.935;2.83
565;1864.11;583.514;2.83
566;1886.39;550.066;2.83
567;1893.71;565.935;2.83
568;1901.04;546.159;2.83
569;1886.39;585.467;2.83
570;1851.9;573.748;2.83
571;1821.99;552.019;2.84
572;1844.27;583.514;2.84
573;1873.87;579.608;2.84
574;1883.95;569.842;2.84
575;1893.71;557.878;2.84
576;1891.27;565.935;2.84
577;1873.87;571.795;2.84
578;1851.9;589.618;2.84
579;1873.87;573.748;2.84
580;1911.11;559.832;2.85001
581;1928.2;581.561;2.85001
582;1935.83;565.935;2.85001
583;1925.76;563.738;2.85001
584;1893.71;569.842;2.85001
585;1871.43;581.561;2.85001
586;1888.83;573.748;2.85001
587;1903.48;563.738;2.85001
588;1908.67;548.112;2.85001
589;1906.22;571.795;2.86
590;1876.32;579.608;2.86
591;1841.83;552.019;2.86
592;1839.39;577.654;2.86
593;1873.87;575.701;2.86
594;1891.27;569.842;2.86
595;1901.04;553.972;2.86
596;1898.59;575.701;2.86
597;1879.06;571.795;2.86
598;1859.23;595.477;2.86
599;1883.95;567.888;2.87
600;1920.87;563.738;2.87
601;1938.27;589.618;2.87
602;1943.15;563.738;2.87
603;1933.39;567.888;2.87
604;1903.48;567.888;2.87
605;1879.06;583.514;2.87
606;1896.15;565.935;2.87
607;1908.67;567.888;2.87
608;1915.99;546.159;2.87
609;1908.67;579.608;2.88
610;1881.5;579.608;2.88
611;1846.71;552.019;2.88
612;1844.27;581.561;2.88
613;1881.5;573.748;2.88
614;1896.15;573.748;2.88
615;1908.67;557.878;2.88
616;1906.22;589.618;2.88
617;1886.39;571.795;2.88
618;1864.11;597.43;2.88
619;1888.83;563.738;2.89
620;1928.2;565.935;2.89
621;1945.59;593.524;2.89
622;1952.92;559.832;2.89
623;1938.27;571.795;2.89
624;1911.11;565.935;2.89
625;1886.39;585.467;2.89
626;1903.48;553.972;2.89
627;1918.43;569.842;2.89
628;1923.31;548.112;2.89
629;1918.43;587.42;2.89
630;1888.83;577.654;2.9
631;1854.34;555.925;2.9
632;1854.34;585.467;2.9
633;1888.83;573.748;2.9
634;1906.22;577.654;2.9
635;1918.43;555.925;2.9
636;1913.55;581.561;2.9
637;1896.15;575.701;2.9
638;1873.87;595.477;2.9
639;1898.59;569.842;2.9
640;1935.83;565.935;2.9
641;1955.36;591.571;2.91
642;1965.43;561.785;2.91
643;1950.48;569.842;2.91
644;1918.43;567.888;2.91
645;1893.71;587.42;2.91
646;1913.55;561.785;2.91
647;1928.2;569.842;2.91
648;1933.39;548.112;2.91
649;1928.2;585.467;2.91
650;1901.04;577.654;2.91
651;1864.11;553.972;2.91
652;1864.11;587.42;2.92001
653;1901.04;575.701;2.92001
654;1915.99;575.701;2.92001
655;1928.2;557.878;2.92001
656;1925.76;593.524;2.92001
657;1903.48;575.701;2.92001
658;1883.95;601.337;2.92001
659;1908.67;563.738;2.92001
660;1945.59;567.888;2.92001
661;1965.43;589.618;2.92001
662;1975.2;561.785;2.92001
663;1957.8;571.795;2.93
664;1925.76;565.935;2.93
665;1906.22;581.561;2.93
666;1918.43;577.654;2.93
667;1938.27;565.935;2.93
668;1945.59;553.972;2.93
669;1935.83;567.888;2.93
670;1908.67;587.42;2.93
671;1873.87;559.832;2.93
672;1871.43;575.701;2.93
673;1911.11;585.467;2.93
674;1928.2;573.748;2.93
675;1935.83;557.878;2.94
676;1935.83;571.795;2.94
677;1913.55;577.654;2.94
678;1893.71;593.524;2.94
679;1915.99;577.654;2.94
680;1955.36;559.832;2.94
681;1972.75;587.42;2.94
682;1980.08;567.888;2.94
683;1962.99;567.888;2.94
684;1933.39;571.795;2.94
685;1913.55;587.42;2.94
686;1930.64;575.701;2.94
687;1948.03;569.842;2.95
688;1952.92;550.066;2.95
689;1945.59;577.654;2.95
690;1918.43;583.514;2.95
691;1881.5;553.972;2.95
692;1883.95;581.561;2.95
693;1923.31;579.608;2.95
694;1940.71;573.748;2.95
695;1950.48;557.878;2.95
696;1948.03;579.608;2.95
697;1925.76;577.654;2.95
698;1901.04;597.43;2.95
699;1928.2;571.795;2.96001
700;1965.43;565.935;2.96001
701;1982.52;593.524;2.96001
702;1987.71;565.935;2.96001
703;1972.75;569.842;2.96001
704;1940.71;567.888;2.96001
705;1918.43;587.42;2.96001
706;1940.71;565.935;2.96001
707;1952.92;569.842;2.96001
708;1960.55;548.112;2.96001
709;1952.92;581.561;2.96001
710;1925.76;581.561;2.96001
711;1891.27;555.925;2.96001
712;1893.71;585.467;2.97
713;1933.39;577.654;2.97
714;1950.48;577.654;2.97
715;1960.55;557.878;2.97
716;1955.36;589.618;2.97
717;1935.83;575.701;2.97
718;1913.55;597.43;2.97
719;1938.27;567.888;2.97
720;1975.2;569.842;2.97
721;1992.59;591.571;2.97
722;1999.92;563.738;2.97
723;1982.52;571.795;2.97
724;1952.92;567.888;2.97
725;1928.2;587.42;2.98
726;1948.03;577.654;2.98
727;1965.43;567.888;2.98
728;1967.87;557.878;2.98
729;1965.43;567.888;2.98
730;1935.83;589.618;2.98
731;1898.59;561.785;2.98
732;1903.48;575.701;2.98
733;1945.59;583.514;2.98
734;1957.8;571.795;2.98
735;1970.31;557.878;2.98
736;1965.43;571.795;2.98
737;1940.71;579.608;2.98
738;1923.31;591.571;2.98
739;1948.03;581.561;2.98
740;1984.96;561.785;2.99001
741;2002.36;589.618;2.99001
742;2012.12;571.795;2.99001
743;1995.03;567.888;2.99001
744;1962.99;573.748;2.99001
745;1943.15;585.467;2.99001
746;1960.55;577.654;2.99001
747;1970.31;569.842;2.99001
748;1980.08;553.972;2.99001
749;1975.2;575.701;2.99001
750;1945.59;585.467;2.99001
751;1908.67;555.925;2.99001
752;1913.55;579.608;2.99001
753;1950.48;581.561;2.99001
754;1970.31;573.748;2.99001
755;1977.64;557.878;3
756;1975.2;575.701;3
757;1950.48;577.654;3
758;1930.64;595.477;3
759;1957.8;575.701;3
760;1995.03;565.935;3
761;2012.12;593.524;3
762;2017.31;565.935;3
763;2002.36;571.795;3
764;1970.31;571.795;3
765;1948.03;587.42;3
766;1967.87;571.795;3
767;1980.08;569.842;3
768;1987.71;548.112;3
769;1982.52;581.561;3.01
770;1950.48;583.514;3.01
771;1913.55;555.925;3.01
772;1920.87;583.514;3.01
773;1955.36;577.654;3.01
774;1975.2;577.654;3.01
775;1982.52;559.832;3.01
776;1980.08;587.42;3.01
777;1955.36;577.654;3.01
778;1935.83;599.384;3.01
779;1962.99;571.795;3.01
780;1999.92;565.935;3.01
781;2017.31;595.477;3.01
782;2022.19;563.738;3.01
783;2007.24;571.795;3.01
784;1972.75;569.842;3.02
785;1952.92;587.42;3.02
786;1972.75;559.832;3.02
787;1987.71;571.795;3.02
788;1992.59;550.066;3.02
789;1984.96;575.701;3.02
790;1957.8;583.514;3.02
791;1920.87;555.925;3.02
792;1925.76;583.514;3.02
793;1965.43;579.608;3.02
794;1982.52;575.701;3.02
795;1992.59;559.832;3.02
796;1984.96;577.654;3.02
797;1962.99;577.654;3.02
798;1943.15;599.384;3.02
799;1972.75;571.795;3.03001
800;2007.24;565.935;3.03001
801;2024.64;595.477;3.03001
802;2029.52;565.935;3.03001
803;2012.12;571.795;3.03001
804;1980.08;571.795;3.03001
805;1957.8;589.618;3.03001
806;1977.64;567.888;3.03001
807;1990.15;571.795;3.03001
808;1997.47;552.019;3.03001
809;1990.15;581.561;3.03001
810;1960.55;581.561;3.03001
811;1923.31;555.925;3.03001
812;1930.64;585.467;3.03001
813;1972.75;577.654;3.04
814;1987.71;577.654;3.04
815;1997.47;559.832;3.04
816;1987.71;589.618;3.04
817;1967.87;577.654;3.04
818;1948.03;585.467;3.04
819;1977.64;585.467;3.04
820;2012.12;555.925;3.04
821;2027.08;587.42;3.04
822;2034.4;573.748;3.04
823;2014.87;563.738;3.04
824;1982.52;573.748;3.04
825;1962.99;587.42;3.04
826;1982.52;579.608;3.04
827;1995.03;565.935;3.04
828;2002.36;559.832;3.05
829;1992.59;569.842;3.05
830;1965.43;591.571;3.05
831;1930.64;561.785;3.05
832;1935.83;575.701;3.05
833;1975.2;585.467;3.05
834;1987.71;573.748;3.05
835;2002.36;561.785;3.05
836;1992.59;571.795;3.05
837;1972.75;581.561;3.05
838;1952.92;593.524;3.05
839;1980.08;579.608;3.05
840;2017.31;559.832;3.05
841;2029.52;589.618;3.05
842;2036.84;573.748;3.05
843;2019.75;567.888;3.06001
844;1982.52;573.748;3.06001
845;1965.43;587.42;3.06001
846;1984.96;577.654;3.06001
847;1999.92;565.935;3.06001
848;2004.8;552.019;3.06001
849;1997.47;575.701;3.06001
850;1965.43;587.42;3.06001
851;1930.64;559.832;3.06001
852;1940.71;579.608;3.06001
853;1975.2;581.561;3.06001
854;1995.03;575.701;3.06001
855;2002.36;559.832;3.06001
856;1999.92;575.701;3.06001
857;1975.2;579.608;3.06001
858;1955.36;597.43;3.07
859;1982.52;575.701;3.07
860;2017.31;563.738;3.07
861;2034.4;593.524;3.07
862;2039.28;567.888;3.07
863;2022.19;569.842;3.07
864;1984.96;569.842;3.07
865;1970.31;587.42;3.07
866;1984.96;571.795;3.07
867;1999.92;571.795;3.07
868;2007.24;548.112;3.07
869;1999.92;581.561;3.07
870;1967.87;581.561;3.07
871;1933.39;555.925;3.07
872;1940.71;585.467;3.08
873;1977.64;579.608;3.08
874;1995.03;577.654;3.08
875;2004.8;557.878;3.08
876;1995.03;585.467;3.08
877;1975.2;577.654;3.08
878;1955.36;601.337;3.08
879;1984.96;569.842;3.08
880;2019.75;553.972;3.08
881;2036.84;585.467;3.08
882;2039.28;577.654;3.08
883;2019.75;559.832;3.08
884;1987.71;575.701;3.08
885;1967.87;585.467;3.08
886;1987.71;581.561;3.08
887;2004.8;567.888;3.09
888;2007.24;559.832;3.09
889;1999.92;569.842;3.09
890;1967.87;593.524;3.09
891;1933.39;559.832;3.09
892;1943.15;573.748;3.09
893;1980.08;587.42;3.09
894;1995.03;573.748;3.09
895;2004.8;557.878;3.09
896;1999.92;571.795;3.09
897;1975.2;581.561;3.09
898;1957.8;589.618;3.09
899;1987.71;581.561;3.09
900;2022.19;559.832;3.09
901;2039.28;587.42;3.09
902;2042.03;571.795;3.10001
903;2022.19;563.738;3.10001
904;1984.96;573.748;3.10001
905;1967.87;587.42;3.10001
906;1987.71;577.654;3.10001
907;2002.36;567.888;3.10001
908;2007.24;553.972;3.10001
909;2002.36;573.748;3.10001
910;1970.31;587.42;3.10001
911;1933.39;557.878;3.10001
912;1945.59;577.654;3.10001
913;1982.52;583.514;3.10001
914;1997.47;575.701;3.10001
915;2009.68;559.832;3.10001
916;1997.47;573.748;3.10001
917;1977.64;579.608;3.11
918;1957.8;597.43;3.11
919;1990.15;575.701;3.11
920;2022.19;563.738;3.11
921;2036.84;591.571;3.11
922;2044.47;571.795;3.11
923;2022.19;569.842;3.11
924;1987.71;571.795;3.11
925;1970.31;585.467;3.11
926;1992.59;575.701;3.11
927;2004.8;569.842;3.11
928;2009.68;550.066;3.11
929;1999.92;577.654;3.11
930;1980.08;585.467;3.11
931;1940.71;557.878;3.11
932;1943.15;583.514;3.12
933;1977.64;581.561;3.12
934;1997.47;577.654;3.12
935;2007.24;559.832;3.12
936;2002.36;585.467;3.12
937;1982.52;577.654;3.12
938;1960.55;601.337;3.12
939;1982.52;569.842;3.12
940;2022.19;567.888;3.12
941;2039.28;589.618;3.12
942;2049.36;571.795;3.12
943;2034.4;567.888;3.12
944;2002.36;571.795;3.12
945;1977.64;587.42;3.12
946;1992.59;577.654;3.12
947;2009.68;567.888;3.13
948;2014.87;552.019;3.13
949;2007.24;575.701;3.13
950;1980.08;583.514;3.13
951;1940.71;557.878;3.13
952;1938.27;577.654;3.13
953;1980.08;581.561;3.13
954;1997.47;575.701;3.13
955;2004.8;557.878;3.13
956;2002.36;575.701;3.13
957;1982.52;577.654;3.13
958;1957.8;597.43;3.13
959;1980.08;575.701;3.13
960;2022.19;563.738;3.13
961;2042.03;593.524;3.13
962;2049.36;565.935;3.13
963;2031.96;569.842;3.14
964;2002.36;571.795;3.14
965;1977.64;587.42;3.14
966;1992.59;569.842;3.14
967;2012.12;571.795;3.14
968;2014.87;546.159;3.14
969;2007.24;583.514;3.14
970;1977.64;583.514;3.14
971;1943.15;555.925;3.14
972;1940.71;569.842;3.14
973;1980.08;595.477;3.14
974;1995.03;571.795;3.14
975;2007.24;561.785;3.14
976;2002.36;567.888;3.14
977;1982.52;579.608;3.14
978;1962.99;585.467;3.14
979;1982.52;585.467;3.15
980;2027.08;553.972;3.15
981;2042.03;585.467;3.15
982;2049.36;577.654;3.15
983;2031.96;559.832;3.15
984;1999.92;573.748;3.15
985;1975.2;585.467;3.15
986;1995.03;581.561;3.15
987;2012.12;563.738;3.15
988;2017.31;557.878;3.15
989;2009.68;567.888;3.15
990;1977.64;591.571;3.15
991;1943.15;559.832;3.15
992;1943.15;573.748;3.15
993;1982.52;589.618;3.15
994;1999.92;571.795;3.16
995;2012.12;557.878;3.16
996;2007.24;571.795;3.16
997;1984.96;579.608;3.16
998;1962.99;589.618;3.16
999;1990.15;579.608;3.16
1000;2029.52;561.785;3.16
1001;2046.91;587.42;3.16
1002;2054.24;571.795;3.16
1003;2039.28;563.738;3.16
1004;2002.36;573.748;3.16
1005;1980.08;585.467;3.16
1006;1995.03;577.654;3.16
1007;2012.12;567.888;3.16
1008;2017.31;553.972;3.16
1009;2012.12;573.748;3.16
1010;1982.52;589.618;3.17001
1011;1943.15;557.878;3.17001
1012;1945.59;577.654;3.17001
1013;1982.52;583.514;3.17001
1014;1997.47;575.701;3.17001
1015;2007.24;559.832;3.17001
1016;2002.36;571.795;3.17001
1017;1982.52;577.654;3.17001
1018;1960.55;597.43;3.17001
1019;1987.71;575.701;3.17001
1020;2027.08;561.785;3.17001
1021;2044.47;591.571;3.17001
1022;2049.36;567.888;3.17001
1023;2034.4;569.842;3.17001
1024;2002.36;571.795;3.17001
1025;1980.08;589.618;3.17001
1026;1997.47;575.701;3.18
1027;2012.12;567.888;3.18
1028;2019.75;550.066;3.18
1029;2012.12;581.561;3.18
1030;1982.52;583.514;3.18
1031;1943.15;553.972;3.18
1032;1945.59;581.561;3.18
1033;1982.52;595.477;3.18
1034;2002.36;573.748;3.18
1035;2009.68;559.832;3.18
1036;2007.24;567.888;3.18
1037;1980.08;583.514;3.18
1038;1962.99;583.514;3.18
1039;1992.59;587.42;3.18
1040;2027.08;550.066;3.18
1041;2046.91;583.514;3.18
1042;2051.8;579.608;3.19
1043;2039.28;559.832;3.19
1044;2004.8;571.795;3.19
1045;1982.52;583.514;3.19
1046;1999.92;579.608;3.19
1047;2014.87;563.738;3.19
1048;2019.75;559.832;3.19
1049;2012.12;563.738;3.19
1050;1982.52;595.477;3.19
1051;1943.15;563.738;3.19
1052;1948.03;571.795;3.19
1053;1984.96;587.42;3.19
1054;2002.36;571.795;3.19
1055;2012.12;559.832;3.19
1056;2004.8;571.795;3.19
1057;1984.96;581.561;3.19
1058;1962.99;587.42;3.2
1059;1992.59;583.514;3.2
1060;2031.96;557.878;3.2
1061;2049.36;585.467;3.2
1062;2056.68;573.748;3.2
1063;2039.28;563.738;3.2
1064;2004.8;571.795;3.2
1065;1982.52;585.467;3.2
1066;2004.8;579.608;3.2
1067;2017.31;567.888;3.2
1068;2022.19;555.925;3.2
1069;2014.87;569.842;3.2
1070;1982.52;589.618;3.2
1071;1948.03;559.832;3.2
1072;1950.48;575.701;3.2
1073;1987.71;583.514;3.2
1074;2002.36;569.842;3.2
1075;2012.12;559.832;3.21001
1076;2007.24;571.795;3.21001
1077;1984.96;575.701;3.21001
1078;1965.43;593.524;3.21001
1079;1995.03;577.654;3.21001
1080;2031.96;559.832;3.21001
1081;2051.8;589.618;3.21001
1082;2059.12;569.842;3.21001
1083;2039.28;565.935;3.21001
1084;2007.24;571.795;3.21001
1085;1984.96;585.467;3.21001
1086;2004.8;577.654;3.21001
1087;2019.75;567.888;3.21001
1088;2024.64;550.066;3.21001
1089;2014.87;577.654;3.21001
1090;1984.96;583.514;3.21001
1091;1945.59;557.878;3.21001
1092;1948.03;579.608;3.22
1093;1987.71;581.561;3.22
1094;2004.8;577.654;3.22
1095;2012.12;559.832;3.22
1096;2007.24;571.795;3.22
1097;1982.52;579.608;3.22
1098;1965.43;593.524;3.22
1099;1992.59;579.608;3.22
1100;2034.4;557.878;3.22
1101;2051.8;587.42;3.22
1102;2059.12;571.795;3.22
1103;2044.47;563.738;3.22
1104;2009.68;571.795;3.22
1105;1987.71;585.467;3.22
1106;2004.8;577.654;3.22
1107;2017.31;567.888;3.22
1108;2024.64;552.019;3.22
1109;2022.19;575.701;3.23
1110;1999.92;585.467;3.23
1111;1960.55;557.878;3.23
1112;1943.15;577.654;3.23
1113;1977.64;581.561;3.23
1114;1999.92;573.748;3.23
1115;2012.12;555.925;3.23
1116;2012.12;571.795;3.23
1117;1997.47;575.701;3.23
1118;1967.87;599.384;3.23
1119;1980.08;573.748;3.23
1120;2022.19;561.785;3.23
1121;2046.91;589.618;3.23
1122;2059.12;567.888;3.23
1123;2054.24;569.842;3.23
1124;2022.19;569.842;3.23
1125;1987.71;579.608;3.23
1126;1997.47;583.514;3.24001
1127;2019.75;561.785;3.24001
1128;2024.64;561.785;3.24001
1129;2022.19;557.878;3.24001
1130;1997.47;597.43;3.24001
1131;1962.99;567.888;3.24001
1132;1943.15;567.888;3.24001
1133;1977.64;597.43;3.24001
1134;1999.92;571.795;3.24001
1135;2014.87;561.785;3.24001
1136;2014.87;565.935;3.24001
1137;1995.03;581.561;3.24001
1138;1972.75;583.514;3.24001
1139;1982.52;587.42;3.24001
1140;2024.64;550.066;3.24001
1141;2049.36;579.608;3.24001
1142;2061.56;579.608;3.24001
1143;2054.24;559.832;3.25
1144;2022.19;573.748;3.25
1145;1990.15;583.514;3.25
1146;1995.03;579.608;3.25
1147;2017.31;563.738;3.25
1148;2022.19;557.878;3.25
1149;2019.75;563.738;3.25
1150;1997.47;593.524;3.25
1151;1957.8;563.738;3.25
1152;1940.71;569.842;3.25
1153;1975.2;589.618;3.25
1154;2002.36;571.795;3.25
1155;2012.12;561.785;3.25
1156;2014.87;567.888;3.25
1157;1997.47;581.561;3.25
1158;1975.2;587.42;3.25
1159;1982.52;583.514;3.25
1160;2027.08;555.925;3.25
1161;2051.8;583.514;3.26
1162;2064;575.701;3.26
1163;2054.24;561.785;3.26
1164;2027.08;571.795;3.26
1165;1992.59;581.561;3.26
1166;1997.47;579.608;3.26
1167;2017.31;565.935;3.26
1168;2022.19;553.972;3.26
1169;2017.31;569.842;3.26
1170;1995.03;587.42;3.26
1171;1952.92;559.832;3.26
1172;1938.27;575.701;3.26
1173;1975.2;583.514;3.26
1174;1999.92;573.748;3.26
1175;2012.12;557.878;3.26
1176;2014.87;571.795;3.26
1177;1999.92;575.701;3.27
1178;1975.2;595.477;3.27
1179;1984.96;577.654;3.27
1180;2029.52;561.785;3.27
1181;2051.8;589.618;3.27
1182;2066.45;569.842;3.27
1183;2056.68;565.935;3.27
1184;2027.08;571.795;3.27
1185;1995.03;583.514;3.27
1186;1999.92;575.701;3.27
1187;2017.31;561.785;3.27
1188;2022.19;561.785;3.27
1189;2019.75;557.878;3.27
1190;1992.59;599.384;3.27
1191;1957.8;571.795;3.27
1192;1938.27;565.935;3.27
1193;1977.64;597.43;3.28001
1194;2002.36;573.748;3.28001
1195;2012.12;565.935;3.28001
1196;2014.87;565.935;3.28001
1197;1997.47;585.467;3.28001
1198;1975.2;581.561;3.28001
1199;1984.96;587.42;3.28001
1200;2031.96;548.112;3.28001
1201;2056.68;579.608;3.28001
1202;2066.45;577.654;3.28001
1203;2059.12;553.972;3.28001
1204;2029.52;573.748;3.28001
1205;1995.03;579.608;3.28001
1206;1999.92;581.561;3.28001
1207;2014.87;561.785;3.28001
1208;2019.75;561.785;3.28001
1209;2019.75;561.785;3.28001
1210;1992.59;595.477;3.29
1211;1955.36;563.738;3.29
1212;1938.27;569.842;3.29
1213;1977.64;589.618;3.29
1214;1999.92;571.795;3.29
1215;2014.87;559.832;3.29
1216;2014.87;565.935;3.29
1217;1997.47;581.561;3.29
1218;1975.2;587.42;3.29
1219;1984.96;581.561;3.29
1220;2031.96;553.972;3.29
1221;2056.68;583.514;3.29
1222;2066.45;575.701;3.29
1223;2059.12;561.785;3.29
1224;2027.08;571.795;3.29
1225;1995.03;581.561;3.29
1226;1999.92;577.654;3.3
1227;2017.31;563.738;3.3
1228;2022.19;552.019;3.3
1229;2019.75;565.935;3.3
1230;1992.59;585.467;3.3
1231;1952.92;559.832;3.3
1232;1940.71;575.701;3.3
1233;1977.64;585.467;3.3
1234;1999.92;569.842;3.3
1235;2012.12;559.832;3.3
1236;2014.87;569.842;3.3
1237;1999.92;579.608;3.3
1238;1975.2;591.571;3.3
1239;1987.71;577.654;3.3
1240;2034.4;559.832;3.3
1241;2054.24;589.618;3.3
1242;2069.19;569.842;3.3
1243;2056.68;565.935;3.31001
1244;2024.64;573.748;3.31001
1245;1995.03;581.561;3.31001
1246;2002.36;575.701;3.31001
1247;2019.75;567.888;3.31001
1248;2022.19;559.832;3.31001
1249;2022.19;563.738;3.31001
1250;1992.59;593.524;3.31001
1251;1955.36;563.738;3.31001
1252;1940.71;571.795;3.31001
1253;1977.64;587.42;3.31001
1254;1999.92;571.795;3.31001
1255;2012.12;559.832;3.31001
1256;2014.87;569.842;3.31001
1257;1997.47;581.561;3.31001
1258;1975.2;589.618;3.31001
1259;1987.71;581.561;3.31001
1260;2034.4;555.925;3.32
1261;2054.24;585.467;3.32
1262;2069.19;571.795;3.32
1263;2056.68;563.738;3.32
1264;2027.08;573.748;3.32
1265;1992.59;583.514;3.32
1266;1999.92;577.654;3.32
1267;2019.75;565.935;3.32
1268;2022.19;548.112;3.32
1269;2017.31;567.888;3.32
1270;1992.59;587.42;3.32
1271;1952.92;557.878;3.32
1272;1938.27;575.701;3.32
1273;1980.08;581.561;3.32
1274;2002.36;569.842;3.32
1275;2014.87;559.832;3.32
1276;2017.31;571.795;3.33
1277;1999.92;577.654;3.33
1278;1975.2;577.654;3.33
1279;1987.71;591.571;3.33
1280;2034.4;544.206;3.33
1281;2054.24;573.748;3.33
1282;2069.19;581.561;3.33
1283;2059.12;550.066;3.33
1284;2027.08;573.748;3.33
1285;1995.03;573.748;3.33
1286;2002.36;583.514;3.33
1287;2022.19;559.832;3.33
1288;2022.19;563.738;3.33
1289;2019.75;555.925;3.33
1290;1992.59;597.43;3.33
1291;1952.92;569.842;3.33
1292;1940.71;561.785;3.34
1293;1980.08;595.477;3.34
1294;2002.36;569.842;3.34
1295;2014.87;563.738;3.34
1296;2017.31;563.738;3.34
1297;1997.47;583.514;3.34
1298;1975.2;579.608;3.34
1299;1990.15;587.42;3.34
1300;2039.28;546.159;3.34
1301;2056.68;577.654;3.34
1302;2066.45;579.608;3.34
1303;2056.68;555.925;3.34
1304;2024.64;571.795;3.34
1305;1995.03;581.561;3.34
1306;2002.36;577.654;3.34
1307;2022.19;563.738;3.34
1308;2024.64;557.878;3.35001
1309;2022.19;561.785;3.35001
1310;1992.59;595.477;3.35001
1311;1952.92;561.785;3.35001
1312;1943.15;569.842;3.35001
1313;1982.52;589.618;3.35001
1314;2002.36;571.795;3.35001
1315;2012.12;557.878;3.35001
1316;2017.31;565.935;3.35001
1317;1997.47;577.654;3.35001
1318;1975.2;589.618;3.35001
1319;1990.15;579.608;3.35001
1320;2034.4;555.925;3.35001
1321;2056.68;583.514;3.35001
1322;2069.19;573.748;3.35001
1323;2059.12;559.832;3.35001
1324;2024.64;571.795;3.35001
1325;1995.03;581.561;3.36
1326;2002.36;577.654;3.36
1327;2019.75;565.935;3.36
1328;2024.64;553.972;3.36
1329;2022.19;567.888;3.36
1330;1992.59;587.42;3.36
1331;1952.92;557.878;3.36
1332;1940.71;571.795;3.36
1333;1982.52;585.467;3.36
1334;2002.36;571.795;3.36
1335;2017.31;559.832;3.36
1336;2014.87;569.842;3.36
1337;1999.92;575.701;3.36
1338;1977.64;591.571;3.36
1339;1990.15;575.701;3.36
1340;2036.84;546.159;3.36
1341;2056.68;571.795;3.36
1342;2069.19;581.561;3.37
1343;2059.12;552.019;3.37
1344;2024.64;571.795;3.37
1345;1997.47;571.795;3.37
1346;2002.36;581.561;3.37
1347;2019.75;557.878;3.37
1348;2024.64;563.738;3.37
1349;2022.19;553.972;3.37
1350;1995.03;599.384;3.37
1351;1952.92;569.842;3.37
1352;1943.15;561.785;3.37
1353;1982.52;593.524;3.37
1354;2002.36;569.842;3.37
1355;2014.87;563.738;3.37
1356;2017.31;563.738;3.37
1357;1999.92;581.561;3.37
1358;1975.2;579.608;3.37
1359;1995.03;589.618;3.38
1360;2039.28;546.159;3.38
1361;2059.12;575.701;3.38
1362;2071.63;575.701;3.38
1363;2059.12;550.066;3.38
1364;2024.64;569.842;3.38
1365;1997.47;577.654;3.38
1366;2004.8;581.561;3.38
1367;2022.19;559.832;3.38
1368;2024.64;559.832;3.38
1369;2022.19;561.785;3.38
1370;1992.59;593.524;3.38
1371;1950.48;563.738;3.38
1372;1943.15;565.935;3.38
1373;1982.52;589.618;3.38
1374;2004.8;571.795;3.38
1375;2017.31;559.832;3.38
1376;2014.87;565.935;3.39
1377;1997.47;579.608;3.39
1378;1975.2;585.467;3.39
1379;1992.59;585.467;3.39
1380;2039.28;552.019;3.39
1381;2056.68;583.514;3.39
1382;2071.63;573.748;3.39
1383;2056.68;557.878;3.39
1384;2024.64;571.795;3.39
1385;1995.03;583.514;3.39
1386;1999.92;579.608;3.39
1387;2019.75;563.738;3.39
1388;2022.19;553.972;3.39
1389;2017.31;565.935;3.39
1390;1990.15;589.618;3.39
1391;1950.48;557.878;3.39
1392;1943.15;571.795;3.39
1393;1984.96;587.42;3.4
1394;2004.8;571.795;3.4
1395;2017.31;557.878;3.4
1396;2014.87;567.888;3.4
1397;1995.03;577.654;3.4
1398;1975.2;589.618;3.4
1399;1992.59;577.654;3.4
1400;2039.28;557.878;3.4
1401;2059.12;579.608;3.4
1402;2069.19;575.701;3.4
1403;2054.24;555.925;3.4
1404;2019.75;571.795;3.4
1405;1990.15;579.608;3.4
1406;2002.36;577.654;3.4
1407;2022.19;561.785;3.4
1408;2022.19;553.972;3.4
1409;2019.75;559.832;3.4
1410;1992.59;591.571;3.41
1411;1952.92;561.785;3.41
1412;1945.59;567.888;3.41
1413;1984.96;587.42;3.41
1414;2007.24;569.842;3.41
1415;2019.75;559.832;3.41
1416;2017.31;565.935;3.41
1417;1999.92;577.654;3.41
1418;1972.75;583.514;3.41
1419;1990.15;579.608;3.41
1420;2034.4;553.972;3.41
1421;2054.24;581.561;3.41
1422;2064;569.842;3.41
1423;2051.8;559.832;3.41
1424;2017.31;569.842;3.41
1425;1987.71;581.561;3.41
1426;2002.36;575.701;3.41
1427;2019.75;563.738;3.41
1428;2022.19;553.972;3.42001
1429;2019.75;565.935;3.42001
1430;1990.15;589.618;3.42001
1431;1952.92;559.832;3.42001
1432;1948.03;559.832;3.42001
1433;1987.71;591.571;3.42001
1434;2007.24;569.842;3.42001
1435;2017.31;567.888;3.42001
1436;2017.31;559.832;3.42001
1437;1995.03;585.467;3.42001
1438;1975.2;571.795;3.42001
1439;1992.59;591.571;3.42001
1440;2034.4;544.206;3.42001
1441;2051.8;569.842;3.42001
1442;2064;581.561;3.42001
1443;2051.8;548.112;3.42001
1444;2014.87;569.842;3.42001
1445;1992.59;571.795;3.43
1446;1999.92;581.561;3.43
1447;2019.75;555.925;3.43
1448;2024.64;563.738;3.43
1449;2019.75;553.972;3.43
1450;1990.15;599.384;3.43
1451;1952.92;569.842;3.43
1452;1945.59;561.785;3.43
1453;1984.96;595.477;3.43
1454;2007.24;569.842;3.43
1455;2014.87;561.785;3.43
1456;2017.31;561.785;3.43
1457;1997.47;581.561;3.43
1458;1972.75;577.654;3.43
1459;1992.59;587.42;3.43
1460;2036.84;546.159;3.43
1461;2054.24;573.748;3.43
1462;2061.56;575.701;3.44
1463;2061.56;550.066;3.44
1464;2031.96;571.795;3.44
1465;1999.92;577.654;3.44
1466;1992.59;579.608;3.44
1467;2014.87;559.832;3.44
1468;2022.19;561.785;3.44
1469;2022.19;557.878;3.44
1470;2002.36;593.524;3.44
1471;1965.43;561.785;3.44
1472;1938.27;565.935;3.44
1473;1967.87;587.42;3.44
1474;1995.03;569.842;3.44
1475;2009.68;557.878;3.44
1476;2017.31;565.935;3.44
1477;2004.8;579.608;3.44
1478;1977.64;583.514;3.44
1479;1977.64;583.514;3.45
1480;2019.75;548.112;3.45
1481;2044.47;579.608;3.45
1482;2061.56;571.795;3.45
1483;2054.24;557.878;3.45
1484;2031.96;571.795;3.45
1485;1995.03;579.608;3.45
1486;1990.15;575.701;3.45
1487;2012.12;563.738;3.45
1488;2019.75;553.972;3.45
1489;2019.75;563.738;3.45
1490;2002.36;591.571;3.45
1491;1962.99;557.878;3.45
1492;1935.83;571.795;3.45
1493;1967.87;591.571;3.45
1494;1995.03;569.842;3.45
1495;2009.68;569.842;3.45
1496;2014.87;559.832;3.45
1497;1999.92;589.618;3.46001
1498;1977.64;571.795;3.46001
1499;1975.2;593.524;3.46001
1500;2019.75;546.159;3.46001
1501;2044.47;567.888;3.46001
1502;2059.12;579.608;3.46001
1503;2056.68;552.019;3.46001
1504;2027.08;571.795;3.46001
1505;1990.15;569.842;3.46001
1506;1987.71;581.561;3.46001
1507;2009.68;553.972;3.46001
1508;2017.31;563.738;3.46001
1509;2022.19;553.972;3.46001
1510;1999.92;597.43;3.46001
1511;1962.99;571.795;3.46001
1512;1938.27;561.785;3.46001
1513;1970.31;595.477;3.46001
1514;1995.03;567.888;3.47
1515;2007.24;561.785;3.47
1516;2014.87;559.832;3.47
1517;2002.36;583.514;3.47
1518;1977.64;575.701;3.47
1519;1975.2;589.618;3.47
1520;2019.75;542.009;3.47
1521;2044.47;571.795;3.47
1522;2059.12;575.701;3.47
1523;2056.68;548.112;3.47
1524;2027.08;569.842;3.47
1525;1995.03;579.608;3.47
1526;1992.59;579.608;3.47
1527;2012.12;557.878;3.47
1528;2019.75;561.785;3.47
1529;2019.75;555.925;3.47
1530;1999.92;595.477;3.47
1531;1962.99;565.935;3.48
1532;1938.27;561.785;3.48
1533;1970.31;593.524;3.48
1534;1997.47;571.795;3.48
1535;2012.12;559.832;3.48
1536;2017.31;561.785;3.48
1537;2002.36;579.608;3.48
1538;1977.64;579.608;3.48
1539;1980.08;581.561;3.48
1540;2024.64;548.112;3.48
1541;2046.91;577.654;3.48
1542;2061.56;573.748;3.48
1543;2054.24;555.925;3.48
1544;2027.08;569.842;3.48
1545;1992.59;579.608;3.48
1546;1987.71;577.654;3.48
1547;2014.87;561.785;3.48
1548;2019.75;553.972;3.49001
1549;2019.75;561.785;3.49001
1550;1999.92;591.571;3.49001
1551;1962.99;559.832;3.49001
1552;1938.27;569.842;3.49001
1553;1970.31;585.467;3.49001
1554;1995.03;569.842;3.49001
1555;2012.12;561.785;3.49001
1556;2014.87;561.785;3.49001
1557;2002.36;583.514;3.49001
1558;1972.75;575.701;3.49001
1559;1975.2;587.42;3.49001
1560;2017.31;548.112;3.49001
1561;2046.91;577.654;3.49001
1562;2059.12;577.654;3.49001
1563;2051.8;552.019;3.49001
1564;2024.64;569.842;3.49001
1565;1990.15;579.608;3.49001
1566;1987.71;577.654;3.5
1567;2012.12;557.878;3.5
1568;2017.31;561.785;3.5
1569;2019.75;555.925;3.5
1570;1997.47;595.477;3.5
1571;1960.55;563.738;3.5
1572;1935.83;565.935;3.5
1573;1967.87;587.42;3.5
1574;1999.92;567.888;3.5
1575;2012.12;555.925;3.5
1576;2014.87;565.935;3.5
1577;1999.92;577.654;3.5
1578;1975.2;583.514;3.5
1579;1975.2;581.561;3.5
1580;2022.19;550.066;3.5
1581;2044.47;579.608;3.5
1582;2056.68;571.795;3.5
1583;2051.8;557.878;3.5
1584;2022.19;569.842;3.5
1585;1990.15;565.935;3.51
1586;1987.71;579.608;3.51
1587;2012.12;552.019;3.51
1588;2017.31;567.888;3.51
1589;2017.31;548.112;3.51
1590;1997.47;595.477;3.51
1591;1957.8;573.748;3.51
1592;1935.83;553.972;3.51
1593;1967.87;591.571;3.51
1594;1995.03;569.842;3.51
1595;2009.68;571.795;3.51
1596;2009.68;557.878;3.51
1597;1997.47;585.467;3.51
1598;1975.2;569.842;3.51
1599;1975.2;593.524;3.51
1600;2022.19;544.206;3.51
1601;2044.47;567.888;3.51
1602;2054.24;581.561;3.52
1603;2051.8;548.112;3.52
1604;2022.19;569.842;3.52
1605;1987.71;571.795;3.52
1606;1987.71;577.654;3.52
1607;2009.68;553.972;3.52
1608;2014.87;567.888;3.52
1609;2014.87;550.066;3.52
1610;1995.03;597.43;3.52
1611;1955.36;567.888;3.52
1612;1933.39;559.832;3.52
1613;1965.43;593.524;3.52
1614;1992.59;567.888;3.52
1615;2002.36;561.785;3.52
1616;2009.68;559.832;3.52
1617;1995.03;581.561;3.52
1618;1970.31;571.795;3.52
1619;1972.75;587.42;3.52
1620;2017.31;542.009;3.53001
1621;2039.28;573.748;3.53001
1622;2054.24;577.654;3.53001
1623;2046.91;548.112;3.53001
1624;2019.75;567.888;3.53001
1625;1982.52;573.748;3.53001
1626;1984.96;577.654;3.53001
1627;2007.24;557.878;3.53001
1628;2012.12;561.785;3.53001
1629;2012.12;553.972;3.53001
1630;1990.15;593.524;3.53001
1631;1955.36;563.738;3.53001
1632;1930.64;563.738;3.53001
1633;1967.87;593.524;3.53001
1634;1995.03;567.888;3.53001
1635;2002.36;557.878;3.53001
1636;2007.24;561.785;3.53001
1637;1992.59;577.654;3.54
1638;1967.87;577.654;3.54
1639;1970.31;583.514;3.54
1640;2012.12;548.112;3.54
1641;2034.4;575.701;3.54
1642;2044.47;573.748;3.54
1643;2042.03;552.019;3.54
1644;2009.68;569.842;3.54
1645;1977.64;579.608;3.54
1646;1980.08;581.561;3.54
1647;2004.8;552.019;3.54
1648;2009.68;567.888;3.54
1649;2012.12;546.159;3.54
1650;1990.15;593.524;3.54
1651;1952.92;571.795;3.54
1652;1933.39;555.925;3.54
1653;1967.87;589.618;3.54
1654;1995.03;569.842;3.54
1655;2009.68;569.842;3.54
1656;2012.12;555.925;3.55
1657;1999.92;587.42;3.55
1658;1972.75;567.888;3.55
1659;1975.2;591.571;3.55
1660;2014.87;544.206;3.55
1661;2039.28;565.935;3.55
1662;2049.36;581.561;3.55
1663;2042.03;548.112;3.55
1664;2012.12;567.888;3.55
1665;1980.08;565.935;3.55
1666;1980.08;579.608;3.55
1667;2002.36;550.066;3.55
1668;2007.24;565.935;3.55
1669;2007.24;548.112;3.55
1670;1990.15;595.477;3.55
1671;1950.48;569.842;3.55
1672;1933.39;559.832;3.55
1673;1967.87;591.571;3.55
1674;1995.03;569.842;3.55
1675;2004.8;565.935;3.56001
1676;2009.68;559.832;3.56001
1677;1992.59;585.467;3.56001
1678;1967.87;569.842;3.56001
1679;1970.31;589.618;3.56001
1680;2014.87;542.009;3.56001
1681;2036.84;569.842;3.56001
1682;2049.36;577.654;3.56001
1683;2039.28;548.112;3.56001
1684;2009.68;569.842;3.56001
1685;1977.64;573.748;3.56001
1686;1980.08;577.654;3.56001
1687;2002.36;555.925;3.56001
1688;2007.24;561.785;3.56001
1689;2009.68;552.019;3.56001
1690;1987.71;593.524;3.56001
1691;1952.92;565.935;3.56001
1692;1930.64;561.785;3.56001
1693;1967.87;593.524;3.57
1694;1992.59;565.935;3.57
1695;2002.36;559.832;3.57
1696;2009.68;561.785;3.57
1697;1995.03;577.654;3.57
1698;1970.31;575.701;3.57
1699;1970.31;583.514;3.57
1700;2012.12;546.159;3.57
1701;2034.4;575.701;3.57
1702;2044.47;571.795;3.57
1703;2039.28;550.066;3.57
1704;2007.24;567.888;3.57
1705;1977.64;581.561;3.57
1706;1977.64;577.654;3.57
1707;1999.92;559.832;3.57
1708;2004.8;563.738;3.57
1709;2004.8;552.019;3.57
1710;1984.96;595.477;3.57
1711;1948.03;569.842;3.57
1712;1930.64;557.878;3.58
1713;1965.43;593.524;3.58
1714;1992.59;567.888;3.58
1715;2004.8;561.785;3.58
1716;2009.68;557.878;3.58
1717;1992.59;581.561;3.58
1718;1962.99;571.795;3.58
1719;1970.31;587.42;3.58
1720;2012.12;542.009;3.58
1721;2034.4;571.795;3.58
1722;2044.47;577.654;3.58
1723;2036.84;548.112;3.58
1724;2007.24;567.888;3.58
1725;1972.75;573.748;3.58
1726;1977.64;579.608;3.58
1727;1997.47;553.972;3.58
1728;2004.8;559.832;3.58
1729;2004.8;555.925;3.58
1730;1982.52;593.524;3.59
1731;1948.03;561.785;3.59
1732;1928.2;559.832;3.59
1733;1965.43;589.618;3.59
1734;1987.71;567.888;3.59
1735;2002.36;557.878;3.59
1736;2004.8;563.738;3.59
1737;1987.71;579.608;3.59
1738;1960.55;577.654;3.59
1739;1967.87;595.477;3.59
1740;2009.68;553.972;3.59
1741;2031.96;563.738;3.59
1742;2044.47;585.467;3.59
1743;2034.4;552.019;3.59
1744;2002.36;567.888;3.59
1745;1972.75;561.785;3.59
1746;1977.64;579.608;3.59
1747;1997.47;550.066;3.59
1748;2002.36;567.888;3.60001
1749;1999.92;546.159;3.60001
1750;1982.52;591.571;3.60001
1751;1943.15;571.795;3.60001
1752;1925.76;555.925;3.60001
1753;1960.55;585.467;3.60001
1754;1984.96;567.888;3.60001
1755;1997.47;567.888;3.60001
1756;1999.92;555.925;3.60001
1757;1984.96;587.42;3.60001
1758;1960.55;569.842;3.60001
1759;1965.43;591.571;3.60001
1760;2004.8;546.159;3.60001
1761;2029.52;567.888;3.60001
1762;2036.84;579.608;3.60001
1763;2031.96;548.112;3.60001
1764;1999.92;567.888;3.60001
1765;1970.31;565.935;3.60001
1766;1975.2;579.608;3.61
1767;1995.03;552.019;3.61
1768;1999.92;561.785;3.61
1769;1999.92;548.112;3.61
1770;1980.08;595.477;3.61
1771;1940.71;567.888;3.61
1772;1923.31;557.878;3.61
1773;1957.8;591.571;3.61
1774;1982.52;567.888;3.61
1775;1995.03;565.935;3.61
1776;1997.47;555.925;3.61
1777;1982.52;585.467;3.61
1778;1955.36;569.842;3.61
1779;1960.55;589.618;3.61
1780;2004.8;542.009;3.61
1781;2024.64;567.888;3.61
1782;2034.4;577.654;3.61
1783;2027.08;546.159;3.61
1784;1995.03;567.888;3.61
1785;1967.87;571.795;3.62
1786;1967.87;579.608;3.62
1787;1984.96;553.972;3.62
1788;1995.03;561.785;3.62
1789;1995.03;552.019;3.62
1790;1972.75;595.477;3.62
1791;1938.27;563.738;3.62
1792;1918.43;559.832;3.62
1793;1952.92;591.571;3.62
1794;1980.08;567.888;3.62
1795;1992.59;557.878;3.62
1796;1995.03;561.785;3.62
1797;1977.64;577.654;3.62
1798;1952.92;573.748;3.62
1799;1960.55;585.467;3.62
1800;2002.36;555.925;3.62
1801;2022.19;563.738;3.62
1802;2031.96;585.467;3.62
1803;2024.64;553.972;3.62
1804;1992.59;567.888;3.63
1805;1962.99;561.785;3.63
1806;1965.43;581.561;3.63
1807;1987.71;546.159;3.63
1808;1992.59;565.935;3.63
1809;1990.15;540.056;3.63
1810;1970.31;589.618;3.63
1811;1940.71;573.748;3.63
1812;1911.11;552.019;3.63
1813;1940.71;585.467;3.63
1814;1972.75;569.842;3.63
1815;1984.96;569.842;3.63
1816;1987.71;553.972;3.63
1817;1980.08;589.618;3.63
1818;1950.48;567.888;3.63
1819;1948.03;591.571;3.63
1820;1990.15;550.066;3.63
1821;2014.87;561.785;3.63
1822;2024.64;583.514;3.64
1823;2022.19;550.066;3.64
1824;1995.03;567.888;3.64
1825;1962.99;561.785;3.64
1826;1957.8;581.561;3.64
1827;1982.52;548.112;3.64
1828;1987.71;565.935;3.64
1829;1987.71;548.112;3.64
1830;1970.31;595.477;3.64
1831;1933.39;567.888;3.64
1832;1908.67;555.925;3.64
1833;1940.71;589.618;3.64
1834;1970.31;567.888;3.64
1835;1980.08;565.935;3.64
1836;1984.96;555.925;3.64
1837;1975.2;585.467;3.64
1838;1948.03;567.888;3.64
1839;1945.59;589.618;3.64
1840;1987.71;542.009;3.64
1841;2009.68;567.888;3.65
1842;2022.19;577.654;3.65
1843;2019.75;544.206;3.65
1844;1990.15;567.888;3.65
1845;1957.8;569.842;3.65
1846;1955.36;579.608;3.65
1847;1977.64;553.972;3.65
1848;1982.52;563.738;3.65
1849;1984.96;550.066;3.65
1850;1967.87;595.477;3.65
1851;1928.2;567.888;3.65
1852;1903.48;557.878;3.65
1853;1935.83;591.571;3.65
1854;1965.43;565.935;3.65
1855;1975.2;557.878;3.65
1856;1982.52;557.878;3.65
