<WeldAnalyseData xmlns:i="http:www.w3.org/2001/XMLSchema-instance">
<WeldParameter>
<TimeStamp>DT#2023-12-06-09:58:02</TimeStamp>
<Generator>SG-22-10000</Generator>
<GenFreq>20</GenFreq>
<MaxForce>8000</MaxForce>
<MaxPower>10000</MaxPower>
<RunupPressure>1.5</RunupPressure>
<RunupDist>10</RunupDist>
<RunPress>0.8</RunPress>
<ShakeDelay>0.03</ShakeDelay>
<ShakeTime>0.3</ShakeTime>
<RunBackPress1>6</RunBackPress1>
<RunBackPress2>2</RunBackPress2>
<RunBackDist>1</RunBackDist>
<TrigValue>500</TrigValue>
<TrigModeUnit>W</TrigModeUnit>
<WeldModeUnit>Ws</WeldModeUnit>
<PressNr>0</PressNr>
<MaxLoss>1500</MaxLoss>
</WeldParameter>
<WeldSets>
<WeldSet>
<PressRiseTime>0</PressRiseTime>
<RunPressure>1</RunPressure>
<Amplitude>86</Amplitude>
<WeldMode>3270</WeldMode>
</WeldSet>
</WeldSets>
<WeldValue>
<WeldNr>2454</WeldNr>
<RecipeName>RickStyle</RecipeName>
<WeldTime>1817</WeldTime>
<DistDiff>3.59</DistDiff>
<DistAbs>78.33</DistAbs>
<Energy>3270.97</Energy>
<MaxPower>2053.9</MaxPower>
<CycleTime>6160</CycleTime>
<TrigForce>502.701</TrigForce>
<TrigDist>74.74</TrigDist>
<RunSpeed>67.5158</RunSpeed>
<MaxForce>603.29</MaxForce>
<LossPower>254.524</LossPower>
</WeldValue>
</WeldAnalyseData>
#CSV-START#
ms;Power[W];Force[N];Distance[mm]
1;0;0;0
2;0;504.654;0.0100021
3;0;502.701;0.0100021
4;0;504.654;0.0100021
5;0;504.654;0.0100021
6;0;504.654;0.0100021
7;0;502.701;0.0100021
8;0;494.644;0.0100021
9;0;475.112;0.0200043
10;0;461.196;0.0299988
11;7.01924;445.326;0.0400009
12;16.7852;439.467;0.0600052
13;29.2978;431.654;0.0800018
14;49.1348;427.503;0.090004
15;73.8548;411.878;0.110001
16;98.2696;423.597;0.130005
17;122.99;413.831;0.139999
18;140.385;405.774;0.160004
19;162.664;415.784;0.18
20;187.384;405.774;0.190002
21;204.474;405.774;0.209999
22;224.311;399.915;0.220001
23;244.148;405.774;0.240005
24;263.985;405.774;0.260002
25;283.517;417.737;0.270004
26;305.795;397.961;0.290001
27;328.074;407.971;0.300003
28;340.281;415.784;0.32
29;355.235;403.821;0.330002
30;360.118;413.831;0.340004
31;365.001;411.878;0.360001
32;367.443;419.691;0.370003
33;375.073;413.831;0.380005
34;382.397;413.831;0.389999
35;384.838;405.774;0.410004
36;387.28;429.456;0.420006
37;384.838;417.737;0.43
38;379.955;403.821;0.450005
39;387.28;427.503;0.459999
40;397.046;415.784;0.470001
41;404.675;417.737;0.490005
42;404.675;411.878;0.5
43;407.117;423.597;0.510002
44;409.558;421.644;0.520004
45;409.558;437.513;0.529999
46;426.649;405.774;0.540001
47;436.72;423.597;0.550003
48;444.044;431.654;0.560005
49;448.927;411.878;0.57
50;448.927;423.597;0.580002
51;448.927;421.644;0.599998
52;448.927;431.654;0.610001
53;453.81;419.691;0.620003
54;456.557;421.644;0.630005
55;458.998;411.878;0.639999
56;458.998;443.373;0.650002
57;453.81;429.456;0.660004
58;444.044;419.691;0.670006
59;451.369;445.326;0.68
60;456.557;431.654;0.690002
61;458.998;433.607;0.700005
62;458.998;425.55;0.709999
63;461.44;437.513;0.720001
64;461.44;433.607;0.730003
65;463.881;449.232;0.740005
66;483.718;419.691;0.760002
67;498.367;437.513;0.770004
68;503.25;445.326;0.779999
69;505.692;421.644;0.790001
70;505.692;437.513;0.800003
71;498.367;435.56;0.810005
72;495.926;445.326;0.82
73;500.809;435.56;0.830002
74;503.25;439.467;0.840004
75;510.88;425.55;0.849998
76;513.321;455.336;0.860001
77;505.692;443.373;0.870003
78;500.809;431.654;0.880005
79;508.133;453.383;0.900002
80;520.646;441.42;0.910004
81;527.97;445.326;0.920006
82;532.853;433.607;0.93
83;538.041;445.326;0.940002
84;538.041;443.373;0.950005
85;545.366;457.289;0.959999
86;565.203;429.456;0.970001
87;577.41;443.373;0.980003
88;584.735;453.383;1
89;587.176;433.607;1.01
90;587.176;445.326;1.02
91;582.293;443.373;1.03
92;579.852;453.383;1.04
93;587.176;443.373;1.06001
94;587.176;449.232;1.07
95;592.364;437.513;1.08
96;592.364;465.102;1.09
97;584.735;453.383;1.1
98;577.41;443.373;1.12
99;584.735;463.149;1.13
100;597.247;451.186;1.14
101;604.572;453.383;1.15
102;607.013;445.326;1.16
103;611.896;457.289;1.17001
104;609.455;455.336;1.18
105;616.779;465.102;1.2
106;639.058;441.42;1.21
107;658.895;451.186;1.22
108;668.661;461.196;1.23
109;673.849;445.326;1.24001
110;676.29;453.383;1.26
111;671.102;451.186;1.27
112;668.661;461.196;1.28
113;681.173;451.186;1.3
114;683.615;449.232;1.31001
115;686.056;445.326;1.32
116;690.939;465.102;1.34
117;681.173;451.186;1.35
118;676.29;445.326;1.36
119;690.939;461.196;1.38
120;703.452;451.186;1.39
121;713.218;453.383;1.4
122;720.542;445.326;1.42001
123;725.425;455.336;1.43
124;730.613;455.336;1.44
125;733.055;465.102;1.46
126;755.333;441.42;1.47
127;777.306;455.336;1.48
128;787.378;457.289;1.49001
129;797.143;445.326;1.51
130;802.026;451.186;1.52
131;797.143;451.186;1.53
132;799.585;459.243;1.54
133;809.656;447.279;1.55
134;819.422;449.232;1.57
135;826.746;433.607;1.58
136;824.305;472.915;1.59
137;816.981;455.336;1.6
138;806.909;441.42;1.61
139;826.746;469.008;1.62
140;841.701;451.186;1.63
141;853.908;457.289;1.64
142;858.791;445.326;1.66
143;863.979;461.196;1.67001
144;866.42;453.383;1.68
145;881.069;472.915;1.69
146;915.555;435.56;1.7
147;928.068;453.383;1.71
148;940.275;469.008;1.72
149;950.346;437.513;1.73
150;947.905;453.383;1.74001
151;940.275;453.383;1.75
152;955.229;465.102;1.76
153;967.437;447.279;1.77
154;977.508;453.383;1.78
155;984.832;437.513;1.79
156;982.391;475.112;1.8
157;969.878;459.243;1.81001
158;967.437;443.373;1.82
159;992.157;475.112;1.83
160;1009.55;457.289;1.84
161;1021.76;459.243;1.85
162;1034.27;447.279;1.86
163;1041.6;467.055;1.86
164;1041.6;461.196;1.87
165;1061.43;480.972;1.88
166;1095.92;441.42;1.89
167;1115.76;463.149;1.9
168;1130.41;475.112;1.91
169;1140.48;445.326;1.92001
170;1135.29;465.102;1.92001
171;1127.96;465.102;1.93
172;1142.92;477.065;1.94
173;1160.01;459.243;1.95
174;1170.08;467.055;1.95
175;1179.85;449.232;1.96
176;1179.85;490.738;1.97
177;1165.2;472.915;1.97
178;1167.64;459.243;1.98
179;1199.68;492.691;1.99001
180;1219.52;475.112;2
181;1236.61;472.915;2
182;1251.56;465.102;2.01
183;1254.01;484.878;2.02
184;1249.12;480.972;2.02
185;1273.84;496.597;2.03
186;1308.33;459.243;2.04
187;1330.61;479.019;2.04
188;1345.26;494.644;2.05
189;1350.14;465.102;2.06001
190;1345.26;484.878;2.06001
191;1330.61;486.831;2.07
192;1342.81;494.644;2.07
193;1360.21;479.019;2.08
194;1369.98;482.925;2.08
195;1377.3;475.112;2.09
196;1374.86;508.56;2.1
197;1355.33;490.738;2.1
198;1347.7;482.925;2.11
199;1382.49;510.514;2.11
200;1402.02;492.691;2.12
201;1414.53;492.691;2.12
202;1426.74;486.831;2.13
203;1426.74;504.654;2.13
204;1416.97;504.654;2.14
205;1436.81;512.467;2.14
206;1476.18;479.019;2.15
207;1493.58;504.654;2.15
208;1510.67;508.56;2.16
209;1515.55;488.784;2.16
210;1503.34;502.701;2.17001
211;1491.13;506.607;2.17001
212;1500.9;510.514;2.17001
213;1520.74;498.795;2.18
214;1530.5;496.597;2.18
215;1535.39;492.691;2.19
216;1525.62;524.43;2.19
217;1503.34;504.654;2.19
218;1493.58;498.795;2.2
219;1523.18;524.43;2.2
220;1542.71;510.514;2.21
221;1555.22;502.701;2.21
222;1567.43;504.654;2.21
223;1557.66;520.524;2.22
224;1545.46;522.477;2.22
225;1560.11;522.477;2.22
226;1599.78;498.795;2.23
227;1616.87;522.477;2.23
228;1626.94;522.477;2.24001
229;1629.38;504.654;2.24001
230;1611.99;516.373;2.24001
231;1584.83;518.326;2.25
232;1597.03;526.383;2.25
233;1614.43;506.607;2.25
234;1621.75;514.42;2.26
235;1624.2;504.654;2.26
236;1609.55;542.009;2.26
237;1579.94;520.524;2.27
238;1569.87;510.514;2.27
239;1597.03;540.056;2.27
240;1616.87;522.477;2.28
241;1624.2;516.373;2.28
242;1631.82;514.42;2.28
243;1624.2;532.243;2.29
244;1604.66;526.383;2.29
245;1619.31;540.056;2.29
246;1656.54;504.654;2.3
247;1676.08;526.383;2.3
248;1686.15;534.196;2.3
249;1686.15;508.56;2.31001
250;1663.87;524.43;2.31001
251;1644.03;526.383;2.31001
252;1654.1;534.196;2.32
253;1668.75;520.524;2.32
254;1676.08;518.326;2.32
255;1678.52;514.42;2.32
256;1661.43;550.066;2.33
257;1634.27;526.383;2.33
258;1619.31;520.524;2.33
259;1646.47;550.066;2.34
260;1663.87;528.336;2.34
261;1671.19;522.477;2.34
262;1678.52;522.477;2.34
263;1668.75;538.102;2.35
264;1651.36;538.102;2.35
265;1661.43;542.009;2.35
266;1700.8;512.467;2.36
267;1718.19;538.102;2.36
268;1727.96;536.149;2.36
269;1730.4;518.326;2.36
270;1705.68;532.243;2.37
271;1683.71;540.056;2.37
272;1688.59;540.056;2.37
273;1705.68;526.383;2.38
274;1715.75;520.524;2.38
275;1715.75;524.43;2.38
276;1698.35;550.066;2.38
277;1671.19;528.336;2.39
278;1654.1;528.336;2.39
279;1686.15;552.019;2.39
280;1703.24;536.149;2.39
281;1710.87;536.149;2.4
282;1715.75;524.43;2.4
283;1708.43;553.972;2.4
284;1688.59;536.149;2.4
285;1700.8;559.832;2.41
286;1740.47;512.467;2.41
287;1757.56;534.196;2.41
288;1770.07;550.066;2.41
289;1770.07;518.326;2.42001
290;1747.79;536.149;2.42001
291;1723.07;534.196;2.42001
292;1730.4;550.066;2.42001
293;1747.79;522.477;2.43
294;1755.12;536.149;2.43
295;1755.12;514.42;2.43
296;1738.03;565.935;2.43
297;1705.68;540.056;2.44
298;1691.03;524.43;2.44
299;1718.19;557.878;2.44
300;1740.47;536.149;2.44
301;1747.79;538.102;2.44
302;1755.12;528.336;2.45
303;1742.91;553.972;2.45
304;1720.63;542.009;2.45
305;1735.59;561.785;2.45
306;1777.4;516.373;2.46
307;1797.23;538.102;2.46
308;1807;553.972;2.46
309;1807;522.477;2.46
310;1782.28;540.056;2.46
311;1757.56;542.009;2.47
312;1762.75;552.019;2.47
313;1782.28;526.383;2.47
314;1789.61;540.056;2.47
315;1792.35;522.477;2.47
316;1772.52;569.842;2.48
317;1738.03;546.159;2.48
318;1718.19;530.29;2.48
319;1747.79;565.935;2.48
320;1767.63;544.206;2.48
321;1779.84;542.009;2.49001
322;1784.72;534.196;2.49001
323;1772.52;555.925;2.49001
324;1750.24;548.112;2.49001
325;1760;563.738;2.49001
326;1799.68;520.524;2.5
327;1824.4;546.159;2.5
328;1836.6;555.925;2.5
329;1829.28;524.43;2.5
330;1811.88;546.159;2.5
331;1784.72;546.159;2.51
332;1789.61;555.925;2.51
333;1809.44;536.149;2.51
334;1811.88;540.056;2.51
335;1816.77;530.29;2.51
336;1799.68;573.748;2.52
337;1760;546.159;2.52
338;1742.91;538.102;2.52
339;1772.52;567.888;2.52
340;1797.23;548.112;2.52
341;1804.56;542.009;2.52
342;1807;538.102;2.53
343;1797.23;557.878;2.53
344;1777.4;555.925;2.53
345;1782.28;563.738;2.53
346;1824.4;524.43;2.53
347;1846.68;552.019;2.54
348;1861.32;555.925;2.54
349;1858.88;530.29;2.54
350;1834.16;550.066;2.54
351;1809.44;553.972;2.54
352;1811.88;557.878;2.54
353;1831.72;540.056;2.55
354;1839.05;538.102;2.55
355;1839.05;536.149;2.55
356;1821.96;571.795;2.55
357;1784.72;548.112;2.55
358;1767.63;542.009;2.55
359;1792.35;569.842;2.56001
360;1819.51;550.066;2.56001
361;1826.84;542.009;2.56001
362;1829.28;544.206;2.56001
363;1819.51;559.832;2.56001
364;1794.79;561.785;2.56001
365;1802.12;565.935;2.57
366;1843.93;532.243;2.57
367;1863.77;557.878;2.57
368;1876.28;559.832;2.57
369;1873.84;538.102;2.57
370;1849.12;550.066;2.57
371;1821.96;561.785;2.58
372;1824.4;559.832;2.58
373;1846.68;546.159;2.58
374;1854;540.056;2.58
375;1854;544.206;2.58
376;1834.16;573.748;2.58
377;1802.12;548.112;2.59
378;1779.84;538.102;2.59
379;1809.44;571.795;2.59
380;1834.16;555.925;2.59
381;1841.49;555.925;2.59
382;1846.68;540.056;2.59
383;1831.72;573.748;2.6
384;1809.44;553.972;2.6
385;1819.51;577.654;2.6
386;1858.88;530.29;2.6
387;1881.16;552.019;2.6
388;1890.93;571.795;2.6
389;1890.93;538.102;2.61
390;1871.09;553.972;2.61
391;1839.05;553.972;2.61
392;1841.49;569.842;2.61
393;1863.77;540.056;2.61
394;1871.09;553.972;2.61
395;1868.65;536.149;2.61
396;1856.44;585.467;2.62
397;1816.77;561.785;2.62
398;1794.79;542.009;2.62
399;1824.4;579.608;2.62
400;1849.12;555.925;2.62
401;1858.88;557.878;2.62
402;1861.32;544.206;2.62
403;1849.12;573.748;2.63
404;1824.4;559.832;2.63
405;1829.28;581.561;2.63
406;1873.84;530.29;2.63
407;1895.81;557.878;2.63
408;1908.32;573.748;2.63
409;1908.32;540.056;2.64
410;1883.6;557.878;2.64
411;1856.44;561.785;2.64
412;1854;571.795;2.64
413;1876.28;544.206;2.64
414;1886.04;557.878;2.64
415;1886.04;542.009;2.64
416;1868.65;587.42;2.64
417;1829.28;561.785;2.65
418;1804.56;550.066;2.65
419;1836.6;585.467;2.65
420;1858.88;561.785;2.65
421;1871.09;555.925;2.65
422;1873.84;552.019;2.65
423;1861.32;573.748;2.65
424;1836.6;563.738;2.66
425;1843.93;583.514;2.66
426;1886.04;534.196;2.66
427;1908.32;561.785;2.66
428;1922.97;573.748;2.66
429;1920.53;540.056;2.66
430;1895.81;563.738;2.66
431;1866.21;563.738;2.66
432;1868.65;575.701;2.67001
433;1888.49;550.066;2.67001
434;1895.81;555.925;2.67001
435;1895.81;548.112;2.67001
436;1878.72;591.571;2.67001
437;1841.49;561.785;2.67001
438;1819.51;553.972;2.67001
439;1846.68;587.42;2.67001
440;1871.09;561.785;2.68
441;1881.16;559.832;2.68
442;1883.6;555.925;2.68
443;1871.09;573.748;2.68
444;1846.68;569.842;2.68
445;1849.12;579.608;2.68
446;1893.37;542.009;2.68
447;1915.65;565.935;2.68
448;1930.6;575.701;2.69
449;1930.6;546.159;2.69
450;1905.88;563.738;2.69
451;1876.28;571.795;2.69
452;1876.28;573.748;2.69
453;1895.81;555.925;2.69
454;1903.44;555.925;2.69
455;1905.88;552.019;2.69
456;1886.04;587.42;2.7
457;1851.56;563.738;2.7
458;1824.4;557.878;2.7
459;1851.56;585.467;2.7
460;1878.72;565.935;2.7
461;1890.93;557.878;2.7
462;1893.37;559.832;2.7
463;1878.72;575.701;2.7
464;1854;575.701;2.7
465;1856.44;579.608;2.71
466;1903.44;546.159;2.71
467;1928.16;571.795;2.71
468;1940.37;571.795;2.71
469;1937.93;552.019;2.71
470;1915.65;565.935;2.71
471;1886.04;573.748;2.71
472;1886.04;571.795;2.71
473;1905.88;559.832;2.71
474;1915.65;552.019;2.72
475;1915.65;557.878;2.72
476;1898.25;591.571;2.72
477;1858.88;565.935;2.72
478;1834.16;557.878;2.72
479;1861.32;591.571;2.72
480;1888.49;565.935;2.72
481;1898.25;561.785;2.72
482;1903.44;557.878;2.73
483;1890.93;579.608;2.73
484;1866.21;571.795;2.73
485;1866.21;583.514;2.73
486;1910.76;542.009;2.73
487;1937.93;569.842;2.73
488;1950.13;577.654;2.73
489;1947.69;546.159;2.73
490;1922.97;567.888;2.73
491;1893.37;569.842;2.74001
492;1893.37;575.701;2.74001
493;1915.65;555.925;2.74001
494;1925.41;557.878;2.74001
495;1922.97;553.972;2.74001
496;1905.88;591.571;2.74001
497;1868.65;565.935;2.74001
498;1841.49;559.832;2.74001
499;1871.09;591.571;2.74001
500;1893.37;567.888;2.75
501;1908.32;559.832;2.75
502;1913.21;559.832;2.75
503;1898.25;577.654;2.75
504;1873.84;575.701;2.75
505;1873.84;581.561;2.75
506;1918.09;546.159;2.75
507;1945.25;573.748;2.75
508;1957.76;573.748;2.75
509;1957.76;552.019;2.75
510;1933.04;569.842;2.76
511;1903.44;575.701;2.76
512;1901;575.701;2.76
513;1925.41;559.832;2.76
514;1933.04;553.972;2.76
515;1933.04;555.925;2.76
516;1915.65;587.42;2.76
517;1878.72;563.738;2.76
518;1849.12;563.738;2.76
519;1878.72;585.467;2.77
520;1903.44;565.935;2.77
521;1915.65;559.832;2.77
522;1918.09;563.738;2.77
523;1908.32;575.701;2.77
524;1883.6;581.561;2.77
525;1881.16;595.477;2.77
526;1928.16;546.159;2.77
527;1955.32;563.738;2.77
528;1967.53;585.467;2.77
529;1969.97;550.066;2.78
530;1942.81;567.888;2.78
531;1913.21;565.935;2.78
532;1910.76;581.561;2.78
533;1933.04;550.066;2.78
534;1940.37;567.888;2.78
535;1940.37;546.159;2.78
536;1925.41;595.477;2.78
537;1888.49;571.795;2.78
538;1858.88;553.972;2.78
539;1886.04;589.618;2.79
540;1913.21;569.842;2.79
541;1925.41;567.888;2.79
542;1928.16;557.878;2.79
543;1915.65;587.42;2.79
544;1890.93;569.842;2.79
545;1888.49;589.618;2.79
546;1935.48;542.009;2.79
547;1960.2;567.888;2.79
548;1974.85;583.514;2.79
549;1972.41;550.066;2.8
550;1950.13;567.888;2.8
551;1915.65;569.842;2.8
552;1913.21;581.561;2.8
553;1935.48;552.019;2.8
554;1947.69;563.738;2.8
555;1945.25;548.112;2.8
556;1930.6;597.43;2.8
557;1890.93;571.795;2.8
558;1861.32;555.925;2.8
559;1886.04;593.524;2.8
560;1913.21;567.888;2.81001
561;1925.41;567.888;2.81001
562;1933.04;557.878;2.81001
563;1918.09;585.467;2.81001
564;1890.93;571.795;2.81001
565;1890.93;591.571;2.81001
566;1933.04;544.206;2.81001
567;1960.2;569.842;2.81001
568;1974.85;583.514;2.81001
569;1974.85;550.066;2.81001
570;1950.13;569.842;2.81001
571;1920.53;573.748;2.82
572;1915.65;579.608;2.82
573;1937.93;555.925;2.82
574;1945.25;565.935;2.82
575;1947.69;553.972;2.82
576;1930.6;599.384;2.82
577;1893.37;571.795;2.82
578;1863.77;559.832;2.82
579;1888.49;595.477;2.82
580;1915.65;571.795;2.82
581;1928.16;565.935;2.82
582;1933.04;561.785;2.83
583;1920.53;583.514;2.83
584;1893.37;573.748;2.83
585;1890.93;589.618;2.83
586;1935.48;546.159;2.83
587;1962.65;571.795;2.83
588;1977.29;579.608;2.83
589;1977.29;552.019;2.83
590;1955.32;571.795;2.83
591;1920.53;575.701;2.83
592;1915.65;583.514;2.83
593;1937.93;559.832;2.83
594;1945.25;561.785;2.84
595;1947.69;557.878;2.84
596;1933.04;593.524;2.84
597;1895.81;567.888;2.84
598;1866.21;563.738;2.84
599;1888.49;595.477;2.84
600;1918.09;569.842;2.84
601;1930.6;563.738;2.84
602;1935.48;563.738;2.84
603;1922.97;581.561;2.84
604;1898.25;579.608;2.84
605;1893.37;587.42;2.84
606;1937.93;550.066;2.85
607;1962.65;577.654;2.85
608;1979.74;579.608;2.85
609;1979.74;553.972;2.85
610;1955.32;571.795;2.85
611;1928.16;579.608;2.85
612;1920.53;579.608;2.85
613;1940.37;561.785;2.85
614;1950.13;557.878;2.85
615;1952.57;561.785;2.85
616;1940.37;591.571;2.85
617;1901;567.888;2.85
618;1868.65;567.888;2.86
619;1893.37;591.571;2.86
620;1925.41;571.795;2.86
621;1935.48;561.785;2.86
622;1940.37;557.878;2.86
623;1930.6;591.571;2.86
624;1903.44;571.795;2.86
625;1898.25;597.43;2.86
626;1945.25;550.066;2.86
627;1972.41;569.842;2.86
628;1987.37;587.42;2.86
629;1984.92;555.925;2.86
630;1965.09;573.748;2.86
631;1933.04;569.842;2.87
632;1922.97;583.514;2.87
633;1947.69;552.019;2.87
634;1957.76;571.795;2.87
635;1960.2;550.066;2.87
636;1945.25;601.337;2.87
637;1910.76;573.748;2.87
638;1878.72;557.878;2.87
639;1898.25;595.477;2.87
640;1930.6;571.795;2.87
641;1940.37;571.795;2.87
642;1945.25;561.785;2.87
643;1935.48;589.618;2.88
644;1908.32;571.795;2.88
645;1903.44;593.524;2.88
646;1945.25;546.159;2.88
647;1982.48;571.795;2.88
648;1994.69;589.618;2.88
649;1987.37;552.019;2.88
650;1957.76;571.795;2.88
651;1930.6;573.748;2.88
652;1940.37;585.467;2.88
653;1957.76;555.925;2.88
654;1965.09;567.888;2.88
655;1962.65;553.972;2.88
656;1937.93;601.337;2.88
657;1898.25;577.654;2.89
658;1886.04;563.738;2.89
659;1918.09;595.477;2.89
660;1940.37;571.795;2.89
661;1952.57;569.842;2.89
662;1947.69;563.738;2.89
663;1930.6;591.571;2.89
664;1905.88;573.748;2.89
665;1920.53;593.524;2.89
666;1965.09;544.206;2.89
667;1987.37;571.795;2.89
668;1997.13;585.467;2.89
669;1989.81;550.066;2.89
670;1962.65;571.795;2.9
671;1933.04;575.701;2.9
672;1940.37;581.561;2.9
673;1962.65;557.878;2.9
674;1969.97;565.935;2.9
675;1967.53;555.925;2.9
676;1940.37;601.337;2.9
677;1898.25;573.748;2.9
678;1883.6;561.785;2.9
679;1922.97;597.43;2.9
680;1945.25;569.842;2.9
681;1950.13;567.888;2.9
682;1950.13;563.738;2.9
683;1935.48;585.467;2.9
684;1908.32;577.654;2.91
685;1922.97;589.618;2.91
686;1967.53;548.112;2.91
687;1987.37;575.701;2.91
688;1999.57;583.514;2.91
689;1994.69;552.019;2.91
690;1965.09;573.748;2.91
691;1937.93;577.654;2.91
692;1945.25;581.561;2.91
693;1967.53;559.832;2.91
694;1972.41;563.738;2.91
695;1972.41;559.832;2.91
696;1942.81;599.384;2.91
697;1905.88;569.842;2.91
698;1888.49;565.935;2.92001
699;1922.97;595.477;2.92001
700;1945.25;573.748;2.92001
701;1955.32;563.738;2.92001
702;1957.76;567.888;2.92001
703;1937.93;583.514;2.92001
704;1910.76;581.561;2.92001
705;1928.16;589.618;2.92001
706;1972.41;550.066;2.92001
707;1992.25;577.654;2.92001
708;2004.46;577.654;2.92001
709;1997.13;557.878;2.92001
710;1969.97;571.795;2.92001
711;1937.93;579.608;2.92001
712;1947.69;583.514;2.92001
713;1967.53;563.738;2.92001
714;1974.85;557.878;2.93
715;1972.41;561.785;2.93
716;1947.69;593.524;2.93
717;1905.88;565.935;2.93
718;1888.49;569.842;2.93
719;1928.16;597.43;2.93
720;1947.69;571.795;2.93
721;1957.76;567.888;2.93
722;1960.2;563.738;2.93
723;1940.37;587.42;2.93
724;1915.65;577.654;2.93
725;1928.16;589.618;2.93
726;1974.85;548.112;2.93
727;1997.13;575.701;2.93
728;2009.64;583.514;2.93
729;1999.57;550.066;2.93
730;1972.41;573.748;2.94
731;1940.37;577.654;2.94
732;1950.13;585.467;2.94
733;1969.97;561.785;2.94
734;1977.29;563.738;2.94
735;1977.29;555.925;2.94
736;1950.13;601.337;2.94
737;1913.21;571.795;2.94
738;1893.37;563.738;2.94
739;1928.16;597.43;2.94
740;1952.57;571.795;2.94
741;1962.65;567.888;2.94
742;1965.09;565.935;2.94
743;1945.25;585.467;2.94
744;1918.09;579.608;2.94
745;1930.6;589.618;2.94
746;1977.29;550.066;2.95
747;1994.69;573.748;2.95
748;2009.64;583.514;2.95
749;2004.46;553.972;2.95
750;1977.29;573.748;2.95
751;1942.81;575.701;2.95
752;1952.57;581.561;2.95
753;1972.41;561.785;2.95
754;1979.74;561.785;2.95
755;1979.74;559.832;2.95
756;1955.32;597.43;2.95
757;1918.09;569.842;2.95
758;1893.37;565.935;2.95
759;1930.6;591.571;2.95
760;1952.57;571.795;2.95
761;1962.65;563.738;2.96
762;1965.09;567.888;2.96
763;1950.13;583.514;2.96
764;1922.97;581.561;2.96
765;1930.6;585.467;2.96
766;1977.29;550.066;2.96
767;1999.57;579.608;2.96
768;2012.09;589.618;2.96
769;2006.9;555.925;2.96
770;1979.74;571.795;2.96
771;1947.69;567.888;2.96
772;1955.32;585.467;2.96
773;1974.85;553.972;2.96
774;1982.48;569.842;2.96
775;1982.48;548.112;2.96
776;1957.76;599.384;2.96
777;1920.53;577.654;2.97
778;1898.25;555.925;2.97
779;1933.04;593.524;2.97
780;1955.32;573.748;2.97
781;1967.53;571.795;2.97
782;1967.53;557.878;2.97
783;1950.13;591.571;2.97
784;1925.41;573.748;2.97
785;1933.04;595.477;2.97
786;1979.74;548.112;2.97
787;2002.01;567.888;2.97
788;2016.97;585.467;2.97
789;2012.09;553.972;2.97
790;1982.48;571.795;2.97
791;1952.57;573.748;2.97
792;1957.76;585.467;2.98
793;1979.74;553.972;2.98
794;1984.92;571.795;2.98
795;1982.48;550.066;2.98
796;1962.65;601.337;2.98
797;1925.41;573.748;2.98
798;1903.44;557.878;2.98
799;1935.48;593.524;2.98
800;1962.65;571.795;2.98
801;1972.41;571.795;2.98
802;1974.85;559.832;2.98
803;1957.76;589.618;2.98
804;1928.16;573.748;2.98
805;1940.37;593.524;2.98
806;1984.92;546.159;2.98
807;2009.64;569.842;2.98
808;2021.85;585.467;2.99001
809;2016.97;552.019;2.99001
810;1989.81;571.795;2.99001
811;1960.2;575.701;2.99001
812;1962.65;583.514;2.99001
813;1982.48;557.878;2.99001
814;1989.81;567.888;2.99001
815;1987.37;553.972;2.99001
816;1967.53;601.337;2.99001
817;1928.16;573.748;2.99001
818;1905.88;559.832;2.99001
819;1937.93;595.477;2.99001
820;1965.09;571.795;2.99001
821;1974.85;569.842;2.99001
822;1977.29;561.785;2.99001
823;1960.2;587.42;2.99001
824;1933.04;575.701;3
825;1942.81;593.524;3
826;1989.81;546.159;3
827;2012.09;573.748;3
828;2024.29;583.514;3
829;2021.85;550.066;3
830;1992.25;571.795;3
831;1965.09;575.701;3
832;1965.09;583.514;3
833;1984.92;559.832;3
834;1992.25;563.738;3
835;1992.25;555.925;3
836;1972.41;599.384;3
837;1933.04;571.795;3
838;1908.32;563.738;3
839;1942.81;597.43;3.01
840;1967.53;571.795;3.01
841;1977.29;565.935;3.01
842;1979.74;563.738;3.01
843;1965.09;583.514;3.01
844;1937.93;577.654;3.01
845;1942.81;587.42;3.01
846;1989.81;546.159;3.01
847;2014.53;575.701;3.01
848;2026.73;579.608;3.01
849;2024.29;552.019;3.01
850;1997.13;571.795;3.01
851;1965.09;581.561;3.01
852;1967.53;581.561;3.01
853;1987.37;561.785;3.01
854;1994.69;561.785;3.02
855;1994.69;559.832;3.02
856;1972.41;597.43;3.02
857;1935.48;569.842;3.02
858;1910.76;565.935;3.02
859;1942.81;593.524;3.02
860;1969.97;569.842;3.02
861;1979.74;563.738;3.02
862;1982.48;565.935;3.02
863;1969.97;579.608;3.02
864;1940.37;583.514;3.02
865;1945.25;597.43;3.02
866;1994.69;553.972;3.02
867;2016.97;569.842;3.02
868;2031.62;587.42;3.02
869;2026.73;553.972;3.02
870;1999.57;571.795;3.03
871;1969.97;569.842;3.03
872;1969.97;587.42;3.03
873;1992.25;553.972;3.03
874;1997.13;567.888;3.03
875;1997.13;546.159;3.03
876;1977.29;597.43;3.03
877;1940.37;575.701;3.03
878;1913.21;555.925;3.03
879;1945.25;591.571;3.03
880;1974.85;571.795;3.03
881;1982.48;573.748;3.03
882;1987.37;557.878;3.03
883;1972.41;591.571;3.03
884;1945.25;571.795;3.03
885;1947.69;597.43;3.04
886;1994.69;548.112;3.04
887;2019.41;569.842;3.04
888;2034.06;589.618;3.04
889;2029.18;553.972;3.04
890;2002.01;573.748;3.04
891;1969.97;569.842;3.04
892;1972.41;583.514;3.04
893;1994.69;553.972;3.04
894;1999.57;567.888;3.04
895;2002.01;548.112;3.04
896;1979.74;603.29;3.04
897;1942.81;573.748;3.04
898;1915.65;557.878;3.04
899;1947.69;593.524;3.04
900;1972.41;571.795;3.05
901;1987.37;569.842;3.05
902;1987.37;557.878;3.05
903;1969.97;589.618;3.05
904;1940.37;573.748;3.05
905;1960.2;595.477;3.05
906;2004.46;544.206;3.05
907;2024.29;573.748;3.05
908;2039.25;585.467;3.05
909;2029.18;550.066;3.05
910;1999.57;571.795;3.05
911;1969.97;573.748;3.05
912;1979.74;585.467;3.05
913;1999.57;557.878;3.05
914;2004.46;565.935;3.05
915;2002.01;552.019;3.06001
916;1977.29;601.337;3.06001
917;1937.93;573.748;3.06001
918;1922.97;559.832;3.06001
919;1957.76;595.477;3.06001
920;1979.74;571.795;3.06001
921;1989.81;567.888;3.06001
922;1989.81;561.785;3.06001
923;1974.85;585.467;3.06001
924;1942.81;575.701;3.06001
925;1957.76;591.571;3.06001
926;2006.9;544.206;3.06001
927;2029.18;571.795;3.06001
928;2039.25;583.514;3.06001
929;2029.18;550.066;3.06001
930;2002.01;571.795;3.06001
931;1972.41;577.654;3.07
932;1982.48;583.514;3.07
933;2002.01;559.832;3.07
934;2004.46;561.785;3.07
935;2004.46;555.925;3.07
936;1977.29;601.337;3.07
937;1937.93;569.842;3.07
938;1922.97;561.785;3.07
939;1957.76;595.477;3.07
940;1979.74;571.795;3.07
941;1989.81;565.935;3.07
942;1989.81;563.738;3.07
943;1974.85;583.514;3.07
944;1945.25;579.608;3.07
945;1960.2;587.42;3.07
946;2004.46;548.112;3.08
947;2026.73;575.701;3.08
948;2039.25;581.561;3.08
949;2031.62;553.972;3.08
950;2004.46;567.888;3.08
951;1972.41;575.701;3.08
952;1977.29;579.608;3.08
953;2004.46;559.832;3.08
954;2006.9;559.832;3.08
955;2009.64;557.878;3.08
956;1979.74;595.477;3.08
957;1940.37;567.888;3.08
958;1922.97;565.935;3.08
959;1960.2;589.618;3.08
960;1979.74;571.795;3.08
961;1989.81;559.832;3.08
962;1992.25;565.935;3.09
963;1977.29;587.42;3.09
964;1945.25;571.795;3.09
965;1960.2;593.524;3.09
966;2004.46;542.009;3.09
967;2026.73;569.842;3.09
968;2041.69;583.514;3.09
969;2039.25;548.112;3.09
970;2006.9;571.795;3.09
971;1977.29;573.748;3.09
972;1982.48;583.514;3.09
973;2004.46;555.925;3.09
974;2009.64;565.935;3.09
975;2009.64;552.019;3.09
976;1982.48;599.384;3.09
977;1942.81;571.795;3.1
978;1928.16;561.785;3.1
979;1960.2;595.477;3.1
980;1984.92;571.795;3.1
981;1994.69;567.888;3.1
982;1997.13;563.738;3.1
983;1977.29;585.467;3.1
984;1952.57;575.701;3.1
985;1962.65;589.618;3.1
986;2009.64;546.159;3.1
987;2029.18;573.748;3.1
988;2044.13;583.514;3.1
989;2036.81;552.019;3.1
990;2009.64;571.795;3.1
991;1977.29;577.654;3.1
992;1984.92;581.561;3.1
993;2004.46;557.878;3.11
994;2012.09;561.785;3.11
995;2012.09;557.878;3.11
996;1987.37;595.477;3.11
997;1945.25;567.888;3.11
998;1928.16;561.785;3.11
999;1962.65;595.477;3.11
1000;1984.92;569.842;3.11
1001;1994.69;561.785;3.11
1002;1999.57;561.785;3.11
1003;1979.74;581.561;3.11
1004;1952.57;579.608;3.11
1005;1960.2;585.467;3.11
1006;2012.09;548.112;3.11
1007;2031.62;575.701;3.11
1008;2044.13;579.608;3.11
1009;2039.25;552.019;3.12
1010;2009.64;571.795;3.12
1011;1977.29;581.561;3.12
1012;1979.74;579.608;3.12
1013;2006.9;550.066;3.12
1014;2012.09;567.888;3.12
1015;2012.09;542.009;3.12
1016;1989.81;593.524;3.12
1017;1950.13;575.701;3.12
1018;1930.6;553.972;3.12
1019;1962.65;589.618;3.12
1020;1984.92;571.795;3.12
1021;1997.13;569.842;3.12
1022;1999.57;555.925;3.12
1023;1982.48;591.571;3.12
1024;1955.32;573.748;3.13
1025;1962.65;595.477;3.13
1026;2009.64;548.112;3.13
1027;2034.06;567.888;3.13
1028;2044.13;587.42;3.13
1029;2039.25;553.972;3.13
1030;2012.09;569.842;3.13
1031;1979.74;567.888;3.13
1032;1982.48;583.514;3.13
1033;2006.9;553.972;3.13
1034;2012.09;567.888;3.13
1035;2012.09;548.112;3.13
1036;1989.81;601.337;3.13
1037;1950.13;573.748;3.13
1038;1928.16;553.972;3.13
1039;1962.65;591.571;3.13
1040;1984.92;569.842;3.14
1041;1997.13;571.795;3.14
1042;1999.57;557.878;3.14
1043;1982.48;587.42;3.14
1044;1955.32;571.795;3.14
1045;1962.65;595.477;3.14
1046;2009.64;546.159;3.14
1047;2034.06;569.842;3.14
1048;2046.57;587.42;3.14
1049;2041.69;552.019;3.14
1050;2014.53;571.795;3.14
1051;1982.48;571.795;3.14
1052;1982.48;583.514;3.14
1053;2006.9;553.972;3.14
1054;2009.64;563.738;3.14
1055;2012.09;550.066;3.14
1056;1989.81;601.337;3.15
1057;1950.13;573.748;3.15
1058;1928.16;557.878;3.15
1059;1960.2;595.477;3.15
1060;1987.37;571.795;3.15
1061;1997.13;567.888;3.15
1062;1999.57;559.832;3.15
1063;1984.92;585.467;3.15
1064;1955.32;573.748;3.15
1065;1962.65;591.571;3.15
1066;2009.64;544.206;3.15
1067;2034.06;571.795;3.15
1068;2049.01;583.514;3.15
1069;2041.69;548.112;3.15
1070;2014.53;569.842;3.15
1071;1982.48;573.748;3.15
1072;1984.92;581.561;3.16
1073;2006.9;555.925;3.16
1074;2014.53;565.935;3.16
1075;2012.09;550.066;3.16
1076;1992.25;599.384;3.16
1077;1952.57;571.795;3.16
1078;1928.16;559.832;3.16
1079;1962.65;595.477;3.16
1080;1984.92;571.795;3.16
1081;1999.57;563.738;3.16
1082;2002.01;557.878;3.16
1083;1984.92;581.561;3.16
1084;1957.76;575.701;3.16
1085;1962.65;587.42;3.16
1086;2009.64;544.206;3.16
1087;2031.62;571.795;3.16
1088;2046.57;579.608;3.16
1089;2044.13;548.112;3.17001
1090;2016.97;567.888;3.17001
1091;1982.48;577.654;3.17001
1092;1984.92;581.561;3.17001
1093;2012.09;557.878;3.17001
1094;2016.97;561.785;3.17001
1095;2016.97;555.925;3.17001
1096;1994.69;595.477;3.17001
1097;1955.32;567.888;3.17001
1098;1928.16;561.785;3.17001
1099;1962.65;593.524;3.17001
1100;1987.37;569.842;3.17001
1101;1999.57;561.785;3.17001
1102;2002.01;561.785;3.17001
1103;1984.92;579.608;3.17001
1104;1960.2;581.561;3.17001
1105;1962.65;585.467;3.18
1106;2012.09;548.112;3.18
1107;2036.81;573.748;3.18
1108;2049.01;577.654;3.18
1109;2044.13;553.972;3.18
1110;2019.41;569.842;3.18
1111;1984.92;565.935;3.18
1112;1987.37;583.514;3.18
1113;2009.64;550.066;3.18
1114;2016.97;567.888;3.18
1115;2016.97;544.206;3.18
1116;1994.69;593.524;3.18
1117;1957.76;573.748;3.18
1118;1930.6;552.019;3.18
1119;1962.65;587.42;3.18
1120;1987.37;571.795;3.18
1121;1999.57;573.748;3.18
1122;2004.46;555.925;3.19
1123;1987.37;589.618;3.19
1124;1960.2;571.795;3.19
1125;1965.09;595.477;3.19
1126;2009.64;546.159;3.19
1127;2036.81;565.935;3.19
1128;2049.01;587.42;3.19
1129;2049.01;553.972;3.19
1130;2019.41;567.888;3.19
1131;1987.37;565.935;3.19
1132;1987.37;583.514;3.19
1133;2009.64;553.972;3.19
1134;2019.41;567.888;3.19
1135;2016.97;546.159;3.19
1136;1997.13;597.43;3.19
1137;1960.2;573.748;3.19
1138;1933.04;555.925;3.19
1139;1962.65;589.618;3.2
1140;1989.81;569.842;3.2
1141;1999.57;569.842;3.2
1142;2004.46;555.925;3.2
1143;1989.81;587.42;3.2
1144;1962.65;569.842;3.2
1145;1965.09;595.477;3.2
1146;2012.09;544.206;3.2
1147;2036.81;567.888;3.2
1148;2049.01;585.467;3.2
1149;2046.57;552.019;3.2
1150;2019.41;569.842;3.2
1151;1987.37;567.888;3.2
1152;1987.37;583.514;3.2
1153;2012.09;552.019;3.2
1154;2019.41;565.935;3.2
1155;2019.41;548.112;3.2
1156;1997.13;599.384;3.2
1157;1957.76;571.795;3.21
1158;1933.04;557.878;3.21
1159;1962.65;593.524;3.21
1160;1992.25;569.842;3.21
1161;2002.01;567.888;3.21
1162;2006.9;557.878;3.21
1163;1992.25;585.467;3.21
1164;1962.65;571.795;3.21
1165;1960.2;593.524;3.21
1166;2009.64;542.009;3.21
1167;2039.25;569.842;3.21
1168;2049.01;581.561;3.21
1169;2046.57;550.066;3.21
1170;2021.85;569.842;3.21
1171;1989.81;573.748;3.21
1172;1987.37;581.561;3.21
1173;2012.09;555.925;3.22
1174;2019.41;561.785;3.22
1175;2019.41;552.019;3.22
1176;1999.57;599.384;3.22
1177;1962.65;569.842;3.22
1178;1933.04;559.832;3.22
1179;1965.09;595.477;3.22
1180;1989.81;567.888;3.22
1181;2002.01;563.738;3.22
1182;2009.64;561.785;3.22
1183;1992.25;583.514;3.22
1184;1965.09;573.748;3.22
1185;1962.65;587.42;3.22
1186;2012.09;544.206;3.22
1187;2039.25;569.842;3.22
1188;2053.9;581.561;3.22
1189;2049.01;548.112;3.23
1190;2026.73;569.842;3.23
1191;1992.25;573.748;3.23
1192;1989.81;577.654;3.23
1193;2009.64;557.878;3.23
1194;2021.85;561.785;3.23
1195;2021.85;553.972;3.23
1196;2002.01;597.43;3.23
1197;1960.2;567.888;3.23
1198;1933.04;559.832;3.23
1199;1962.65;593.524;3.23
1200;1992.25;569.842;3.23
1201;2006.9;561.785;3.23
1202;2006.9;563.738;3.23
1203;1994.69;577.654;3.23
1204;1965.09;577.654;3.23
1205;1967.53;583.514;3.24001
1206;2012.09;546.159;3.24001
1207;2036.81;573.748;3.24001
1208;2053.9;583.514;3.24001
1209;2051.45;548.112;3.24001
1210;2024.29;567.888;3.24001
1211;1992.25;571.795;3.24001
1212;1989.81;581.561;3.24001
1213;2014.53;553.972;3.24001
1214;2021.85;563.738;3.24001
1215;2024.29;548.112;3.24001
1216;2002.01;599.384;3.24001
1217;1962.65;569.842;3.24001
1218;1933.04;555.925;3.24001
1219;1962.65;593.524;3.24001
1220;1992.25;569.842;3.24001
1221;1999.57;565.935;3.25
1222;2006.9;557.878;3.25
1223;1992.25;583.514;3.25
1224;1965.09;573.748;3.25
1225;1962.65;589.618;3.25
1226;2012.09;544.206;3.25
1227;2039.25;569.842;3.25
1228;2051.45;581.561;3.25
1229;2051.45;548.112;3.25
1230;2024.29;569.842;3.25
1231;1989.81;573.748;3.25
1232;1989.81;577.654;3.25
1233;2012.09;557.878;3.25
1234;2019.41;561.785;3.25
1235;2021.85;552.019;3.25
1236;2002.01;597.43;3.25
1237;1965.09;569.842;3.26
1238;1937.93;559.832;3.26
1239;1960.2;595.477;3.26
1240;1992.25;567.888;3.26
1241;2004.46;563.738;3.26
1242;2009.64;561.785;3.26
1243;1997.13;579.608;3.26
1244;1967.53;577.654;3.26
1245;1962.65;585.467;3.26
1246;2009.64;546.159;3.26
1247;2039.25;571.795;3.26
1248;2051.45;579.608;3.26
1249;2051.45;550.066;3.26
1250;2026.73;569.842;3.26
1251;1994.69;573.748;3.26
1252;1989.81;579.608;3.26
1253;2014.53;559.832;3.27
1254;2019.41;557.878;3.27
1255;2021.85;557.878;3.27
1256;2004.46;593.524;3.27
1257;1967.53;571.795;3.27
1258;1935.48;550.066;3.27
1259;1962.65;585.467;3.27
1260;1989.81;569.842;3.27
1261;2002.01;569.842;3.27
1262;2006.9;553.972;3.27
1263;1994.69;587.42;3.27
1264;1967.53;567.888;3.27
1265;1962.65;593.524;3.27
1266;2006.9;552.019;3.27
1267;2036.81;563.738;3.27
1268;2051.45;587.42;3.27
1269;2051.45;555.925;3.28
1270;2024.29;569.842;3.28
1271;1992.25;565.935;3.28
1272;1987.37;583.514;3.28
1273;2012.09;550.066;3.28
1274;2021.85;565.935;3.28
1275;2021.85;542.009;3.28
1276;2006.9;595.477;3.28
1277;1967.53;573.748;3.28
1278;1933.04;552.019;3.28
1279;1960.2;589.618;3.28
1280;1992.25;569.842;3.28
1281;1999.57;569.842;3.28
1282;2006.9;555.925;3.28
1283;1992.25;587.42;3.28
1284;1967.53;569.842;3.28
1285;1962.65;593.524;3.29
1286;2006.9;544.206;3.29
1287;2036.81;565.935;3.29
1288;2051.45;585.467;3.29
1289;2053.9;552.019;3.29
1290;2026.73;567.888;3.29
1291;1994.69;567.888;3.29
1292;1987.37;583.514;3.29
1293;2009.64;552.019;3.29
1294;2019.41;565.935;3.29
1295;2019.41;546.159;3.29
1296;2002.01;597.43;3.29
1297;1967.53;571.795;3.29
1298;1935.48;553.972;3.29
1299;1955.32;589.618;3.29
1300;1987.37;567.888;3.3
1301;2002.01;565.935;3.3
1302;2006.9;555.925;3.3
1303;1994.69;587.42;3.3
1304;1969.97;569.842;3.3
1305;1960.2;593.524;3.3
1306;2006.9;542.009;3.3
1307;2034.06;567.888;3.3
1308;2051.45;583.514;3.3
1309;2053.9;548.112;3.3
1310;2029.18;569.842;3.3
1311;1992.25;569.842;3.3
1312;1987.37;579.608;3.3
1313;2009.64;553.972;3.3
1314;2021.85;561.785;3.3
1315;2021.85;550.066;3.3
1316;2006.9;597.43;3.31001
1317;1969.97;569.842;3.31001
1318;1935.48;557.878;3.31001
1319;1957.76;591.571;3.31001
1320;1989.81;567.888;3.31001
1321;1999.57;563.738;3.31001
1322;2009.64;559.832;3.31001
1323;1999.57;581.561;3.31001
1324;1967.53;573.748;3.31001
1325;1960.2;587.42;3.31001
1326;2006.9;542.009;3.31001
1327;2036.81;569.842;3.31001
1328;2051.45;579.608;3.31001
1329;2053.9;546.159;3.31001
1330;2026.73;567.888;3.31001
1331;1994.69;571.795;3.31001
1332;1984.92;577.654;3.32
1333;2009.64;555.925;3.32
1334;2019.41;559.832;3.32
1335;2021.85;552.019;3.32
1336;2006.9;593.524;3.32
1337;1969.97;567.888;3.32
1338;1935.48;557.878;3.32
1339;1957.76;595.477;3.32
1340;1987.37;567.888;3.32
1341;2004.46;561.785;3.32
1342;2009.64;557.878;3.32
1343;1994.69;579.608;3.32
1344;1969.97;573.748;3.32
1345;1960.2;587.42;3.32
1346;2004.46;544.206;3.32
1347;2036.81;571.795;3.32
1348;2049.01;577.654;3.33
1349;2051.45;548.112;3.33
1350;2029.18;567.888;3.33
1351;1994.69;573.748;3.33
1352;1987.37;575.701;3.33
1353;2009.64;557.878;3.33
1354;2019.41;565.935;3.33
1355;2021.85;540.056;3.33
1356;2006.9;587.42;3.33
1357;1969.97;571.795;3.33
1358;1935.48;550.066;3.33
1359;1955.32;583.514;3.33
1360;1987.37;569.842;3.33
1361;1999.57;569.842;3.33
1362;2006.9;553.972;3.33
1363;1994.69;587.42;3.33
1364;1969.97;565.935;3.34
1365;1957.76;595.477;3.34
1366;2006.9;550.066;3.34
1367;2039.25;565.935;3.34
1368;2049.01;585.467;3.34
1369;2053.9;552.019;3.34
1370;2029.18;567.888;3.34
1371;1997.13;563.738;3.34
1372;1984.92;579.608;3.34
1373;2012.09;550.066;3.34
1374;2019.41;565.935;3.34
1375;2021.85;542.009;3.34
1376;2006.9;593.524;3.34
1377;1969.97;571.795;3.34
1378;1935.48;550.066;3.34
1379;1952.57;587.42;3.34
1380;1987.37;569.842;3.35
1381;2002.01;569.842;3.35
1382;2006.9;555.925;3.35
1383;1994.69;587.42;3.35
1384;1969.97;569.842;3.35
1385;1960.2;593.524;3.35
1386;2004.46;544.206;3.35
1387;2034.06;565.935;3.35
1388;2051.45;583.514;3.35
1389;2051.45;550.066;3.35
1390;2029.18;567.888;3.35
1391;1994.69;567.888;3.35
1392;1982.48;579.608;3.35
1393;2006.9;550.066;3.35
1394;2019.41;565.935;3.35
1395;2019.41;542.009;3.35
1396;2004.46;599.384;3.36
1397;1969.97;571.795;3.36
1398;1935.48;552.019;3.36
1399;1952.57;591.571;3.36
1400;1987.37;565.935;3.36
1401;1999.57;563.738;3.36
1402;2004.46;555.925;3.36
1403;1997.13;585.467;3.36
1404;1969.97;567.888;3.36
1405;1957.76;589.618;3.36
1406;1999.57;538.102;3.36
1407;2041.69;567.888;3.36
1408;2053.9;583.514;3.36
1409;2046.57;546.159;3.36
1410;2014.53;569.842;3.36
1411;1987.37;567.888;3.36
1412;1989.81;575.701;3.37
1413;2016.97;553.972;3.37
1414;2016.97;563.738;3.37
1415;2016.97;548.112;3.37
1416;1994.69;593.524;3.37
1417;1952.57;569.842;3.37
1418;1935.48;553.972;3.37
1419;1967.53;593.524;3.37
1420;1992.25;567.888;3.37
1421;2002.01;563.738;3.37
1422;2004.46;557.878;3.37
1423;1984.92;583.514;3.37
1424;1957.76;569.842;3.37
1425;1967.53;587.42;3.37
1426;2016.97;538.102;3.37
1427;2039.25;567.888;3.37
1428;2051.45;577.654;3.37
1429;2046.57;544.206;3.38
1430;2014.53;567.888;3.38
1431;1982.48;573.748;3.38
1432;1989.81;579.608;3.38
1433;2012.09;553.972;3.38
1434;2016.97;559.832;3.38
1435;2016.97;550.066;3.38
1436;1992.25;595.477;3.38
1437;1955.32;567.888;3.38
1438;1933.04;559.832;3.38
1439;1969.97;591.571;3.38
1440;1992.25;565.935;3.38
1441;1999.57;559.832;3.38
1442;2004.46;557.878;3.38
1443;1984.92;581.561;3.38
1444;1957.76;573.748;3.39
1445;1969.97;585.467;3.39
1446;2012.09;542.009;3.39
1447;2036.81;567.888;3.39
1448;2049.01;575.701;3.39
1449;2041.69;550.066;3.39
1450;2014.53;567.888;3.39
1451;1982.48;567.888;3.39
1452;1989.81;579.608;3.39
1453;2009.64;552.019;3.39
1454;2016.97;563.738;3.39
1455;2016.97;546.159;3.39
1456;1992.25;597.43;3.39
1457;1952.57;569.842;3.39
1458;1930.6;553.972;3.39
1459;1962.65;589.618;3.39
1460;1987.37;563.738;3.39
1461;1999.57;565.935;3.4
1462;2002.01;557.878;3.4
1463;1982.48;581.561;3.4
1464;1955.32;567.888;3.4
1465;1967.53;589.618;3.4
1466;2012.09;542.009;3.4
1467;2036.81;565.935;3.4
1468;2046.57;579.608;3.4
1469;2041.69;546.159;3.4
1470;2012.09;567.888;3.4
1471;1979.74;569.842;3.4
1472;1987.37;579.608;3.4
1473;2006.9;552.019;3.4
1474;2016.97;561.785;3.4
1475;2012.09;548.112;3.4
1476;1989.81;595.477;3.4
1477;1950.13;565.935;3.41
1478;1928.16;557.878;3.41
1479;1962.65;593.524;3.41
1480;1987.37;565.935;3.41
1481;1997.13;559.832;3.41
1482;1999.57;559.832;3.41
1483;1984.92;581.561;3.41
1484;1955.32;571.795;3.41
1485;1962.65;585.467;3.41
1486;2009.64;542.009;3.41
1487;2034.06;569.842;3.41
1488;2046.57;577.654;3.41
1489;2041.69;546.159;3.41
1490;2012.09;569.842;3.41
1491;1982.48;571.795;3.41
1492;1984.92;575.701;3.41
1493;2006.9;555.925;3.41
1494;2012.09;559.832;3.42001
1495;2014.53;552.019;3.42001
1496;1989.81;593.524;3.42001
1497;1952.57;565.935;3.42001
1498;1928.16;559.832;3.42001
1499;1960.2;591.571;3.42001
1500;1984.92;569.842;3.42001
1501;1994.69;569.842;3.42001
1502;1997.13;553.972;3.42001
1503;1982.48;589.618;3.42001
1504;1955.32;567.888;3.42001
1505;1960.2;593.524;3.42001
1506;2006.9;553.972;3.42001
1507;2031.62;563.738;3.42001
1508;2044.13;583.514;3.42001
1509;2041.69;552.019;3.42001
1510;2014.53;567.888;3.42001
1511;1977.29;563.738;3.43
1512;1982.48;581.561;3.43
1513;2006.9;548.112;3.43
1514;2012.09;565.935;3.43
1515;2014.53;542.009;3.43
1516;1987.37;591.571;3.43
1517;1950.13;569.842;3.43
1518;1922.97;550.066;3.43
1519;1957.76;585.467;3.43
1520;1984.92;567.888;3.43
1521;1994.69;567.888;3.43
1522;1997.13;552.019;3.43
1523;1979.74;587.42;3.43
1524;1952.57;565.935;3.43
1525;1957.76;591.571;3.43
1526;2004.46;546.159;3.43
1527;2026.73;565.935;3.44
1528;2039.25;583.514;3.44
1529;2036.81;550.066;3.44
1530;2009.64;567.888;3.44
1531;1974.85;565.935;3.44
1532;1977.29;579.608;3.44
1533;2002.01;550.066;3.44
1534;2006.9;565.935;3.44
1535;2006.9;544.206;3.44
1536;1987.37;595.477;3.44
1537;1950.13;569.842;3.44
1538;1922.97;552.019;3.44
1539;1952.57;587.42;3.44
1540;1979.74;567.888;3.44
1541;1987.37;565.935;3.44
1542;1992.25;555.925;3.44
1543;1977.29;585.467;3.44
1544;1947.69;567.888;3.45
1545;1952.57;589.618;3.45
1546;1999.57;542.009;3.45
1547;2024.29;563.738;3.45
1548;2036.81;579.608;3.45
1549;2034.06;546.159;3.45
1550;2006.9;567.888;3.45
1551;1972.41;567.888;3.45
1552;1974.85;577.654;3.45
1553;1999.57;552.019;3.45
1554;2004.46;563.738;3.45
1555;2004.46;546.159;3.45
1556;1982.48;597.43;3.45
1557;1945.25;567.888;3.45
1558;1920.53;552.019;3.45
1559;1950.13;589.618;3.45
1560;1977.29;567.888;3.45
1561;1987.37;563.738;3.46
1562;1989.81;553.972;3.46
1563;1977.29;583.514;3.46
1564;1947.69;567.888;3.46
1565;1950.13;587.42;3.46
1566;1997.13;540.056;3.46
1567;2021.85;565.935;3.46
1568;2034.06;579.608;3.46
1569;2031.62;544.206;3.46
1570;2004.46;567.888;3.46
1571;1972.41;571.795;3.46
1572;1974.85;577.654;3.46
1573;1997.13;553.972;3.46
1574;2002.01;561.785;3.46
1575;1999.57;548.112;3.46
1576;1982.48;595.477;3.46
1577;1945.25;565.935;3.46
1578;1918.09;557.878;3.46
1579;1947.69;591.571;3.47
1580;1977.29;565.935;3.47
1581;1984.92;561.785;3.47
1582;1987.37;557.878;3.47
1583;1977.29;581.561;3.47
1584;1947.69;573.748;3.47
1585;1947.69;585.467;3.47
1586;1997.13;542.009;3.47
1587;2021.85;569.842;3.47
1588;2034.06;575.701;3.47
1589;2031.62;546.159;3.47
1590;2004.46;565.935;3.47
1591;1972.41;573.748;3.47
1592;1972.41;575.701;3.47
1593;1992.25;555.925;3.47
1594;1999.57;559.832;3.47
1595;2002.01;552.019;3.47
1596;1982.48;591.571;3.47
1597;1945.25;569.842;3.48
1598;1915.65;548.112;3.48
1599;1945.25;579.608;3.48
1600;1972.41;569.842;3.48
1601;1982.48;569.842;3.48
1602;1987.37;550.066;3.48
1603;1969.97;589.618;3.48
1604;1945.25;567.888;3.48
1605;1945.25;593.524;3.48
1606;1989.81;552.019;3.48
1607;2014.53;563.738;3.48
1608;2031.62;585.467;3.48
1609;2026.73;552.019;3.48
1610;1999.57;565.935;3.48
1611;1969.97;561.785;3.48
1612;1969.97;581.561;3.48
1613;1989.81;548.112;3.48
1614;1999.57;565.935;3.48
1615;1999.57;542.009;3.49001
1616;1979.74;591.571;3.49001
1617;1942.81;569.842;3.49001
1618;1915.65;548.112;3.49001
1619;1940.37;583.514;3.49001
1620;1969.97;565.935;3.49001
1621;1977.29;569.842;3.49001
1622;1982.48;552.019;3.49001
1623;1969.97;585.467;3.49001
1624;1942.81;565.935;3.49001
1625;1942.81;591.571;3.49001
1626;1989.81;546.159;3.49001
1627;2016.97;563.738;3.49001
1628;2026.73;585.467;3.49001
1629;2026.73;550.066;3.49001
1630;1999.57;565.935;3.49001
1631;1967.53;563.738;3.49001
1632;1965.09;579.608;3.49001
1633;1987.37;548.112;3.49001
1634;1994.69;563.738;3.5
1635;1997.13;542.009;3.5
1636;1977.29;595.477;3.5
1637;1937.93;569.842;3.5
1638;1908.32;550.066;3.5
1639;1937.93;585.467;3.5
1640;1965.09;567.888;3.5
1641;1977.29;565.935;3.5
1642;1982.48;553.972;3.5
1643;1969.97;585.467;3.5
1644;1940.37;567.888;3.5
1645;1940.37;591.571;3.5
1646;1984.92;538.102;3.5
1647;2012.09;565.935;3.5
1648;2026.73;581.561;3.5
1649;2024.29;548.112;3.5
1650;1997.13;565.935;3.5
1651;1965.09;567.888;3.5
1652;1962.65;579.608;3.5
1653;1984.92;548.112;3.51
1654;1992.25;563.738;3.51
1655;1994.69;546.159;3.51
1656;1977.29;595.477;3.51
1657;1935.48;565.935;3.51
1658;1908.32;553.972;3.51
1659;1933.04;589.618;3.51
1660;1962.65;565.935;3.51
1661;1974.85;563.738;3.51
1662;1977.29;553.972;3.51
1663;1967.53;581.561;3.51
1664;1937.93;565.935;3.51
1665;1935.48;589.618;3.51
1666;1979.74;538.102;3.51
1667;2006.9;565.935;3.51
1668;2021.85;577.654;3.51
1669;2021.85;546.159;3.51
1670;1994.69;567.888;3.51
1671;1965.09;567.888;3.51
1672;1960.2;577.654;3.52
1673;1979.74;552.019;3.52
1674;1989.81;561.785;3.52
1675;1987.37;548.112;3.52
1676;1974.85;593.524;3.52
1677;1937.93;565.935;3.52
1678;1903.44;553.972;3.52
1679;1933.04;591.571;3.52
1680;1962.65;565.935;3.52
1681;1969.97;559.832;3.52
1682;1977.29;557.878;3.52
1683;1965.09;579.608;3.52
1684;1937.93;569.842;3.52
1685;1933.04;585.467;3.52
1686;1979.74;540.056;3.52
1687;2004.46;567.888;3.52
1688;2019.41;577.654;3.52
1689;2019.41;546.159;3.52
1690;1992.25;567.888;3.52
1691;1960.2;571.795;3.52
1692;1955.32;573.748;3.53
1693;1979.74;555.925;3.53
1694;1987.37;561.785;3.53
1695;1987.37;548.112;3.53
1696;1972.41;595.477;3.53
1697;1933.04;569.842;3.53
1698;1903.44;552.019;3.53
1699;1930.6;585.467;3.53
1700;1960.2;567.888;3.53
1701;1969.97;565.935;3.53
1702;1974.85;553.972;3.53
1703;1965.09;583.514;3.53
1704;1935.48;567.888;3.53
1705;1933.04;589.618;3.53
1706;1977.29;538.102;3.53
1707;2002.01;563.738;3.53
1708;2016.97;579.608;3.53
1709;2016.97;546.159;3.53
1710;1992.25;563.738;3.53
1711;1960.2;569.842;3.54
1712;1952.57;579.608;3.54
1713;1977.29;552.019;3.54
1714;1984.92;563.738;3.54
1715;1984.92;546.159;3.54
1716;1972.41;595.477;3.54
1717;1933.04;565.935;3.54
1718;1898.25;553.972;3.54
1719;1928.16;589.618;3.54
1720;1957.76;565.935;3.54
1721;1967.53;561.785;3.54
1722;1972.41;555.925;3.54
1723;1962.65;579.608;3.54
1724;1935.48;571.795;3.54
1725;1928.16;585.467;3.54
1726;1972.41;540.056;3.54
1727;1999.57;565.935;3.54
1728;2012.09;577.654;3.54
1729;2016.97;546.159;3.54
1730;1989.81;567.888;3.55
1731;1960.2;569.842;3.55
1732;1950.13;575.701;3.55
1733;1977.29;553.972;3.55
1734;1982.48;557.878;3.55
1735;1984.92;548.112;3.55
1736;1972.41;593.524;3.55
1737;1933.04;565.935;3.55
1738;1898.25;555.925;3.55
1739;1925.41;591.571;3.55
1740;1955.32;565.935;3.55
1741;1965.09;557.878;3.55
1742;1969.97;550.066;3.55
1743;1957.76;585.467;3.55
1744;1930.6;567.888;3.55
1745;1925.41;593.524;3.55
1746;1969.97;552.019;3.55
1747;1997.13;559.832;3.55
1748;2009.64;585.467;3.55
1749;2014.53;552.019;3.56001
1750;1987.37;561.785;3.56001
1751;1955.32;559.832;3.56001
1752;1950.13;579.608;3.56001
1753;1972.41;546.159;3.56001
1754;1977.29;561.785;3.56001
1755;1982.48;540.056;3.56001
1756;1965.09;587.42;3.56001
1757;1928.16;571.795;3.56001
1758;1895.81;548.112;3.56001
1759;1918.09;581.561;3.56001
1760;1947.69;567.888;3.56001
1761;1960.2;567.888;3.56001
1762;1965.09;550.066;3.56001
1763;1955.32;585.467;3.56001
1764;1928.16;565.935;3.56001
1765;1918.09;589.618;3.56001
1766;1965.09;546.159;3.56001
1767;1992.25;561.785;3.56001
1768;2006.9;583.514;3.56001
1769;2009.64;550.066;3.57
1770;1984.92;565.935;3.57
1771;1952.57;561.785;3.57
1772;1945.25;579.608;3.57
1773;1969.97;548.112;3.57
1774;1977.29;563.738;3.57
1775;1977.29;540.056;3.57
1776;1965.09;595.477;3.57
1777;1925.41;569.842;3.57
1778;1893.37;546.159;3.57
1779;1913.21;583.514;3.57
1780;1945.25;565.935;3.57
1781;1957.76;567.888;3.57
1782;1962.65;552.019;3.57
1783;1952.57;585.467;3.57
1784;1925.41;565.935;3.57
1785;1920.53;589.618;3.57
1786;1962.65;540.056;3.57
1787;1987.37;561.785;3.57
1788;2002.01;581.561;3.57
1789;2006.9;548.112;3.58
1790;1979.74;565.935;3.58
1791;1950.13;563.738;3.58
1792;1942.81;577.654;3.58
1793;1962.65;548.112;3.58
1794;1972.41;561.785;3.58
1795;1977.29;542.009;3.58
1796;1960.2;595.477;3.58
1797;1922.97;567.888;3.58
1798;1893.37;550.066;3.58
1799;1910.76;589.618;3.58
1800;1942.81;567.888;3.58
1801;1955.32;563.738;3.58
1802;1960.2;553.972;3.58
1803;1950.13;579.608;3.58
1804;1922.97;569.842;3.58
1805;1913.21;589.618;3.58
1806;1957.76;540.056;3.58
1807;1984.92;563.738;3.58
1808;1999.57;577.654;3.58
1809;2004.46;544.206;3.59
1810;1979.74;563.738;3.59
1811;1947.69;567.888;3.59
1812;1937.93;577.654;3.59
1813;1960.2;552.019;3.59
1814;1969.97;559.832;3.59
1815;1972.41;546.159;3.59
1816;1960.2;595.477;3.59
1817;1920.53;567.888;3.59
