<WeldAnalyseData xmlns:i="http:www.w3.org/2001/XMLSchema-instance">
<WeldParameter>
<TimeStamp>DT#2024-01-24-13:56:38</TimeStamp>
<Generator>SG-22-10000</Generator>
<GenFreq>20</GenFreq>
<MaxForce>8000</MaxForce>
<MaxPower>10000</MaxPower>
<RunupPressure>1.5</RunupPressure>
<RunupDist>10</RunupDist>
<RunPress>0.8</RunPress>
<ShakeDelay>0.03</ShakeDelay>
<ShakeTime>0.3</ShakeTime>
<RunBackPress1>6</RunBackPress1>
<RunBackPress2>2</RunBackPress2>
<RunBackDist>1</RunBackDist>
<TrigValue>500</TrigValue>
<TrigModeUnit>W</TrigModeUnit>
<WeldModeUnit>Ws</WeldModeUnit>
<PressNr>0</PressNr>
<MaxLoss>1500</MaxLoss>
</WeldParameter>
<WeldSets>
<WeldSet>
<PressRiseTime>0</PressRiseTime>
<RunPressure>1</RunPressure>
<Amplitude>86</Amplitude>
<WeldMode>3270</WeldMode>
</WeldSet>
</WeldSets>
<WeldValue>
<WeldNr>2952</WeldNr>
<RecipeName>RickStyle</RecipeName>
<WeldTime>1690</WeldTime>
<DistDiff>2.39</DistDiff>
<DistAbs>78.09</DistAbs>
<Energy>3271.43</Energy>
<MaxPower>2158.92</MaxPower>
<CycleTime>6030</CycleTime>
<TrigForce>500.748</TrigForce>
<TrigDist>75.7</TrigDist>
<RunSpeed>68.8182</RunSpeed>
<MaxForce>615.253</MaxForce>
<LossPower>327.425</LossPower>
</WeldValue>
</WeldAnalyseData>
#CSV-START#
ms;Power[W];Force[N];Distance[mm]
1;0;0;0
2;0;500.748;0
3;0;500.748;0
4;0;500.748;0.0100021
5;0;500.748;0.0100021
6;0;500.748;0.0100021
7;0;500.748;0.0100021
8;0;472.915;0.0100021
9;0;429.456;0.0200043
10;0;403.821;0.0400009
11;0;370.373;0.0699997
12;30.5567;356.456;0.110001
13;92.2041;332.774;0.150002
14;171.247;321.055;0.190002
15;247.848;303.232;0.230003
16;309.496;297.372;0.280006
17;363.819;287.362;0.330002
18;418.142;299.326;0.380005
19;494.743;281.503;0.43
20;571.039;293.222;0.480003
21;642.758;323.008;0.520004
22;714.476;295.419;0.550003
23;781.007;309.091;0.580002
24;842.654;319.102;0.610001
25;902.165;338.633;0.639999
26;973.579;334.727;0.660004
27;1035.23;354.503;0.670006
28;1094.74;348.643;0.690002
29;1141.43;396.008;0.700005
30;1168.59;396.008;0.700005
31;1181.1;386.242;0.710007
32;1218.03;394.055;0.710007
33;1272.35;431.654;0.720001
34;1304.4;411.878;0.720001
35;1344.07;409.925;0.720001
36;1366.35;409.925;0.730003
37;1381;423.597;0.730003
38;1393.51;435.56;0.740005
39;1447.84;429.456;0.740005
40;1499.72;413.831;0.75
41;1536.65;445.326;0.75
42;1568.69;437.513;0.760002
43;1576.01;409.925;0.760002
44;1571.13;431.654;0.770004
45;1573.57;437.513;0.770004
46;1610.81;439.467;0.780006
47;1645.29;429.456;0.780006
48;1674.89;419.691;0.790001
49;1687.1;435.56;0.800003
50;1679.78;449.232;0.800003
51;1665.13;423.597;0.810005
52;1687.1;435.56;0.82
53;1738.98;461.196;0.82
54;1773.77;445.326;0.830002
55;1795.75;433.607;0.840004
56;1805.82;443.373;0.840004
57;1798.19;451.186;0.850006
58;1793.31;470.962;0.860001
59;1837.86;455.336;0.860001
60;1889.74;445.326;0.870003
61;1921.79;479.019;0.880005
62;1939.18;461.196;0.880005
63;1936.74;443.373;0.889999
64;1912.02;465.102;0.889999
65;1899.51;475.112;0.900002
66;1931.55;475.112;0.900002
67;1958.72;465.102;0.910004
68;1976.11;451.186;0.910004
69;1978.55;477.065;0.920006
70;1956.27;482.925;0.920006
71;1919.35;453.383;0.920006
72;1929.11;479.019;0.93
73;1978.55;502.701;0.93
74;2005.71;484.878;0.940002
75;2020.67;470.962;0.940002
76;2023.11;484.878;0.940002
77;2003.27;488.784;0.950005
78;1980.99;510.514;0.950005
79;2020.67;486.831;0.960007
80;2069.8;479.019;0.960007
81;2094.52;518.326;0.960007
82;2109.48;488.784;0.970001
83;2094.52;477.065;0.970001
84;2060.04;492.691;0.980003
85;2040.2;506.607;0.980003
86;2069.8;500.748;0.980003
87;2094.52;494.644;0.990005
88;2104.59;475.112;0.990005
89;2096.96;506.607;0.990005
90;2064.92;512.467;1
91;2023.11;477.065;1
92;2025.55;510.514;1
93;2072.55;524.43;1.01
94;2096.96;512.467;1.01
95;2107.04;496.597;1.01
96;2099.71;514.42;1.02
97;2074.99;512.467;1.02
98;2050.27;538.102;1.02
99;2082.32;510.514;1.03001
100;2126.87;504.654;1.03001
101;2148.85;542.009;1.03001
102;2158.92;504.654;1.04
103;2139.08;500.748;1.04
104;2099.71;508.56;1.04
105;2072.55;524.43;1.05
106;2094.52;512.467;1.05
107;2116.8;510.514;1.05
108;2121.68;490.738;1.05
109;2111.92;522.477;1.06001
110;2077.43;522.477;1.06001
111;2032.88;484.878;1.06001
112;2025.55;524.43;1.07
113;2069.8;530.29;1.07
114;2092.08;522.477;1.07
115;2099.71;506.607;1.08
116;2092.08;526.383;1.08
117;2064.92;522.477;1.08
118;2035.32;548.112;1.08
119;2062.48;514.42;1.09
120;2104.59;514.42;1.09
121;2124.13;552.019;1.09
122;2134.2;512.467;1.09
123;2116.8;512.467;1.10001
124;2074.99;516.373;1.10001
125;2050.27;536.149;1.10001
126;2072.55;516.373;1.10001
127;2092.08;522.477;1.11
128;2102.15;500.748;1.11
129;2094.52;540.056;1.11
130;2060.04;530.29;1.11
131;2013.04;494.644;1.11
132;2005.71;544.206;1.12
133;2050.27;538.102;1.12
134;2069.8;534.196;1.12
135;2079.87;516.373;1.12
136;2072.55;542.009;1.13
137;2042.64;532.243;1.13
138;2015.48;555.925;1.13
139;2040.2;522.477;1.13
140;2082.32;524.43;1.14
141;2102.15;561.785;1.14
142;2109.48;514.42;1.14
143;2092.08;522.477;1.14
144;2055.15;524.43;1.14
145;2023.11;542.009;1.15
146;2042.64;520.524;1.15
147;2064.92;530.29;1.15
148;2069.8;504.654;1.15
149;2062.48;550.066;1.15
150;2032.88;536.149;1.16
151;1985.88;502.701;1.16
152;1976.11;536.149;1.16
153;2015.48;552.019;1.16
154;2037.76;536.149;1.16
155;2045.39;522.477;1.16
156;2040.2;538.102;1.17001
157;2015.48;538.102;1.17001
158;1985.88;559.832;1.17001
159;2013.04;536.149;1.17001
160;2055.15;528.336;1.17001
161;2072.55;565.935;1.18
162;2082.32;532.243;1.18
163;2067.36;522.477;1.18
164;2030.43;532.243;1.18
165;1998.39;548.112;1.18
166;2018.23;536.149;1.18
167;2040.2;536.149;1.19
168;2045.39;514.42;1.19
169;2030.43;546.159;1.19
170;1991.07;548.112;1.19
171;1948.95;512.467;1.19
172;1968.79;550.066;1.19
173;2003.27;557.878;1.2
174;2023.11;548.112;1.2
175;2027.99;532.243;1.2
176;2010.6;552.019;1.2
177;1983.44;546.159;1.2
178;1963.9;567.888;1.2
179;2008.16;538.102;1.21001
180;2042.64;536.149;1.21001
181;2057.6;575.701;1.21001
182;2062.48;536.149;1.21001
183;2037.76;532.243;1.21001
184;2000.83;538.102;1.21001
185;1983.44;553.972;1.21001
186;2010.6;538.102;1.22
187;2023.11;542.009;1.22
188;2027.99;520.524;1.22
189;2010.6;557.878;1.22
190;1973.67;552.019;1.22
191;1936.74;516.373;1.22
192;1948.95;559.832;1.23
193;1985.88;557.878;1.23
194;2000.83;553.972;1.23
195;2008.16;536.149;1.23
196;1998.39;559.832;1.23
197;1966.35;550.066;1.23
198;1948.95;573.748;1.24001
199;1991.07;538.102;1.24001
200;2023.11;542.009;1.24001
201;2045.39;579.608;1.24001
202;2045.39;534.196;1.24001
203;2020.67;538.102;1.24001
204;1985.88;542.009;1.24001
205;1971.23;559.832;1.25
206;1998.39;540.056;1.25
207;2013.04;548.112;1.25
208;2015.48;524.43;1.25
209;1998.39;567.888;1.25
210;1966.35;557.878;1.25
211;1924.23;520.524;1.25
212;1936.74;542.009;1.26
213;1976.11;583.514;1.26
214;1993.51;552.019;1.26
215;2000.83;544.206;1.26
216;1985.88;546.159;1.26
217;1958.72;555.925;1.26
218;1939.18;569.842;1.26
219;1978.55;559.832;1.26
220;2013.04;536.149;1.27
221;2027.99;569.842;1.27
222;2035.32;561.785;1.27
223;2010.6;526.383;1.27
224;1973.67;552.019;1.27
225;1958.72;557.878;1.27
226;1980.99;563.738;1.27
227;1998.39;550.066;1.28001
228;2000.83;536.149;1.28001
229;1988.32;552.019;1.28001
230;1953.83;569.842;1.28001
231;1912.02;536.149;1.28001
232;1921.79;548.112;1.28001
233;1958.72;581.561;1.28001
234;1978.55;555.925;1.29
235;1983.44;546.159;1.29
236;1976.11;550.066;1.29
237;1946.51;559.832;1.29
238;1924.23;577.654;1.29
239;1961.16;559.832;1.29
240;2000.83;544.206;1.29
241;2018.23;575.701;1.29
242;2023.11;559.832;1.3
243;2000.83;534.196;1.3
244;1963.9;555.925;1.3
245;1946.51;567.888;1.3
246;1968.79;567.888;1.3
247;1985.88;553.972;1.3
248;1991.07;536.149;1.3
249;1980.99;557.878;1.3
250;1946.51;567.888;1.31001
251;1906.83;536.149;1.31001
252;1916.91;555.925;1.31001
253;1953.83;581.561;1.31001
254;1968.79;559.832;1.31001
255;1978.55;548.112;1.31001
256;1968.79;553.972;1.31001
257;1944.07;559.832;1.31001
258;1919.35;577.654;1.32
259;1953.83;561.785;1.32
260;1988.32;550.066;1.32
261;2008.16;579.608;1.32
262;2013.04;559.832;1.32
263;1995.95;540.056;1.32
264;1961.16;557.878;1.32
265;1939.18;569.842;1.32
266;1961.16;567.888;1.33
267;1976.11;553.972;1.33
268;1980.99;536.149;1.33
269;1976.11;563.738;1.33
270;1941.63;571.795;1.33
271;1899.51;536.149;1.33
272;1906.83;561.785;1.33
273;1944.07;579.608;1.33
274;1963.9;565.935;1.33
275;1971.23;550.066;1.34
276;1961.16;561.785;1.34
277;1934;565.935;1.34
278;1914.46;583.514;1.34
279;1946.51;561.785;1.34
280;1985.88;555.925;1.34
281;2000.83;589.618;1.34
282;2010.6;559.832;1.34
283;1991.07;548.112;1.35001
284;1956.27;559.832;1.35001
285;1936.74;571.795;1.35001
286;1953.83;567.888;1.35001
287;1973.67;561.785;1.35001
288;1978.55;540.056;1.35001
289;1973.67;571.795;1.35001
290;1936.74;573.748;1.35001
291;1899.51;538.102;1.35001
292;1899.51;569.842;1.36
293;1936.74;581.561;1.36
294;1953.83;571.795;1.36
295;1963.9;555.925;1.36
296;1956.27;569.842;1.36
297;1931.55;567.888;1.36
298;1906.83;591.571;1.36
299;1939.18;561.785;1.36
300;1976.11;561.785;1.36
301;1998.39;595.477;1.36
302;2005.71;561.785;1.37
303;1985.88;555.925;1.37
304;1951.39;563.738;1.37
305;1929.11;579.608;1.37
306;1951.39;563.738;1.37
307;1971.23;565.935;1.37
308;1976.11;544.206;1.37
309;1968.79;579.608;1.37
310;1936.74;577.654;1.37
311;1899.51;540.056;1.38
312;1897.07;579.608;1.38
313;1936.74;585.467;1.38
314;1956.27;575.701;1.38
315;1963.9;557.878;1.38
316;1958.72;577.654;1.38
317;1931.55;573.748;1.38
318;1906.83;597.43;1.38
319;1936.74;565.935;1.38
320;1976.11;567.888;1.38
321;1995.95;605.243;1.39
322;2003.27;561.785;1.39
323;1988.32;561.785;1.39
324;1951.39;567.888;1.39
325;1926.67;585.467;1.39
326;1948.95;567.888;1.39
327;1966.35;571.795;1.39
328;1971.23;550.066;1.39
329;1966.35;585.467;1.39
330;1936.74;581.561;1.39
331;1897.07;546.159;1.4
332;1892.19;589.618;1.4
333;1931.55;609.149;1.4
334;1951.39;577.654;1.4
335;1961.16;569.842;1.4
336;1956.27;569.842;1.4
337;1926.67;581.561;1.4
338;1904.39;589.618;1.4
339;1926.67;587.42;1.4
340;1971.23;559.832;1.4
341;1985.88;589.618;1.41
342;1995.95;591.571;1.41
343;1983.44;550.066;1.41
344;1948.95;575.701;1.41
345;1921.79;585.467;1.41
346;1941.63;587.42;1.41
347;1961.16;573.748;1.41
348;1966.35;561.785;1.41
349;1958.72;573.748;1.41
350;1929.11;593.524;1.41
351;1889.74;563.738;1.42001
352;1882.42;569.842;1.42001
353;1924.23;609.149;1.42001
354;1941.63;579.608;1.42001
355;1953.83;571.795;1.42001
356;1946.51;573.748;1.42001
357;1926.67;585.467;1.42001
358;1901.95;595.477;1.42001
359;1926.67;587.42;1.42001
360;1966.35;565.935;1.42001
361;1985.88;597.43;1.43
362;1993.51;591.571;1.43
363;1980.99;553.972;1.43
364;1946.51;579.608;1.43
365;1921.79;589.618;1.43
366;1939.18;589.618;1.43
367;1961.16;577.654;1.43
368;1963.9;561.785;1.43
369;1958.72;581.561;1.43
370;1931.55;597.43;1.43
371;1889.74;563.738;1.43
372;1879.67;573.748;1.44
373;1921.79;607.196;1.44
374;1939.18;581.561;1.44
375;1948.95;571.795;1.44
376;1946.51;575.701;1.44
377;1924.23;587.42;1.44
378;1899.51;601.337;1.44
379;1921.79;587.42;1.44
380;1963.9;569.842;1.44
381;1980.99;603.29;1.44
382;1991.07;587.42;1.44
383;1978.55;561.785;1.45
384;1944.07;579.608;1.45
385;1914.46;593.524;1.45
386;1934;593.524;1.45
387;1958.72;579.608;1.45
388;1961.16;561.785;1.45
389;1958.72;583.514;1.45
390;1929.11;595.477;1.45
391;1889.74;563.738;1.45
392;1882.42;579.608;1.45
393;1916.91;605.243;1.45
394;1936.74;587.42;1.46001
395;1948.95;571.795;1.46001
396;1946.51;577.654;1.46001
397;1924.23;587.42;1.46001
398;1897.07;605.243;1.46001
399;1916.91;583.514;1.46001
400;1956.27;573.748;1.46001
401;1978.55;605.243;1.46001
402;1985.88;583.514;1.46001
403;1976.11;565.935;1.46001
404;1941.63;579.608;1.46001
405;1914.46;589.618;1.46001
406;1926.67;589.618;1.47
407;1953.83;579.608;1.47
408;1958.72;559.832;1.47
409;1953.83;589.618;1.47
410;1924.23;593.524;1.47
411;1887.3;559.832;1.47
412;1874.79;587.42;1.47
413;1914.46;603.29;1.47
414;1936.74;585.467;1.47
415;1948.95;571.795;1.47
416;1944.07;585.467;1.47
417;1924.23;585.467;1.47
418;1897.07;607.196;1.48
419;1912.02;581.561;1.48
420;1968.79;573.748;1.48
421;1980.99;607.196;1.48
422;1985.88;581.561;1.48
423;1966.35;569.842;1.48
424;1931.55;579.608;1.48
425;1914.46;591.571;1.48
426;1941.63;581.561;1.48
427;1956.27;581.561;1.48
428;1958.72;559.832;1.48
429;1948.95;591.571;1.48
430;1914.46;591.571;1.49001
431;1877.23;555.925;1.49001
432;1889.74;591.571;1.49001
433;1924.23;599.384;1.49001
434;1939.18;585.467;1.49001
435;1946.51;573.748;1.49001
436;1941.63;587.42;1.49001
437;1912.02;585.467;1.49001
438;1894.63;609.149;1.49001
439;1931.55;579.608;1.49001
440;1966.35;573.748;1.49001
441;1980.99;611.347;1.49001
442;1985.88;575.701;1.49001
443;1966.35;571.795;1.5
444;1929.11;575.701;1.5
445;1914.46;593.524;1.5
446;1939.18;577.654;1.5
447;1953.83;579.608;1.5
448;1958.72;557.878;1.5
449;1948.95;593.524;1.5
450;1914.46;589.618;1.5
451;1874.79;555.925;1.5
452;1884.86;593.524;1.5
453;1921.79;595.477;1.5
454;1936.74;589.618;1.5
455;1944.07;573.748;1.51
456;1936.74;575.701;1.51
457;1909.58;585.467;1.51
458;1889.74;605.243;1.51
459;1924.23;585.467;1.51
460;1961.16;573.748;1.51
461;1976.11;605.243;1.51
462;1983.44;587.42;1.51
463;1963.9;563.738;1.51
464;1931.55;579.608;1.51
465;1912.02;591.571;1.51
466;1936.74;587.42;1.51
467;1951.39;579.608;1.51
468;1956.27;559.832;1.51
469;1946.51;587.42;1.52
470;1914.46;593.524;1.52
471;1877.23;559.832;1.52
472;1884.86;583.514;1.52
473;1924.23;603.29;1.52
474;1939.18;585.467;1.52
475;1946.51;571.795;1.52
476;1941.63;581.561;1.52
477;1912.02;583.514;1.52
478;1894.63;605.243;1.52
479;1924.23;581.561;1.52
480;1961.16;573.748;1.52
481;1978.55;605.243;1.52
482;1988.32;581.561;1.53001
483;1968.79;567.888;1.53001
484;1934;577.654;1.53001
485;1914.46;591.571;1.53001
486;1939.18;583.514;1.53001
487;1953.83;579.608;1.53001
488;1958.72;557.878;1.53001
489;1951.39;589.618;1.53001
490;1919.35;589.618;1.53001
491;1879.67;557.878;1.53001
492;1884.86;587.42;1.53001
493;1921.79;599.384;1.53001
494;1939.18;587.42;1.53001
495;1948.95;571.795;1.53001
496;1944.07;587.42;1.54
497;1916.91;585.467;1.54
498;1897.07;607.196;1.54
499;1926.67;579.608;1.54
500;1966.35;573.748;1.54
501;1980.99;611.347;1.54
502;1988.32;575.701;1.54
503;1971.23;569.842;1.54
504;1939.18;575.701;1.54
505;1914.46;591.571;1.54
506;1936.74;579.608;1.54
507;1953.83;577.654;1.54
508;1961.16;555.925;1.54
509;1953.83;591.571;1.55
510;1916.91;589.618;1.55
511;1882.42;553.972;1.55
512;1882.42;591.571;1.55
513;1921.79;595.477;1.55
514;1936.74;587.42;1.55
515;1946.51;569.842;1.55
516;1941.63;575.701;1.55
517;1914.46;589.618;1.55
518;1892.19;593.524;1.55
519;1921.79;595.477;1.55
520;1963.9;563.738;1.55
521;1978.55;591.571;1.55
522;1988.32;599.384;1.56001
523;1968.79;552.019;1.56001
524;1939.18;581.561;1.56001
525;1914.46;587.42;1.56001
526;1936.74;591.571;1.56001
527;1953.83;577.654;1.56001
528;1956.27;567.888;1.56001
529;1953.83;575.701;1.56001
530;1921.79;601.337;1.56001
531;1882.42;571.795;1.56001
532;1882.42;571.795;1.56001
533;1921.79;615.253;1.56001
534;1939.18;583.514;1.56001
535;1946.51;575.701;1.56001
536;1944.07;575.701;1.57
537;1916.91;585.467;1.57
538;1894.63;595.477;1.57
539;1921.79;591.571;1.57
540;1961.16;567.888;1.57
541;1983.44;595.477;1.57
542;1985.88;595.477;1.57
543;1971.23;555.925;1.57
544;1939.18;581.561;1.57
545;1916.91;591.571;1.57
546;1936.74;591.571;1.57
547;1956.27;579.608;1.57
548;1958.72;565.935;1.57
549;1948.95;577.654;1.57
550;1914.46;597.43;1.58
551;1877.23;569.842;1.58
552;1884.86;573.748;1.58
553;1921.79;611.347;1.58
554;1939.18;581.561;1.58
555;1946.51;577.654;1.58
556;1936.74;579.608;1.58
557;1909.58;585.467;1.58
558;1889.74;599.384;1.58
559;1929.11;591.571;1.58
560;1963.9;569.842;1.58
561;1980.99;601.337;1.58
562;1985.88;591.571;1.58
563;1963.9;557.878;1.59
564;1929.11;583.514;1.59
565;1914.46;591.571;1.59
566;1936.74;591.571;1.59
567;1951.39;577.654;1.59
568;1956.27;563.738;1.59
569;1946.51;579.608;1.59
570;1914.46;595.477;1.59
571;1877.23;565.935;1.59
572;1884.86;577.654;1.59
573;1921.79;609.149;1.59
574;1936.74;583.514;1.59
575;1944.07;575.701;1.59
576;1941.63;577.654;1.59
577;1912.02;587.42;1.60001
578;1892.19;603.29;1.60001
579;1924.23;589.618;1.60001
580;1963.9;571.795;1.60001
581;1978.55;603.29;1.60001
582;1985.88;587.42;1.60001
583;1966.35;561.785;1.60001
584;1929.11;581.561;1.60001
585;1909.58;591.571;1.60001
586;1934;593.524;1.60001
587;1948.95;577.654;1.60001
588;1956.27;561.785;1.60001
589;1951.39;585.467;1.60001
590;1919.35;595.477;1.60001
591;1877.23;561.785;1.61
592;1882.42;579.608;1.61
593;1919.35;607.196;1.61
594;1936.74;585.467;1.61
595;1941.63;573.748;1.61
596;1939.18;579.608;1.61
597;1912.02;585.467;1.61
598;1889.74;605.243;1.61
599;1921.79;585.467;1.61
600;1963.9;573.748;1.61
601;1980.99;605.243;1.61
602;1985.88;583.514;1.61
603;1968.79;565.935;1.61
604;1934;579.608;1.61
605;1914.46;593.524;1.62
606;1939.18;589.618;1.62
607;1951.39;577.654;1.62
608;1958.72;559.832;1.62
609;1948.95;587.42;1.62
610;1921.79;593.524;1.62
611;1879.67;557.878;1.62
612;1884.86;585.467;1.62
613;1921.79;599.384;1.62
614;1939.18;583.514;1.62
615;1946.51;571.795;1.62
616;1941.63;581.561;1.62
617;1914.46;585.467;1.62
618;1894.63;605.243;1.62
619;1919.35;579.608;1.63
620;1961.16;573.748;1.63
621;1978.55;609.149;1.63
622;1991.07;579.608;1.63
623;1971.23;565.935;1.63
624;1936.74;577.654;1.63
625;1914.46;589.618;1.63
626;1936.74;583.514;1.63
627;1953.83;579.608;1.63
628;1956.27;557.878;1.63
629;1951.39;587.42;1.63
630;1919.35;589.618;1.63
631;1879.67;553.972;1.63
632;1882.42;589.618;1.63
633;1919.35;597.43;1.64
634;1939.18;587.42;1.64
635;1948.95;569.842;1.64
636;1941.63;587.42;1.64
637;1916.91;583.514;1.64
638;1894.63;589.618;1.64
639;1921.79;599.384;1.64
640;1961.16;561.785;1.64
641;1978.55;589.618;1.64
642;1988.32;601.337;1.64
643;1971.23;550.066;1.64
644;1936.74;579.608;1.64
645;1914.46;581.561;1.64
646;1934;591.571;1.64
647;1951.39;575.701;1.64
648;1956.27;569.842;1.65
649;1953.83;571.795;1.65
650;1919.35;601.337;1.65
651;1882.42;571.795;1.65
652;1877.23;565.935;1.65
653;1919.35;615.253;1.65
654;1936.74;581.561;1.65
655;1946.51;575.701;1.65
656;1941.63;573.748;1.65
657;1919.35;583.514;1.65
658;1892.19;595.477;1.65
659;1919.35;593.524;1.65
660;1958.72;565.935;1.65
661;1978.55;591.571;1.65
662;1985.88;595.477;1.65
663;1973.67;550.066;1.66
664;1936.74;579.608;1.66
665;1914.46;585.467;1.66
666;1934;589.618;1.66
667;1953.83;573.748;1.66
668;1956.27;565.935;1.66
669;1953.83;573.748;1.66
670;1921.79;599.384;1.66
671;1884.86;571.795;1.66
672;1877.23;567.888;1.66
673;1916.91;611.347;1.66
674;1936.74;581.561;1.66
675;1944.07;573.748;1.66
676;1939.18;571.795;1.66
677;1919.35;585.467;1.66
678;1892.19;595.477;1.67001
679;1919.35;591.571;1.67001
680;1958.72;565.935;1.67001
681;1978.55;593.524;1.67001
682;1988.32;589.618;1.67001
683;1973.67;553.972;1.67001
684;1941.63;579.608;1.67001
685;1914.46;585.467;1.67001
686;1934;587.42;1.67001
687;1953.83;575.701;1.67001
688;1956.27;565.935;1.67001
689;1953.83;573.748;1.67001
690;1926.67;593.524;1.67001
691;1887.3;567.888;1.67001
692;1879.67;571.795;1.67001
693;1919.35;609.149;1.68
694;1936.74;579.608;1.68
695;1946.51;571.795;1.68
696;1944.07;573.748;1.68
697;1921.79;585.467;1.68
698;1894.63;597.43;1.68
699;1914.46;585.467;1.68
700;1961.16;567.888;1.68
701;1983.44;597.43;1.68
702;1988.32;587.42;1.68
703;1980.99;553.972;1.68
704;1946.51;579.608;1.68
705;1916.91;585.467;1.68
706;1934;587.42;1.68
707;1956.27;575.701;1.68
708;1958.72;559.832;1.68
709;1956.27;577.654;1.69
710;1929.11;595.477;1.69
711;1889.74;565.935;1.69
712;1877.23;575.701;1.69
713;1919.35;603.29;1.69
714;1941.63;581.561;1.69
715;1951.39;569.842;1.69
716;1946.51;573.748;1.69
717;1926.67;583.514;1.69
718;1897.07;599.384;1.69
719;1916.91;585.467;1.69
720;1958.72;567.888;1.69
721;1978.55;599.384;1.69
722;1991.07;583.514;1.69
723;1980.99;557.878;1.69
724;1946.51;577.654;1.69
725;1919.35;585.467;1.7
726;1936.74;587.42;1.7
727;1956.27;575.701;1.7
728;1961.16;559.832;1.7
729;1961.16;579.608;1.7
730;1934;591.571;1.7
731;1892.19;559.832;1.7
732;1882.42;579.608;1.7
733;1919.35;599.384;1.7
734;1941.63;577.654;1.7
735;1948.95;567.888;1.7
736;1948.95;575.701;1.7
737;1926.67;581.561;1.7
738;1901.95;599.384;1.7
739;1916.91;579.608;1.7
740;1958.72;569.842;1.7
741;1980.99;603.29;1.71001
742;1991.07;575.701;1.71001
743;1980.99;561.785;1.71001
744;1948.95;575.701;1.71001
745;1916.91;585.467;1.71001
746;1931.55;581.561;1.71001
747;1956.27;575.701;1.71001
748;1963.9;553.972;1.71001
749;1958.72;583.514;1.71001
750;1934;585.467;1.71001
751;1894.63;553.972;1.71001
752;1879.67;583.514;1.71001
753;1919.35;593.524;1.71001
754;1939.18;579.608;1.71001
755;1951.39;569.842;1.71001
756;1948.95;581.561;1.72
757;1931.55;581.561;1.72
758;1901.95;601.337;1.72
759;1916.91;575.701;1.72
760;1963.9;565.935;1.72
761;1985.88;593.524;1.72
762;1993.51;585.467;1.72
763;1985.88;552.019;1.72
764;1953.83;579.608;1.72
765;1921.79;583.514;1.72
766;1934;585.467;1.72
767;1958.72;571.795;1.72
768;1961.16;557.878;1.72
769;1958.72;575.701;1.72
770;1936.74;591.571;1.72
771;1897.07;561.785;1.73
772;1877.23;573.748;1.73
773;1916.91;605.243;1.73
774;1941.63;577.654;1.73
775;1951.39;569.842;1.73
776;1953.83;571.795;1.73
777;1929.11;583.514;1.73
778;1904.39;595.477;1.73
779;1912.02;583.514;1.73
780;1958.72;565.935;1.73
781;1980.99;597.43;1.73
782;1993.51;581.561;1.73
783;1985.88;555.925;1.73
784;1953.83;575.701;1.73
785;1921.79;585.467;1.73
786;1936.74;583.514;1.74001
787;1958.72;573.748;1.74001
788;1966.35;557.878;1.74001
789;1966.35;579.608;1.74001
790;1939.18;589.618;1.74001
791;1904.39;555.925;1.74001
792;1884.86;573.748;1.74001
793;1919.35;601.337;1.74001
794;1944.07;577.654;1.74001
795;1953.83;567.888;1.74001
796;1953.83;571.795;1.74001
797;1936.74;579.608;1.74001
798;1901.95;599.384;1.74001
799;1931.55;581.561;1.74001
800;1971.23;565.935;1.74001
801;1988.32;601.337;1.75
802;1993.51;577.654;1.75
803;1976.11;557.878;1.75
804;1941.63;573.748;1.75
805;1921.79;587.42;1.75
806;1948.95;583.514;1.75
807;1963.9;573.748;1.75
808;1966.35;555.925;1.75
809;1958.72;581.561;1.75
810;1926.67;585.467;1.75
811;1887.3;552.019;1.75
812;1892.19;581.561;1.75
813;1929.11;595.477;1.75
814;1946.51;579.608;1.75
815;1953.83;567.888;1.75
816;1946.51;577.654;1.75
817;1924.23;577.654;1.76
818;1901.95;601.337;1.76
819;1934;573.748;1.76
820;1973.67;552.019;1.76
821;1988.32;581.561;1.76
822;1995.95;599.384;1.76
823;1980.99;540.056;1.76
824;1946.51;575.701;1.76
825;1921.79;575.701;1.76
826;1946.51;583.514;1.76
827;1963.9;569.842;1.76
828;1966.35;569.842;1.76
829;1961.16;563.738;1.76
830;1929.11;599.384;1.76
831;1892.19;571.795;1.76
832;1892.19;557.878;1.77
833;1931.55;615.253;1.77
834;1948.95;577.654;1.77
835;1958.72;573.748;1.77
836;1951.39;567.888;1.77
837;1926.67;583.514;1.77
838;1904.39;581.561;1.77
839;1934;591.571;1.77
840;1971.23;555.925;1.77
841;1991.07;581.561;1.77
842;1998.39;595.477;1.77
843;1985.88;542.009;1.77
844;1946.51;575.701;1.77
845;1924.23;577.654;1.77
846;1946.51;585.467;1.77
847;1963.9;569.842;1.78001
848;1966.35;563.738;1.78001
849;1961.16;565.935;1.78001
850;1931.55;595.477;1.78001
851;1892.19;567.888;1.78001
852;1892.19;559.832;1.78001
853;1931.55;611.347;1.78001
854;1948.95;575.701;1.78001
855;1958.72;569.842;1.78001
856;1956.27;569.842;1.78001
857;1929.11;581.561;1.78001
858;1904.39;585.467;1.78001
859;1929.11;589.618;1.78001
860;1971.23;559.832;1.78001
861;1993.51;583.514;1.78001
862;2000.83;589.618;1.79
863;1983.44;544.206;1.79
864;1951.39;573.748;1.79
865;1926.67;581.561;1.79
866;1948.95;585.467;1.79
867;1966.35;571.795;1.79
868;1973.67;561.785;1.79
869;1966.35;567.888;1.79
870;1936.74;595.477;1.79
871;1897.07;565.935;1.79
872;1894.63;563.738;1.79
873;1931.55;607.196;1.79
874;1948.95;573.748;1.79
875;1958.72;569.842;1.79
876;1953.83;569.842;1.79
877;1934;581.561;1.8
878;1906.83;589.618;1.8
879;1929.11;585.467;1.8
880;1973.67;559.832;1.8
881;1991.07;589.618;1.8
882;2000.83;587.42;1.8
883;1985.88;548.112;1.8
884;1953.83;573.748;1.8
885;1926.67;579.608;1.8
886;1944.07;583.514;1.8
887;1963.9;571.795;1.8
888;1968.79;559.832;1.8
889;1963.9;573.748;1.8
890;1934;589.618;1.8
891;1897.07;559.832;1.8
892;1887.3;569.842;1.81001
893;1929.11;603.29;1.81001
894;1946.51;573.748;1.81001
895;1958.72;567.888;1.81001
896;1956.27;569.842;1.81001
897;1931.55;583.514;1.81001
898;1904.39;593.524;1.81001
899;1929.11;581.561;1.81001
900;1971.23;561.785;1.81001
901;1988.32;593.524;1.81001
902;1998.39;583.514;1.81001
903;1985.88;548.112;1.81001
904;1951.39;573.748;1.81001
905;1924.23;583.514;1.81001
906;1944.07;583.514;1.81001
907;1963.9;571.795;1.81001
908;1968.79;557.878;1.82
909;1966.35;575.701;1.82
910;1936.74;587.42;1.82
911;1897.07;555.925;1.82
912;1889.74;573.748;1.82
913;1929.11;599.384;1.82
914;1946.51;575.701;1.82
915;1958.72;565.935;1.82
916;1956.27;567.888;1.82
917;1936.74;577.654;1.82
918;1906.83;593.524;1.82
919;1926.67;579.608;1.82
920;1971.23;563.738;1.82
921;1988.32;595.477;1.82
922;2000.83;579.608;1.82
923;1991.07;553.972;1.83
924;1956.27;573.748;1.83
925;1926.67;583.514;1.83
926;1944.07;585.467;1.83
927;1966.35;571.795;1.83
928;1971.23;552.019;1.83
929;1968.79;577.654;1.83
930;1941.63;587.42;1.83
931;1904.39;553.972;1.83
932;1889.74;571.795;1.83
933;1926.67;597.43;1.83
934;1951.39;575.701;1.83
935;1958.72;565.935;1.83
936;1958.72;571.795;1.83
937;1934;577.654;1.83
938;1909.58;595.477;1.84
939;1929.11;577.654;1.84
940;1973.67;565.935;1.84
941;1993.51;599.384;1.84
942;2000.83;595.477;1.84
943;1993.51;538.102;1.84
944;1958.72;571.795;1.84
945;1931.55;571.795;1.84
946;1946.51;581.561;1.84
947;1966.35;565.935;1.84
948;1976.11;567.888;1.84
949;1973.67;557.878;1.84
950;1944.07;599.384;1.84
951;1906.83;571.795;1.84
952;1894.63;553.972;1.84
953;1931.55;615.253;1.84
954;1953.83;575.701;1.85001
955;1963.9;571.795;1.85001
956;1963.9;567.888;1.85001
957;1941.63;583.514;1.85001
958;1914.46;581.561;1.85001
959;1929.11;591.571;1.85001
960;1976.11;552.019;1.85001
961;1995.95;579.608;1.85001
962;2005.71;595.477;1.85001
963;1995.95;540.056;1.85001
964;1961.16;573.748;1.85001
965;1936.74;575.701;1.85001
966;1948.95;583.514;1.85001
967;1971.23;567.888;1.85001
968;1978.55;563.738;1.85001
969;1973.67;563.738;1.86
970;1948.95;597.43;1.86
971;1909.58;569.842;1.86
972;1889.74;555.925;1.86
973;1929.11;611.347;1.86
974;1953.83;575.701;1.86
975;1961.16;569.842;1.86
976;1961.16;565.935;1.86
977;1941.63;579.608;1.86
978;1912.02;585.467;1.86
979;1926.67;587.42;1.86
980;1971.23;553.972;1.86
981;1988.32;579.608;1.86
982;2003.27;591.571;1.86
983;1995.95;540.056;1.86
984;1963.9;573.748;1.87
985;1934;575.701;1.87
986;1944.07;583.514;1.87
987;1968.79;569.842;1.87
988;1976.11;559.832;1.87
989;1976.11;563.738;1.87
990;1948.95;595.477;1.87
991;1912.02;563.738;1.87
992;1892.19;559.832;1.87
993;1926.67;607.196;1.87
994;1951.39;573.748;1.87
995;1963.9;567.888;1.87
996;1963.9;565.935;1.87
997;1941.63;579.608;1.87
998;1914.46;583.514;1.87
999;1924.23;585.467;1.88
1000;1971.23;555.925;1.88
1001;1993.51;585.467;1.88
1002;2003.27;589.618;1.88
1003;1998.39;542.009;1.88
1004;1963.9;573.748;1.88
1005;1934;579.608;1.88
1006;1944.07;579.608;1.88
1007;1968.79;567.888;1.88
1008;1976.11;557.878;1.88
1009;1973.67;567.888;1.88
1010;1953.83;589.618;1.88
1011;1912.02;561.785;1.88
1012;1892.19;563.738;1.88
1013;1929.11;607.196;1.88
1014;1951.39;571.795;1.88
1015;1963.9;563.738;1.89
1016;1968.79;565.935;1.89
1017;1948.95;577.654;1.89
1018;1919.35;589.618;1.89
1019;1921.79;583.514;1.89
1020;1968.79;559.832;1.89
1021;1991.07;589.618;1.89
1022;2003.27;583.514;1.89
1023;2003.27;546.159;1.89
1024;1968.79;571.795;1.89
1025;1936.74;579.608;1.89
1026;1944.07;581.561;1.89
1027;1968.79;567.888;1.89
1028;1976.11;553.972;1.89
1029;1976.11;573.748;1.9
1030;1953.83;589.618;1.9
1031;1914.46;557.878;1.9
1032;1889.74;565.935;1.9
1033;1924.23;601.337;1.9
1034;1951.39;573.748;1.9
1035;1963.9;565.935;1.9
1036;1966.35;565.935;1.9
1037;1948.95;577.654;1.9
1038;1916.91;591.571;1.9
1039;1924.23;579.608;1.9
1040;1968.79;559.832;1.9
1041;1993.51;589.618;1.9
1042;2005.71;579.608;1.9
1043;2000.83;548.112;1.9
1044;1971.23;571.795;1.9
1045;1936.74;581.561;1.91
1046;1956.27;581.561;1.91
1047;1976.11;569.842;1.91
1048;1978.55;552.019;1.91
1049;1973.67;575.701;1.91
1050;1941.63;585.467;1.91
1051;1899.51;553.972;1.91
1052;1901.95;569.842;1.91
1053;1944.07;599.384;1.91
1054;1958.72;573.748;1.91
1055;1968.79;561.785;1.91
1056;1963.9;565.935;1.91
1057;1941.63;575.701;1.91
1058;1914.46;593.524;1.91
1059;1944.07;577.654;1.91
1060;1983.44;561.785;1.91
1061;2000.83;597.43;1.92001
1062;2008.16;575.701;1.92001
1063;1993.51;555.925;1.92001
1064;1958.72;571.795;1.92001
1065;1934;575.701;1.92001
1066;1956.27;579.608;1.92001
1067;1976.11;567.888;1.92001
1068;1980.99;559.832;1.92001
1069;1976.11;563.738;1.92001
1070;1944.07;591.571;1.92001
1071;1904.39;561.785;1.92001
1072;1901.95;559.832;1.92001
1073;1939.18;607.196;1.92001
1074;1961.16;573.748;1.92001
1075;1968.79;565.935;1.92001
1076;1963.9;563.738;1.92001
1077;1941.63;579.608;1.92001
1078;1916.91;587.42;1.93
1079;1941.63;583.514;1.93
1080;1983.44;557.878;1.93
1081;2003.27;587.42;1.93
1082;2010.6;583.514;1.93
1083;1993.51;546.159;1.93
1084;1961.16;571.795;1.93
1085;1936.74;579.608;1.93
1086;1956.27;579.608;1.93
1087;1973.67;567.888;1.93
1088;1980.99;557.878;1.93
1089;1976.11;569.842;1.93
1090;1948.95;587.42;1.93
1091;1909.58;559.832;1.93
1092;1901.95;563.738;1.93
1093;1941.63;601.337;1.93
1094;1961.16;571.795;1.94
1095;1971.23;563.738;1.94
1096;1968.79;565.935;1.94
1097;1944.07;573.748;1.94
1098;1916.91;589.618;1.94
1099;1944.07;579.608;1.94
1100;1985.88;559.832;1.94
1101;2003.27;589.618;1.94
1102;2013.04;581.561;1.94
1103;2000.83;548.112;1.94
1104;1966.35;571.795;1.94
1105;1939.18;579.608;1.94
1106;1958.72;579.608;1.94
1107;1976.11;567.888;1.94
1108;1983.44;553.972;1.94
1109;1980.99;571.795;1.94
1110;1948.95;587.42;1.95
1111;1909.58;553.972;1.95
1112;1901.95;569.842;1.95
1113;1941.63;597.43;1.95
1114;1966.35;571.795;1.95
1115;1971.23;559.832;1.95
1116;1971.23;565.935;1.95
1117;1948.95;575.701;1.95
1118;1921.79;591.571;1.95
1119;1944.07;577.654;1.95
1120;1983.44;559.832;1.95
1121;2003.27;591.571;1.95
1122;2013.04;577.654;1.95
1123;2000.83;552.019;1.95
1124;1968.79;569.842;1.95
1125;1941.63;581.561;1.96001
1126;1956.27;581.561;1.96001
1127;1978.55;561.785;1.96001
1128;1985.88;569.842;1.96001
1129;1985.88;553.972;1.96001
1130;1953.83;599.384;1.96001
1131;1914.46;573.748;1.96001
1132;1901.95;546.159;1.96001
1133;1941.63;611.347;1.96001
1134;1963.9;573.748;1.96001
1135;1973.67;573.748;1.96001
1136;1971.23;561.785;1.96001
1137;1946.51;581.561;1.96001
1138;1919.35;575.701;1.96001
1139;1941.63;589.618;1.96001
1140;1983.44;548.112;1.96001
1141;2005.71;573.748;1.97
1142;2018.23;597.43;1.97
1143;2003.27;538.102;1.97
1144;1973.67;569.842;1.97
1145;1944.07;569.842;1.97
1146;1956.27;583.514;1.97
1147;1978.55;563.738;1.97
1148;1980.99;565.935;1.97
1149;1978.55;559.832;1.97
1150;1953.83;597.43;1.97
1151;1912.02;567.888;1.97
1152;1899.51;550.066;1.97
1153;1941.63;611.347;1.97
1154;1963.9;573.748;1.97
1155;1976.11;569.842;1.97
1156;1976.11;563.738;1.98
1157;1951.39;579.608;1.98
1158;1921.79;579.608;1.98
1159;1939.18;589.618;1.98
1160;1983.44;548.112;1.98
1161;2005.71;575.701;1.98
1162;2013.04;595.477;1.98
1163;2003.27;536.149;1.98
1164;1973.67;569.842;1.98
1165;1941.63;571.795;1.98
1166;1956.27;581.561;1.98
1167;1976.11;563.738;1.98
1168;1985.88;563.738;1.98
1169;1983.44;559.832;1.98
1170;1956.27;595.477;1.98
1171;1904.39;565.935;1.99001
1172;1904.39;552.019;1.99001
1173;1946.51;609.149;1.99001
1174;1963.9;573.748;1.99001
1175;1973.67;567.888;1.99001
1176;1971.23;563.738;1.99001
1177;1946.51;575.701;1.99001
1178;1919.35;579.608;1.99001
1179;1946.51;587.42;1.99001
1180;1988.32;550.066;1.99001
1181;2005.71;579.608;1.99001
1182;2015.48;589.618;1.99001
1183;1998.39;540.056;1.99001
1184;1963.9;569.842;1.99001
1185;1941.63;573.748;1.99001
1186;1963.9;581.561;2
1187;1980.99;565.935;2
1188;1988.32;557.878;2
1189;1983.44;561.785;2
1190;1953.83;593.524;2
1191;1914.46;561.785;2
1192;1906.83;555.925;2
1193;1948.95;607.196;2
1194;1968.79;573.748;2
1195;1976.11;567.888;2
1196;1973.67;561.785;2
1197;1951.39;575.701;2
1198;1924.23;585.467;2
1199;1948.95;585.467;2
1200;1988.32;553.972;2
1201;2008.16;581.561;2.01
1202;2020.67;587.42;2.01
1203;2003.27;544.206;2.01
1204;1968.79;571.795;2.01
1205;1944.07;575.701;2.01
1206;1961.16;579.608;2.01
1207;1985.88;565.935;2.01
1208;1991.07;555.925;2.01
1209;1988.32;565.935;2.01
1210;1956.27;589.618;2.01
1211;1916.91;561.785;2.01
1212;1906.83;559.832;2.01
1213;1951.39;605.243;2.01
1214;1968.79;571.795;2.01
1215;1980.99;565.935;2.02
1216;1978.55;561.785;2.02
1217;1953.83;577.654;2.02
1218;1926.67;585.467;2.02
1219;1948.95;579.608;2.02
1220;1993.51;555.925;2.02
1221;2013.04;583.514;2.02
1222;2020.67;583.514;2.02
1223;2010.6;546.159;2.02
1224;1973.67;569.842;2.02
1225;1948.95;575.701;2.02
1226;1966.35;581.561;2.02
1227;1988.32;565.935;2.02
1228;1991.07;553.972;2.02
1229;1988.32;569.842;2.03001
1230;1961.16;587.42;2.03001
1231;1919.35;553.972;2.03001
1232;1909.58;565.935;2.03001
1233;1951.39;601.337;2.03001
1234;1968.79;571.795;2.03001
1235;1983.44;563.738;2.03001
1236;1980.99;563.738;2.03001
1237;1961.16;573.748;2.03001
1238;1929.11;587.42;2.03001
1239;1948.95;577.654;2.03001
1240;1995.95;557.878;2.03001
1241;2013.04;589.618;2.03001
1242;2023.11;577.654;2.03001
1243;2010.6;548.112;2.04
1244;1973.67;567.888;2.04
1245;1948.95;579.608;2.04
1246;1966.35;575.701;2.04
1247;1988.32;567.888;2.04
1248;1995.95;550.066;2.04
1249;1991.07;552.019;2.04
1250;1963.9;599.384;2.04
1251;1921.79;573.748;2.04
1252;1912.02;544.206;2.04
1253;1953.83;607.196;2.04
1254;1973.67;573.748;2.04
1255;1985.88;575.701;2.04
1256;1983.44;559.832;2.04
1257;1963.9;579.608;2.04
1258;1934;573.748;2.05
1259;1951.39;593.524;2.05
1260;1993.51;546.159;2.05
1261;2015.48;571.795;2.05
1262;2023.11;599.384;2.05
1263;2013.04;536.149;2.05
1264;1978.55;567.888;2.05
1265;1948.95;567.888;2.05
1266;1966.35;583.514;2.05
1267;1991.07;561.785;2.05
1268;1993.51;565.935;2.05
1269;1993.51;553.972;2.05
1270;1966.35;595.477;2.05
1271;1926.67;569.842;2.05
1272;1914.46;546.159;2.06001
1273;1953.83;609.149;2.06001
1274;1976.11;571.795;2.06001
1275;1985.88;571.795;2.06001
1276;1983.44;561.785;2.06001
1277;1963.9;577.654;2.06001
1278;1934;573.748;2.06001
1279;1951.39;589.618;2.06001
1280;1995.95;548.112;2.06001
1281;2018.23;573.748;2.06001
1282;2027.99;595.477;2.06001
1283;2018.23;534.196;2.06001
1284;1983.44;569.842;2.06001
1285;1953.83;571.795;2.07
1286;1966.35;579.608;2.07
1287;1991.07;561.785;2.07
1288;1998.39;563.738;2.07
1289;1998.39;555.925;2.07
1290;1973.67;595.477;2.07
1291;1931.55;569.842;2.07
1292;1914.46;548.112;2.07
1293;1953.83;611.347;2.07
1294;1976.11;571.795;2.07
1295;1983.44;569.842;2.07
1296;1983.44;565.935;2.07
1297;1966.35;579.608;2.07
1298;1934;579.608;2.07
1299;1946.51;587.42;2.07
1300;1995.95;550.066;2.08
1301;2015.48;575.701;2.08
1302;2025.55;591.571;2.08
1303;2020.67;536.149;2.08
1304;1988.32;567.888;2.08
1305;1953.83;571.795;2.08
1306;1968.79;577.654;2.08
1307;1991.07;563.738;2.08
1308;1995.95;561.785;2.08
1309;1993.51;557.878;2.08
1310;1971.23;591.571;2.08
1311;1929.11;561.785;2.08
1312;1906.83;550.066;2.08
1313;1946.51;607.196;2.08
1314;1971.23;569.842;2.09
1315;1980.99;567.888;2.09
1316;1983.44;561.785;2.09
1317;1963.9;577.654;2.09
1318;1931.55;581.561;2.09
1319;1941.63;587.42;2.09
1320;1991.07;550.066;2.09
1321;2015.48;579.608;2.09
1322;2023.11;587.42;2.09
1323;2018.23;538.102;2.09
1324;1985.88;567.888;2.09
1325;1951.39;573.748;2.09
1326;1961.16;579.608;2.09
1327;1988.32;563.738;2.10001
1328;1998.39;557.878;2.10001
1329;1995.95;561.785;2.10001
1330;1973.67;591.571;2.10001
1331;1934;561.785;2.10001
1332;1909.58;553.972;2.10001
1333;1946.51;607.196;2.10001
1334;1971.23;571.795;2.10001
1335;1983.44;565.935;2.10001
1336;1985.88;561.785;2.10001
1337;1966.35;573.748;2.10001
1338;1936.74;585.467;2.10001
1339;1944.07;583.514;2.10001
1340;1991.07;552.019;2.10001
1341;2015.48;579.608;2.11
1342;2027.99;585.467;2.11
1343;2020.67;540.056;2.11
1344;1991.07;571.795;2.11
1345;1956.27;575.701;2.11
1346;1963.9;577.654;2.11
1347;1988.32;565.935;2.11
1348;1998.39;555.925;2.11
1349;2000.83;563.738;2.11
1350;1976.11;589.618;2.11
1351;1936.74;557.878;2.11
1352;1912.02;557.878;2.11
1353;1946.51;601.337;2.11
1354;1973.67;569.842;2.11
1355;1980.99;563.738;2.12
1356;1983.44;561.785;2.12
1357;1968.79;575.701;2.12
1358;1936.74;585.467;2.12
1359;1944.07;579.608;2.12
1360;1993.51;555.925;2.12
1361;2015.48;585.467;2.12
1362;2027.99;581.561;2.12
1363;2025.55;542.009;2.12
1364;1993.51;571.795;2.12
1365;1961.16;575.701;2.12
1366;1966.35;579.608;2.12
1367;1991.07;565.935;2.12
1368;2000.83;553.972;2.12
1369;1998.39;567.888;2.13
1370;1978.55;585.467;2.13
1371;1939.18;553.972;2.13
1372;1914.46;550.066;2.13
1373;1951.39;607.196;2.13
1374;1976.11;569.842;2.13
1375;1988.32;567.888;2.13
1376;1993.51;561.785;2.13
1377;1971.23;577.654;2.13
1378;1944.07;577.654;2.13
1379;1944.07;583.514;2.13
1380;1993.51;550.066;2.13
1381;2018.23;575.701;2.13
1382;2030.43;589.618;2.13
1383;2027.99;538.102;2.14
1384;1998.39;567.888;2.14
1385;1966.35;571.795;2.14
1386;1968.79;579.608;2.14
1387;1995.95;563.738;2.14
1388;2000.83;559.832;2.14
1389;2000.83;561.785;2.14
1390;1980.99;591.571;2.14
1391;1941.63;561.785;2.14
1392;1914.46;555.925;2.14
1393;1946.51;605.243;2.14
1394;1978.55;571.795;2.14
1395;1991.07;565.935;2.14
1396;1993.51;561.785;2.14
1397;1976.11;575.701;2.15
1398;1946.51;581.561;2.15
1399;1946.51;581.561;2.15
1400;1993.51;550.066;2.15
1401;2020.67;577.654;2.15
1402;2030.43;585.467;2.15
1403;2030.43;540.056;2.15
1404;2000.83;569.842;2.15
1405;1968.79;573.748;2.15
1406;1971.23;579.608;2.15
1407;1993.51;565.935;2.15
1408;2005.71;555.925;2.15
1409;2005.71;563.738;2.15
1410;1985.88;587.42;2.15
1411;1946.51;559.832;2.16
1412;1914.46;557.878;2.16
1413;1946.51;601.337;2.16
1414;1976.11;569.842;2.16
1415;1991.07;563.738;2.16
1416;1993.51;561.785;2.16
1417;1976.11;573.748;2.16
1418;1946.51;585.467;2.16
1419;1946.51;579.608;2.16
1420;1993.51;553.972;2.16
1421;2018.23;583.514;2.16
1422;2035.32;581.561;2.16
1423;2023.11;544.206;2.16
1424;1988.32;569.842;2.16
1425;1961.16;575.701;2.17001
1426;1980.99;579.608;2.17001
1427;2000.83;563.738;2.17001
1428;2008.16;553.972;2.17001
1429;2003.27;565.935;2.17001
1430;1973.67;585.467;2.17001
1431;1936.74;553.972;2.17001
1432;1929.11;563.738;2.17001
1433;1966.35;597.43;2.17001
1434;1988.32;573.748;2.17001
1435;1998.39;575.701;2.17001
1436;1995.95;561.785;2.17001
1437;1971.23;581.561;2.17001
1438;1941.63;569.842;2.17001
1439;1963.9;593.524;2.18
1440;2010.6;544.206;2.18
1441;2032.88;567.888;2.18
1442;2040.2;597.43;2.18
1443;2027.99;538.102;2.18
1444;1993.51;567.888;2.18
1445;1966.35;565.935;2.18
1446;1983.44;581.561;2.18
1447;2005.71;559.832;2.18
1448;2008.16;567.888;2.18
1449;2005.71;550.066;2.18
1450;1976.11;599.384;2.18
1451;1936.74;573.748;2.18
1452;1926.67;540.056;2.18
1453;1968.79;605.243;2.19
1454;1993.51;569.842;2.19
1455;2000.83;573.748;2.19
1456;1998.39;559.832;2.19
1457;1978.55;579.608;2.19
1458;1948.95;571.795;2.19
1459;1966.35;591.571;2.19
1460;2013.04;544.206;2.19
1461;2032.88;569.842;2.19
1462;2042.64;593.524;2.19
1463;2032.88;534.196;2.19
1464;1998.39;565.935;2.19
1465;1968.79;563.738;2.19
1466;1985.88;579.608;2.19
1467;2008.16;559.832;2.19
1468;2018.23;565.935;2.2
1469;2013.04;552.019;2.2
1470;1988.32;597.43;2.2
1471;1946.51;569.842;2.2
1472;1931.55;544.206;2.2
1473;1973.67;607.196;2.2
1474;1993.51;569.842;2.2
1475;2005.71;569.842;2.2
1476;2003.27;559.832;2.2
1477;1980.99;577.654;2.2
1478;1953.83;571.795;2.2
1479;1971.23;589.618;2.2
1480;2015.48;546.159;2.2
1481;2037.76;569.842;2.21001
1482;2047.83;591.571;2.21001
1483;2037.76;534.196;2.21001
1484;2005.71;569.842;2.21001
1485;1973.67;567.888;2.21001
1486;1988.32;577.654;2.21001
1487;2013.04;561.785;2.21001
1488;2018.23;563.738;2.21001
1489;2015.48;555.925;2.21001
1490;1988.32;595.477;2.21001
1491;1948.95;567.888;2.21001
1492;1931.55;546.159;2.21001
1493;1971.23;609.149;2.22
1494;1998.39;567.888;2.22
1495;2008.16;565.935;2.22
1496;2005.71;561.785;2.22
1497;1985.88;577.654;2.22
1498;1956.27;575.701;2.22
1499;1968.79;585.467;2.22
1500;2015.48;544.206;2.22
1501;2040.2;573.748;2.22
1502;2052.71;591.571;2.22
1503;2045.39;534.196;2.22
1504;2010.6;569.842;2.22
1505;1978.55;569.842;2.22
1506;1993.51;577.654;2.23
1507;2015.48;563.738;2.23
1508;2020.67;561.785;2.23
1509;2023.11;557.878;2.23
1510;1995.95;593.524;2.23
1511;1953.83;563.738;2.23
1512;1931.55;548.112;2.23
1513;1973.67;607.196;2.23
1514;1998.39;571.795;2.23
1515;2010.6;567.888;2.23
1516;2013.04;561.785;2.23
1517;1991.07;575.701;2.23
1518;1961.16;577.654;2.23
1519;1971.23;581.561;2.24001
1520;2020.67;550.066;2.24001
1521;2042.64;575.701;2.24001
1522;2057.6;587.42;2.24001
1523;2047.83;536.149;2.24001
1524;2015.48;567.888;2.24001
1525;1983.44;571.795;2.24001
1526;1993.51;577.654;2.24001
1527;2020.67;563.738;2.24001
1528;2025.55;555.925;2.24001
1529;2023.11;559.832;2.24001
1530;2003.27;589.618;2.24001
1531;1961.16;559.832;2.24001
1532;1936.74;555.925;2.25
1533;1976.11;603.29;2.25
1534;2003.27;567.888;2.25
1535;2013.04;563.738;2.25
1536;2015.48;561.785;2.25
1537;1995.95;573.748;2.25
1538;1966.35;581.561;2.25
1539;1976.11;579.608;2.25
1540;2023.11;552.019;2.25
1541;2045.39;579.608;2.25
1542;2057.6;585.467;2.25
1543;2052.71;540.056;2.25
1544;2018.23;565.935;2.26
1545;1985.88;571.795;2.26
1546;1995.95;575.701;2.26
1547;2023.11;563.738;2.26
1548;2030.43;553.972;2.26
1549;2027.99;563.738;2.26
1550;2005.71;587.42;2.26
1551;1963.9;553.972;2.26
1552;1941.63;557.878;2.26
1553;1980.99;599.384;2.26
1554;2008.16;567.888;2.26
1555;2015.48;573.748;2.26
1556;2020.67;557.878;2.27
1557;2000.83;581.561;2.27
1558;1968.79;567.888;2.27
1559;1978.55;591.571;2.27
1560;2025.55;544.206;2.27
1561;2050.27;567.888;2.27
1562;2062.48;595.477;2.27
1563;2057.6;540.056;2.27
1564;2027.99;563.738;2.27
1565;1991.07;563.738;2.27
1566;1998.39;579.608;2.27
1567;2023.11;555.925;2.27
1568;2032.88;567.888;2.28001
1569;2030.43;546.159;2.28001
1570;2008.16;597.43;2.28001
1571;1966.35;571.795;2.28001
1572;1944.07;540.056;2.28001
1573;1978.55;597.43;2.28001
1574;2008.16;571.795;2.28001
1575;2020.67;573.748;2.28001
1576;2023.11;555.925;2.28001
1577;2003.27;579.608;2.28001
1578;1973.67;567.888;2.28001
1579;1976.11;591.571;2.28001
1580;2027.99;544.206;2.29
1581;2052.71;565.935;2.29
1582;2064.92;597.43;2.29
1583;2060.04;534.196;2.29
1584;2030.43;565.935;2.29
1585;1993.51;563.738;2.29
1586;1998.39;577.654;2.29
1587;2027.99;559.832;2.29
1588;2037.76;565.935;2.29
1589;2035.32;548.112;2.29
1590;2018.23;595.477;2.29
1591;1976.11;569.842;2.29
1592;1948.95;542.009;2.3
1593;1983.44;603.29;2.3
1594;2010.6;571.795;2.3
1595;2027.99;569.842;2.3
1596;2030.43;557.878;2.3
1597;2010.6;577.654;2.3
1598;1983.44;571.795;2.3
1599;1980.99;589.618;2.3
1600;2030.43;546.159;2.3
1601;2057.6;569.842;2.3
1602;2072.55;593.524;2.3
1603;2067.36;532.243;2.3
1604;2040.2;567.888;2.31001
1605;2003.27;563.738;2.31001
1606;2005.71;577.654;2.31001
1607;2032.88;557.878;2.31001
1608;2040.2;565.935;2.31001
1609;2042.64;552.019;2.31001
1610;2023.11;593.524;2.31001
1611;1980.99;567.888;2.31001
1612;1951.39;546.159;2.31001
1613;1985.88;607.196;2.31001
1614;2018.23;569.842;2.31001
1615;2030.43;567.888;2.32
1616;2032.88;557.878;2.32
1617;2018.23;575.701;2.32
1618;1985.88;571.795;2.32
1619;1985.88;587.42;2.32
1620;2032.88;544.206;2.32
1621;2062.48;571.795;2.32
1622;2072.55;589.618;2.32
1623;2067.36;530.29;2.32
1624;2037.76;567.888;2.32
1625;2003.27;567.888;2.32
1626;2003.27;577.654;2.32
1627;2032.88;561.785;2.33
1628;2042.64;559.832;2.33
1629;2042.64;552.019;2.33
1630;2023.11;591.571;2.33
1631;1985.88;563.738;2.33
1632;1956.27;548.112;2.33
1633;1985.88;607.196;2.33
1634;2018.23;567.888;2.33
1635;2030.43;563.738;2.33
1636;2037.76;559.832;2.33
1637;2020.67;577.654;2.33
1638;1988.32;575.701;2.34
1639;1985.88;583.514;2.34
1640;2035.32;546.159;2.34
1641;2062.48;573.748;2.34
1642;2077.43;587.42;2.34
1643;2074.99;534.196;2.34
1644;2045.39;565.935;2.34
1645;2010.6;567.888;2.34
1646;2008.16;577.654;2.34
1647;2037.76;559.832;2.34
1648;2050.27;557.878;2.34
1649;2050.27;555.925;2.35001
1650;2032.88;589.618;2.35001
1651;1991.07;561.785;2.35001
1652;1958.72;550.066;2.35001
1653;1991.07;605.243;2.35001
1654;2023.11;567.888;2.35001
1655;2037.76;563.738;2.35001
1656;2042.64;559.832;2.35001
1657;2025.55;573.748;2.35001
1658;1993.51;575.701;2.35001
1659;1985.88;579.608;2.35001
1660;2037.76;548.112;2.35001
1661;2067.36;573.748;2.36
1662;2077.43;585.467;2.36
1663;2077.43;534.196;2.36
1664;2047.83;567.888;2.36
1665;2010.6;571.795;2.36
1666;2010.6;575.701;2.36
1667;2040.2;561.785;2.36
1668;2052.71;555.925;2.36
1669;2052.71;559.832;2.36
1670;2037.76;587.42;2.36
1671;1995.95;559.832;2.36
1672;1966.35;553.972;2.37
1673;2013.04;605.243;2.37
1674;2035.32;567.888;2.37
1675;2045.39;561.785;2.37
1676;2045.39;561.785;2.37
1677;2020.67;573.748;2.37
1678;1991.07;569.842;2.37
1679;2008.16;587.42;2.37
1680;2057.6;542.009;2.37
1681;2079.87;567.888;2.37
1682;2089.64;591.571;2.37
1683;2079.87;530.29;2.38
1684;2042.64;565.935;2.38
1685;2013.04;567.888;2.38
1686;2030.43;577.654;2.38
1687;2052.71;559.832;2.38
1688;2062.48;559.832;2.38
1689;2057.6;552.019;2.38
1690;2030.43;593.524;2.38
