<WeldAnalyseData xmlns:i="http:www.w3.org/2001/XMLSchema-instance">
<WeldParameter>
<TimeStamp>DT#2024-01-25-14:46:57</TimeStamp>
<Generator>SG-22-10000</Generator>
<GenFreq>20</GenFreq>
<MaxForce>8000</MaxForce>
<MaxPower>10000</MaxPower>
<RunupPressure>1.5</RunupPressure>
<RunupDist>10</RunupDist>
<RunPress>0.8</RunPress>
<ShakeDelay>0.03</ShakeDelay>
<ShakeTime>0.3</ShakeTime>
<RunBackPress1>6</RunBackPress1>
<RunBackPress2>2</RunBackPress2>
<RunBackDist>1</RunBackDist>
<TrigValue>500</TrigValue>
<TrigModeUnit>W</TrigModeUnit>
<WeldModeUnit>Ws</WeldModeUnit>
<PressNr>0</PressNr>
<MaxLoss>1500</MaxLoss>
</WeldParameter>
<WeldSets>
<WeldSet>
<PressRiseTime>0</PressRiseTime>
<RunPressure>1</RunPressure>
<Amplitude>86</Amplitude>
<WeldMode>3270</WeldMode>
</WeldSet>
</WeldSets>
<WeldValue>
<WeldNr>3037</WeldNr>
<RecipeName>RickStyle</RecipeName>
<WeldTime>1698</WeldTime>
<DistDiff>2.46001</DistDiff>
<DistAbs>78.23</DistAbs>
<Energy>3271.65</Energy>
<MaxPower>2115.43</MaxPower>
<CycleTime>6010</CycleTime>
<TrigForce>504.654</TrigForce>
<TrigDist>75.77</TrigDist>
<RunSpeed>67.8335</RunSpeed>
<MaxForce>615.253</MaxForce>
<LossPower>326.357</LossPower>
</WeldValue>
</WeldAnalyseData>
#CSV-START#
ms;Power[W];Force[N];Distance[mm]
1;0;0;0
2;0;506.607;0
3;0;506.607;0
4;0;506.607;0
5;0;508.56;0
6;0;508.56;0
7;0;506.607;0
8;0;482.925;0.0100021
9;0;431.654;0.0200043
10;0;415.784;0.0400009
11;0;372.326;0.0699997
12;26.4367;358.409;0.110001
13;85.9478;352.55;0.140007
14;167.432;314.951;0.190002
15;246.475;312.998;0.230003
16;308.122;299.326;0.280006
17;369.77;303.232;0.32
18;436.3;291.269;0.370003
19;505.577;295.419;0.410004
20;567.225;289.315;0.450005
21;629.177;321.055;0.490005
22;683.5;317.148;0.520004
23;740.265;307.138;0.550003
24;816.561;358.409;0.57
25;888.279;340.831;0.590004
26;947.485;352.55;0.610001
27;1004.25;356.456;0.620003
28;1051.25;380.139;0.630005
29;1083.29;386.242;0.640007
30;1130.29;413.831;0.650002
31;1191.94;388.195;0.650002
32;1238.94;405.774;0.660004
33;1275.86;443.373;0.660004
34;1305.47;396.008;0.660004
35;1315.54;413.831;0.670006
36;1320.42;413.831;0.670006
37;1350.02;427.503;0.68
38;1394.58;413.831;0.690002
39;1429.07;423.597;0.690002
40;1458.67;405.774;0.700005
41;1470.88;453.383;0.700005
42;1465.99;435.56;0.710007
43;1470.88;403.821;0.710007
44;1520.32;461.196;0.720001
45;1564.87;435.56;0.720001
46;1594.48;439.467;0.730003
47;1624.08;427.503;0.730003
48;1631.41;449.232;0.740005
49;1628.96;439.467;0.75
50;1653.68;465.102;0.75
51;1712.89;419.691;0.760002
52;1755.01;443.373;0.760002
53;1782.17;475.112;0.770004
54;1796.82;413.831;0.780006
55;1784.61;447.279;0.780006
56;1767.21;445.326;0.790001
57;1787.05;463.149;0.800003
58;1829.16;447.279;0.800003
59;1853.58;459.243;0.810005
60;1863.65;441.42;0.810005
61;1856.33;490.738;0.82
62;1829.16;467.055;0.82
63;1816.65;441.42;0.830002
64;1863.65;506.607;0.830002
65;1903.02;470.962;0.840004
66;1922.86;475.112;0.840004
67;1937.81;461.196;0.850006
68;1927.74;484.878;0.850006
69;1907.9;479.019;0.860001
70;1917.97;498.795;0.860001
71;1972.3;455.336;0.870003
72;2004.34;484.878;0.870003
73;2024.18;508.56;0.870003
74;2021.74;447.279;0.880005
75;1992.13;484.878;0.880005
76;1962.23;484.878;0.890007
77;1972.3;498.795;0.890007
78;2001.9;480.972;0.890007
79;2016.55;486.831;0.900002
80;2021.74;477.065;0.900002
81;1999.46;516.373;0.910004
82;1964.97;490.738;0.910004
83;1945.14;475.112;0.910004
84;1989.39;536.149;0.920006
85;2021.74;500.748;0.920006
86;2038.83;498.795;0.93
87;2041.27;490.738;0.93
88;2016.55;506.607;0.93
89;1989.39;508.56;0.940002
90;1997.02;530.29;0.940002
91;2046.46;490.738;0.950005
92;2073.62;502.701;0.950005
93;2085.83;540.056;0.950005
94;2078.5;484.878;0.960007
95;2043.71;502.701;0.960007
96;2009.22;502.701;0.960007
97;2014.11;522.477;0.970001
98;2043.71;496.597;0.970001
99;2053.78;510.514;0.970001
100;2056.22;486.831;0.980003
101;2033.94;538.102;0.980003
102;1994.58;516.373;0.980003
103;1977.18;482.925;0.990005
104;2019.3;540.056;0.990005
105;2048.9;516.373;0.990005
106;2061.11;518.326;0.990005
107;2061.11;502.701;1
108;2036.39;528.336;1
109;2004.34;516.373;1
110;2009.22;542.009;1.01
111;2056.22;492.691;1.01
112;2080.94;514.42;1.01
113;2088.27;550.066;1.02
114;2078.5;486.831;1.02
115;2046.46;514.42;1.02
116;2004.34;512.467;1.03001
117;2011.67;530.29;1.03001
118;2033.94;508.56;1.03001
119;2043.71;520.524;1.03001
120;2041.27;502.701;1.04
121;2014.11;550.066;1.04
122;1969.86;524.43;1.04
123;1945.14;494.644;1.04
124;1986.95;559.832;1.05
125;2014.11;524.43;1.05
126;2026.62;528.336;1.05
127;2026.62;516.373;1.05
128;2004.34;534.196;1.06001
129;1977.18;526.383;1.06001
130;1982.06;548.112;1.06001
131;2031.5;502.701;1.06001
132;2056.22;528.336;1.07
133;2068.43;555.925;1.07
134;2061.11;490.738;1.07
135;2031.5;526.383;1.07
136;2004.34;526.383;1.08
137;2019.3;536.149;1.08
138;2048.9;518.326;1.08
139;2058.66;524.43;1.08
140;2053.78;512.467;1.09
141;2024.18;553.972;1.09
142;1974.74;530.29;1.09
143;1947.58;508.56;1.09
144;1984.5;571.795;1.09
145;2009.22;530.29;1.10001
146;2021.74;530.29;1.10001
147;2016.55;522.477;1.10001
148;1992.13;538.102;1.10001
149;1962.23;536.149;1.11
150;1967.41;550.066;1.11
151;2011.67;512.467;1.11
152;2033.94;530.29;1.11
153;2041.27;563.738;1.11
154;2033.94;500.748;1.12
155;1994.58;532.243;1.12
156;1962.23;528.336;1.12
157;1964.97;544.206;1.12
158;1989.39;526.383;1.12
159;1994.58;534.196;1.13
160;1994.58;516.373;1.13
161;1967.41;561.785;1.13
162;1925.3;536.149;1.13
163;1905.46;512.467;1.13
164;1945.14;573.748;1.13
165;1969.86;538.102;1.14001
166;1977.18;540.056;1.14001
167;1984.5;528.336;1.14001
168;1969.86;546.159;1.14001
169;1940.25;542.009;1.14001
170;1927.74;559.832;1.15
171;1967.41;514.42;1.15
172;1999.46;540.056;1.15
173;2016.55;565.935;1.15
174;2016.55;506.607;1.15
175;1989.39;540.056;1.15
176;1952.46;540.056;1.16
177;1940.25;552.019;1.16
178;1964.97;532.243;1.16
179;1977.18;536.149;1.16
180;1979.62;528.336;1.16
181;1964.97;565.935;1.17001
182;1927.74;540.056;1.17001
183;1893.25;522.477;1.17001
184;1913.09;561.785;1.17001
185;1950.02;550.066;1.17001
186;1964.97;548.112;1.17001
187;1972.3;530.29;1.18
188;1959.78;555.925;1.18
189;1930.18;546.159;1.18
190;1917.97;569.842;1.18
191;1954.9;528.336;1.18
192;1989.39;540.056;1.18
193;2004.34;577.654;1.19
194;2004.34;522.477;1.19
195;1977.18;540.056;1.19
196;1940.25;536.149;1.19
197;1927.74;555.925;1.19
198;1954.9;534.196;1.19
199;1967.41;544.206;1.2
200;1967.41;522.477;1.2
201;1952.46;571.795;1.2
202;1917.97;550.066;1.2
203;1883.49;518.326;1.2
204;1905.46;575.701;1.2
205;1937.81;555.925;1.21001
206;1954.9;555.925;1.21001
207;1964.97;536.149;1.21001
208;1950.02;561.785;1.21001
209;1922.86;548.112;1.21001
210;1905.46;573.748;1.21001
211;1950.02;526.383;1.21001
212;1979.62;550.066;1.22
213;1994.58;581.561;1.22
214;1994.58;522.477;1.22
215;1967.41;548.112;1.22
216;1930.18;544.206;1.22
217;1922.86;563.738;1.22
218;1947.58;538.102;1.23
219;1957.34;548.112;1.23
220;1962.23;530.29;1.23
221;1947.58;579.608;1.23
222;1907.9;553.972;1.23
223;1875.86;524.43;1.23
224;1898.14;587.42;1.23
225;1932.62;552.019;1.24001
226;1945.14;553.972;1.24001
227;1952.46;542.009;1.24001
228;1940.25;561.785;1.24001
229;1913.09;555.925;1.24001
230;1903.02;575.701;1.24001
231;1945.14;528.336;1.24001
232;1977.18;552.019;1.25
233;1989.39;579.608;1.25
234;1992.13;518.326;1.25
235;1964.97;552.019;1.25
236;1925.3;550.066;1.25
237;1915.53;565.935;1.25
238;1942.69;544.206;1.25
239;1954.9;552.019;1.26
240;1954.9;538.102;1.26
241;1942.69;581.561;1.26
242;1905.46;552.019;1.26
243;1870.98;532.243;1.26
244;1893.25;593.524;1.26
245;1927.74;565.935;1.26
246;1942.69;559.832;1.27
247;1950.02;544.206;1.27
248;1935.06;569.842;1.27
249;1907.9;557.878;1.27
250;1898.14;583.514;1.27
251;1937.81;546.159;1.27
252;1967.41;553.972;1.27
253;1982.06;591.571;1.28001
254;1982.06;538.102;1.28001
255;1954.9;553.972;1.28001
256;1917.97;550.066;1.28001
257;1910.65;569.842;1.28001
258;1935.06;548.112;1.28001
259;1947.58;555.925;1.28001
260;1950.02;536.149;1.28001
261;1937.81;581.561;1.29
262;1900.58;563.738;1.29
263;1868.53;526.383;1.29
264;1888.37;585.467;1.29
265;1922.86;567.888;1.29
266;1937.81;565.935;1.29
267;1945.14;552.019;1.29
268;1932.62;575.701;1.29
269;1905.46;563.738;1.3
270;1895.7;587.42;1.3
271;1937.81;542.009;1.3
272;1967.41;559.832;1.3
273;1982.06;595.477;1.3
274;1984.5;538.102;1.3
275;1957.34;559.832;1.3
276;1920.42;559.832;1.31001
277;1910.65;577.654;1.31001
278;1937.81;553.972;1.31001
279;1947.58;563.738;1.31001
280;1952.46;544.206;1.31001
281;1935.06;595.477;1.31001
282;1900.58;567.888;1.31001
283;1866.09;538.102;1.31001
284;1888.37;599.384;1.32
285;1922.86;569.842;1.32
286;1937.81;571.795;1.32
287;1942.69;557.878;1.32
288;1932.62;579.608;1.32
289;1905.46;567.888;1.32
290;1893.25;591.571;1.32
291;1937.81;544.206;1.32
292;1967.41;567.888;1.33
293;1982.06;599.384;1.33
294;1982.06;534.196;1.33
295;1954.9;567.888;1.33
296;1917.97;565.935;1.33
297;1910.65;581.561;1.33
298;1937.81;561.785;1.33
299;1945.14;567.888;1.33
300;1950.02;552.019;1.34
301;1932.62;599.384;1.34
302;1895.7;571.795;1.34
303;1861.21;546.159;1.34
304;1888.37;611.347;1.34
305;1922.86;573.748;1.34
306;1935.06;573.748;1.34
307;1942.69;561.785;1.34
308;1930.18;585.467;1.35001
309;1905.46;573.748;1.35001
310;1893.25;597.43;1.35001
311;1937.81;552.019;1.35001
312;1964.97;571.795;1.35001
313;1979.62;605.243;1.35001
314;1979.62;544.206;1.35001
315;1954.9;571.795;1.35001
316;1917.97;569.842;1.35001
317;1910.65;587.42;1.36
318;1937.81;565.935;1.36
319;1945.14;573.748;1.36
320;1950.02;557.878;1.36
321;1935.06;605.243;1.36
322;1898.14;581.561;1.36
323;1863.65;546.159;1.36
324;1888.37;609.149;1.36
325;1920.42;579.608;1.37
326;1940.25;581.561;1.37
327;1942.69;565.935;1.37
328;1927.74;585.467;1.37
329;1903.02;579.608;1.37
330;1893.25;597.43;1.37
331;1937.81;553.972;1.37
332;1964.97;579.608;1.37
333;1979.62;603.29;1.37
334;1974.74;542.009;1.38
335;1950.02;575.701;1.38
336;1915.53;575.701;1.38
337;1910.65;587.42;1.38
338;1935.06;571.795;1.38
339;1942.69;573.748;1.38
340;1945.14;553.972;1.38
341;1930.18;591.571;1.38
342;1893.25;583.514;1.38
343;1861.21;546.159;1.39001
344;1885.93;593.524;1.39001
345;1922.86;587.42;1.39001
346;1935.06;583.514;1.39001
347;1940.25;567.888;1.39001
348;1927.74;589.618;1.39001
349;1903.02;581.561;1.39001
350;1890.81;607.196;1.39001
351;1935.06;567.888;1.39001
352;1959.78;575.701;1.4
353;1974.74;613.3;1.4
354;1974.74;557.878;1.4
355;1945.14;571.795;1.4
356;1910.65;573.748;1.4
357;1905.46;589.618;1.4
358;1930.18;569.842;1.4
359;1940.25;577.654;1.4
360;1945.14;557.878;1.4
361;1927.74;601.337;1.4
362;1890.81;583.514;1.41
363;1858.77;548.112;1.41
364;1885.93;603.29;1.41
365;1917.97;585.467;1.41
366;1930.18;585.467;1.41
367;1940.25;567.888;1.41
368;1925.3;591.571;1.41
369;1898.14;581.561;1.41
370;1888.37;607.196;1.41
371;1932.62;561.785;1.41
372;1959.78;577.654;1.42001
373;1972.3;613.3;1.42001
374;1972.3;553.972;1.42001
375;1945.14;577.654;1.42001
376;1905.46;573.748;1.42001
377;1903.02;593.524;1.42001
378;1927.74;567.888;1.42001
379;1937.81;579.608;1.42001
380;1937.81;557.878;1.42001
381;1925.3;607.196;1.42001
382;1885.93;583.514;1.43
383;1856.33;548.112;1.43
384;1885.93;613.3;1.43
385;1915.53;585.467;1.43
386;1927.74;585.467;1.43
387;1935.06;569.842;1.43
388;1920.42;591.571;1.43
389;1893.25;581.561;1.43
390;1888.37;605.243;1.43
391;1930.18;555.925;1.43
392;1957.34;581.561;1.44
393;1972.3;607.196;1.44
394;1969.86;548.112;1.44
395;1942.69;579.608;1.44
396;1905.46;577.654;1.44
397;1903.02;589.618;1.44
398;1927.74;571.795;1.44
399;1937.81;575.701;1.44
400;1940.25;563.738;1.44
401;1922.86;591.571;1.44
402;1885.93;585.467;1.44
403;1853.58;548.112;1.45
404;1883.49;595.477;1.45
405;1915.53;593.524;1.45
406;1927.74;587.42;1.45
407;1935.06;569.842;1.45
408;1925.3;593.524;1.45
409;1898.14;583.514;1.45
410;1888.37;607.196;1.45
411;1930.18;573.748;1.45
412;1954.9;575.701;1.45
413;1969.86;615.253;1.45
414;1967.41;563.738;1.46001
415;1940.25;573.748;1.46001
416;1905.46;575.701;1.46001
417;1905.46;589.618;1.46001
418;1930.18;571.795;1.46001
419;1935.06;577.654;1.46001
420;1942.69;557.878;1.46001
421;1925.3;599.384;1.46001
422;1888.37;583.514;1.46001
423;1856.33;546.159;1.46001
424;1885.93;603.29;1.46001
425;1915.53;587.42;1.47
426;1927.74;587.42;1.47
427;1935.06;571.795;1.47
428;1922.86;591.571;1.47
429;1895.7;585.467;1.47
430;1888.37;607.196;1.47
431;1935.06;561.785;1.47
432;1959.78;575.701;1.47
433;1972.3;613.3;1.47
434;1972.3;553.972;1.47
435;1942.69;575.701;1.47
436;1905.46;573.748;1.48
437;1905.46;591.571;1.48
438;1930.18;571.795;1.48
439;1940.25;579.608;1.48
440;1942.69;557.878;1.48
441;1922.86;607.196;1.48
442;1885.93;585.467;1.48
443;1858.77;550.066;1.48
444;1888.37;611.347;1.48
445;1917.97;585.467;1.48
446;1932.62;585.467;1.48
447;1937.81;571.795;1.49001
448;1922.86;591.571;1.49001
449;1895.7;581.561;1.49001
450;1890.81;605.243;1.49001
451;1935.06;555.925;1.49001
452;1962.23;579.608;1.49001
453;1977.18;611.347;1.49001
454;1977.18;550.066;1.49001
455;1947.58;577.654;1.49001
456;1907.9;577.654;1.49001
457;1907.9;593.524;1.49001
458;1932.62;571.795;1.49001
459;1940.25;577.654;1.5
460;1947.58;563.738;1.5
461;1922.86;609.149;1.5
462;1890.81;585.467;1.5
463;1858.77;550.066;1.5
464;1888.37;605.243;1.5
465;1917.97;587.42;1.5
466;1935.06;587.42;1.5
467;1940.25;569.842;1.5
468;1925.3;593.524;1.5
469;1898.14;581.561;1.5
470;1893.25;607.196;1.51
471;1935.06;561.785;1.51
472;1959.78;579.608;1.51
473;1977.18;615.253;1.51
474;1974.74;557.878;1.51
475;1947.58;577.654;1.51
476;1910.65;577.654;1.51
477;1907.9;595.477;1.51
478;1935.06;571.795;1.51
479;1942.69;579.608;1.51
480;1942.69;559.832;1.51
481;1925.3;609.149;1.51
482;1888.37;585.467;1.52
483;1858.77;552.019;1.52
484;1890.81;613.3;1.52
485;1920.42;585.467;1.52
486;1935.06;587.42;1.52
487;1940.25;573.748;1.52
488;1922.86;593.524;1.52
489;1900.58;583.514;1.52
490;1895.7;605.243;1.52
491;1937.81;555.925;1.52
492;1964.97;581.561;1.52
493;1977.18;611.347;1.52
494;1974.74;573.748;1.53001
495;1945.14;569.842;1.53001
496;1910.65;577.654;1.53001
497;1907.9;593.524;1.53001
498;1932.62;577.654;1.53001
499;1942.69;577.654;1.53001
500;1945.14;555.925;1.53001
501;1927.74;595.477;1.53001
502;1888.37;589.618;1.53001
503;1858.77;550.066;1.53001
504;1893.25;593.524;1.53001
505;1922.86;593.524;1.53001
506;1935.06;589.618;1.54
507;1940.25;571.795;1.54
508;1925.3;597.43;1.54
509;1900.58;583.514;1.54
510;1890.81;609.149;1.54
511;1940.25;573.748;1.54
512;1962.23;575.701;1.54
513;1977.18;615.253;1.54
514;1972.3;565.935;1.54
515;1942.69;573.748;1.54
516;1907.9;575.701;1.54
517;1910.65;591.571;1.54
518;1935.06;571.795;1.55
519;1942.69;581.561;1.55
520;1945.14;557.878;1.55
521;1925.3;601.337;1.55
522;1888.37;589.618;1.55
523;1866.09;552.019;1.55
524;1873.42;603.29;1.55
525;1913.09;589.618;1.55
526;1932.62;587.42;1.55
527;1937.81;571.795;1.55
528;1932.62;595.477;1.55
529;1907.9;583.514;1.55
530;1885.93;609.149;1.56001
531;1920.42;565.935;1.56001
532;1957.34;579.608;1.56001
533;1969.86;615.253;1.56001
534;1979.62;559.832;1.56001
535;1957.34;579.608;1.56001
536;1922.86;575.701;1.56001
537;1903.02;593.524;1.56001
538;1927.74;571.795;1.56001
539;1940.25;579.608;1.56001
540;1945.14;559.832;1.56001
541;1935.06;607.196;1.56001
542;1903.02;585.467;1.57
543;1868.53;552.019;1.57
544;1873.42;613.3;1.57
545;1915.53;587.42;1.57
546;1930.18;587.42;1.57
547;1940.25;569.842;1.57
548;1932.62;593.524;1.57
549;1907.9;583.514;1.57
550;1888.37;605.243;1.57
551;1920.42;557.878;1.57
552;1957.34;579.608;1.57
553;1972.3;613.3;1.57
554;1979.62;548.112;1.58
555;1957.34;569.842;1.58
556;1922.86;577.654;1.58
557;1903.02;593.524;1.58
558;1927.74;581.561;1.58
559;1940.25;579.608;1.58
560;1947.58;559.832;1.58
561;1937.81;591.571;1.58
562;1903.02;589.618;1.58
563;1866.09;550.066;1.58
564;1878.3;593.524;1.58
565;1915.53;599.384;1.58
566;1932.62;589.618;1.58
567;1940.25;569.842;1.59
568;1932.62;589.618;1.59
569;1910.65;585.467;1.59
570;1890.81;607.196;1.59
571;1925.3;575.701;1.59
572;1959.78;575.701;1.59
573;1974.74;615.253;1.59
574;1982.06;569.842;1.59
575;1957.34;573.748;1.59
576;1922.86;575.701;1.59
577;1903.02;591.571;1.59
578;1927.74;571.795;1.59
579;1940.25;577.654;1.59
580;1945.14;557.878;1.60001
581;1932.62;595.477;1.60001
582;1900.58;587.42;1.60001
583;1866.09;550.066;1.60001
584;1873.42;599.384;1.60001
585;1913.09;589.618;1.60001
586;1932.62;585.467;1.60001
587;1937.81;571.795;1.60001
588;1932.62;593.524;1.60001
589;1905.46;583.514;1.60001
590;1890.81;609.149;1.60001
591;1922.86;567.888;1.60001
592;1959.78;579.608;1.60001
593;1974.74;615.253;1.61
594;1979.62;559.832;1.61
595;1957.34;573.748;1.61
596;1922.86;571.795;1.61
597;1905.46;593.524;1.61
598;1927.74;567.888;1.61
599;1940.25;579.608;1.61
600;1942.69;555.925;1.61
601;1935.06;603.29;1.61
602;1900.58;583.514;1.61
603;1866.09;548.112;1.61
604;1875.86;605.243;1.61
605;1913.09;585.467;1.61
606;1930.18;587.42;1.62
607;1940.25;571.795;1.62
608;1930.18;593.524;1.62
609;1905.46;579.608;1.62
610;1888.37;607.196;1.62
611;1922.86;557.878;1.62
612;1959.78;577.654;1.62
613;1974.74;613.3;1.62
614;1977.18;552.019;1.62
615;1957.34;579.608;1.62
616;1922.86;577.654;1.62
617;1905.46;591.571;1.62
618;1930.18;569.842;1.62
619;1942.69;577.654;1.62
620;1945.14;555.925;1.63
621;1932.62;595.477;1.63
622;1900.58;585.467;1.63
623;1861.21;548.112;1.63
624;1873.42;601.337;1.63
625;1915.53;585.467;1.63
626;1927.74;587.42;1.63
627;1937.81;567.888;1.63
628;1930.18;591.571;1.63
629;1905.46;583.514;1.63
630;1888.37;607.196;1.63
631;1922.86;561.785;1.63
632;1957.34;575.701;1.63
633;1974.74;611.347;1.64001
634;1977.18;553.972;1.64001
635;1954.9;575.701;1.64001
636;1920.42;571.795;1.64001
637;1903.02;591.571;1.64001
638;1927.74;569.842;1.64001
639;1937.81;577.654;1.64001
640;1942.69;553.972;1.64001
641;1932.62;603.29;1.64001
642;1900.58;581.561;1.64001
643;1863.65;548.112;1.64001
644;1875.86;609.149;1.64001
645;1913.09;583.514;1.64001
646;1930.18;583.514;1.64001
647;1937.81;567.888;1.65
648;1930.18;577.654;1.65
649;1905.46;579.608;1.65
650;1885.93;601.337;1.65
651;1922.86;579.608;1.65
652;1957.34;569.842;1.65
653;1972.3;607.196;1.65
654;1974.74;575.701;1.65
655;1957.34;563.738;1.65
656;1917.97;573.748;1.65
657;1903.02;589.618;1.65
658;1925.3;579.608;1.65
659;1940.25;575.701;1.65
660;1945.14;555.925;1.66
661;1930.18;585.467;1.66
662;1898.14;585.467;1.66
663;1863.65;548.112;1.66
664;1875.86;585.467;1.66
665;1915.53;591.571;1.66
666;1930.18;581.561;1.66
667;1937.81;567.888;1.66
668;1927.74;587.42;1.66
669;1905.46;579.608;1.66
670;1885.93;605.243;1.66
671;1922.86;571.795;1.66
672;1954.9;571.795;1.66
673;1969.86;609.149;1.67001
674;1974.74;563.738;1.67001
675;1952.46;567.888;1.67001
676;1917.97;573.748;1.67001
677;1903.02;587.42;1.67001
678;1925.3;569.842;1.67001
679;1937.81;573.748;1.67001
680;1940.25;553.972;1.67001
681;1930.18;591.571;1.67001
682;1900.58;583.514;1.67001
683;1863.65;546.159;1.67001
684;1875.86;595.477;1.67001
685;1913.09;583.514;1.67001
686;1930.18;583.514;1.68
687;1940.25;567.888;1.68
688;1927.74;589.618;1.68
689;1903.02;577.654;1.68
690;1888.37;605.243;1.68
691;1922.86;565.935;1.68
692;1957.34;575.701;1.68
693;1974.74;611.347;1.68
694;1977.18;555.925;1.68
695;1954.9;571.795;1.68
696;1915.53;569.842;1.68
697;1903.02;589.618;1.68
698;1927.74;565.935;1.68
699;1937.81;577.654;1.68
700;1942.69;553.972;1.69
701;1932.62;599.384;1.69
702;1898.14;581.561;1.69
703;1863.65;546.159;1.69
704;1878.3;603.29;1.69
705;1915.53;581.561;1.69
706;1930.18;581.561;1.69
707;1940.25;565.935;1.69
708;1927.74;589.618;1.69
709;1905.46;579.608;1.69
710;1888.37;597.43;1.69
711;1925.3;577.654;1.69
712;1959.78;567.888;1.69
713;1972.3;601.337;1.7
714;1977.18;575.701;1.7
715;1954.9;561.785;1.7
716;1917.97;573.748;1.7
717;1905.46;585.467;1.7
718;1927.74;581.561;1.7
719;1937.81;573.748;1.7
720;1942.69;552.019;1.7
721;1932.62;583.514;1.7
722;1895.7;585.467;1.7
723;1861.21;550.066;1.7
724;1878.3;585.467;1.7
725;1915.53;591.571;1.7
726;1930.18;579.608;1.71001
727;1935.06;565.935;1.71001
728;1930.18;581.561;1.71001
729;1903.02;577.654;1.71001
730;1888.37;601.337;1.71001
731;1925.3;571.795;1.71001
732;1957.34;567.888;1.71001
733;1972.3;607.196;1.71001
734;1977.18;567.888;1.71001
735;1952.46;565.935;1.71001
736;1915.53;571.795;1.71001
737;1903.02;587.42;1.71001
738;1927.74;571.795;1.71001
739;1940.25;573.748;1.72
740;1942.69;552.019;1.72
741;1932.62;587.42;1.72
742;1898.14;583.514;1.72
743;1861.21;548.112;1.72
744;1878.3;591.571;1.72
745;1917.97;587.42;1.72
746;1930.18;583.514;1.72
747;1937.81;563.738;1.72
748;1927.74;589.618;1.72
749;1905.46;577.654;1.72
750;1885.93;603.29;1.72
751;1925.3;565.935;1.72
752;1957.34;569.842;1.72
753;1969.86;607.196;1.73
754;1977.18;555.925;1.73
755;1947.58;569.842;1.73
756;1913.09;567.888;1.73
757;1900.58;587.42;1.73
758;1927.74;563.738;1.73
759;1940.25;573.748;1.73
760;1942.69;552.019;1.73
761;1930.18;597.43;1.73
762;1898.14;579.608;1.73
763;1861.21;542.009;1.73
764;1880.74;599.384;1.73
765;1915.53;581.561;1.73
766;1930.18;583.514;1.74001
767;1940.25;565.935;1.74001
768;1930.18;589.618;1.74001
769;1905.46;577.654;1.74001
770;1888.37;603.29;1.74001
771;1927.74;555.925;1.74001
772;1959.78;571.795;1.74001
773;1972.3;605.243;1.74001
774;1977.18;565.935;1.74001
775;1950.02;565.935;1.74001
776;1917.97;569.842;1.74001
777;1903.02;587.42;1.74001
778;1930.18;567.888;1.74001
779;1940.25;575.701;1.75
780;1942.69;550.066;1.75
781;1930.18;591.571;1.75
782;1898.14;581.561;1.75
783;1861.21;544.206;1.75
784;1880.74;595.477;1.75
785;1917.97;585.467;1.75
786;1932.62;581.561;1.75
787;1940.25;563.738;1.75
788;1930.18;587.42;1.75
789;1905.46;577.654;1.75
790;1888.37;603.29;1.75
791;1930.18;563.738;1.75
792;1959.78;571.795;1.75
793;1974.74;609.149;1.76
794;1977.18;553.972;1.76
795;1952.46;571.795;1.76
796;1915.53;567.888;1.76
797;1905.46;589.618;1.76
798;1932.62;563.738;1.76
799;1940.25;575.701;1.76
800;1947.58;550.066;1.76
801;1932.62;599.384;1.76
802;1898.14;579.608;1.76
803;1866.09;553.972;1.76
804;1883.49;575.701;1.76
805;1917.97;601.337;1.76
806;1935.06;579.608;1.76
807;1942.69;565.935;1.77
808;1932.62;571.795;1.77
809;1907.9;577.654;1.77
810;1893.25;597.43;1.77
811;1930.18;579.608;1.77
812;1962.23;567.888;1.77
813;1977.18;599.384;1.77
814;1977.18;575.701;1.77
815;1954.9;557.878;1.77
816;1917.97;573.748;1.77
817;1905.46;585.467;1.77
818;1932.62;579.608;1.77
819;1945.14;571.795;1.77
820;1945.14;552.019;1.78001
821;1932.62;583.514;1.78001
822;1898.14;583.514;1.78001
823;1863.65;548.112;1.78001
824;1883.49;583.514;1.78001
825;1920.42;589.618;1.78001
826;1932.62;579.608;1.78001
827;1940.25;565.935;1.78001
828;1935.06;581.561;1.78001
829;1905.46;577.654;1.78001
830;1893.25;601.337;1.78001
831;1932.62;569.842;1.78001
832;1959.78;569.842;1.78001
833;1974.74;605.243;1.78001
834;1977.18;567.888;1.79
835;1952.46;565.935;1.79
836;1915.53;567.888;1.79
837;1905.46;583.514;1.79
838;1930.18;567.888;1.79
839;1942.69;573.748;1.79
840;1945.14;550.066;1.79
841;1932.62;587.42;1.79
842;1898.14;581.561;1.79
843;1863.65;544.206;1.79
844;1883.49;591.571;1.79
845;1920.42;585.467;1.79
846;1935.06;583.514;1.79
847;1940.25;565.935;1.79
848;1930.18;589.618;1.8
849;1905.46;577.654;1.8
850;1893.25;601.337;1.8
851;1935.06;565.935;1.8
852;1962.23;571.795;1.8
853;1979.62;609.149;1.8
854;1979.62;557.878;1.8
855;1954.9;569.842;1.8
856;1917.97;569.842;1.8
857;1905.46;587.42;1.8
858;1935.06;565.935;1.8
859;1942.69;573.748;1.8
860;1947.58;552.019;1.8
861;1932.62;595.477;1.8
862;1898.14;581.561;1.81001
863;1866.09;544.206;1.81001
864;1888.37;571.795;1.81001
865;1922.86;601.337;1.81001
866;1935.06;577.654;1.81001
867;1945.14;567.888;1.81001
868;1932.62;569.842;1.81001
869;1905.46;577.654;1.81001
870;1893.25;593.524;1.81001
871;1932.62;579.608;1.81001
872;1967.41;565.935;1.81001
873;1982.06;597.43;1.81001
874;1982.06;577.654;1.81001
875;1954.9;553.972;1.81001
876;1920.42;571.795;1.82
877;1910.65;583.514;1.82
878;1935.06;583.514;1.82
879;1945.14;571.795;1.82
880;1947.58;555.925;1.82
881;1932.62;577.654;1.82
882;1898.14;583.514;1.82
883;1868.53;550.066;1.82
884;1878.3;579.608;1.82
885;1917.97;593.524;1.82
886;1932.62;577.654;1.82
887;1942.69;567.888;1.82
888;1937.81;575.701;1.82
889;1910.65;577.654;1.82
890;1893.25;601.337;1.83
891;1925.3;573.748;1.83
892;1962.23;565.935;1.83
893;1979.62;605.243;1.83
894;1982.06;567.888;1.83
895;1962.23;563.738;1.83
896;1925.3;569.842;1.83
897;1910.65;585.467;1.83
898;1932.62;569.842;1.83
899;1945.14;571.795;1.83
900;1947.58;550.066;1.83
901;1937.81;583.514;1.83
902;1905.46;583.514;1.83
903;1868.53;544.206;1.84
904;1875.86;587.42;1.84
905;1917.97;587.42;1.84
906;1932.62;579.608;1.84
907;1942.69;563.738;1.84
908;1937.81;585.467;1.84
909;1913.09;579.608;1.84
910;1893.25;601.337;1.84
911;1927.74;567.888;1.84
912;1964.97;569.842;1.84
913;1979.62;605.243;1.84
914;1984.5;557.878;1.84
915;1962.23;565.935;1.84
916;1927.74;567.888;1.84
917;1910.65;585.467;1.84
918;1935.06;565.935;1.85001
919;1947.58;571.795;1.85001
920;1952.46;548.112;1.85001
921;1942.69;591.571;1.85001
922;1907.9;579.608;1.85001
923;1868.53;544.206;1.85001
924;1878.3;595.477;1.85001
925;1920.42;583.514;1.85001
926;1937.81;579.608;1.85001
927;1945.14;567.888;1.85001
928;1937.81;581.561;1.85001
929;1907.9;577.654;1.85001
930;1895.7;599.384;1.85001
931;1927.74;571.795;1.85001
932;1964.97;567.888;1.86
933;1979.62;605.243;1.86
934;1984.5;563.738;1.86
935;1964.97;563.738;1.86
936;1930.18;567.888;1.86
937;1910.65;583.514;1.86
938;1932.62;567.888;1.86
939;1950.02;573.748;1.86
940;1950.02;548.112;1.86
941;1942.69;587.42;1.86
942;1907.9;581.561;1.86
943;1870.98;542.009;1.86
944;1883.49;589.618;1.86
945;1922.86;585.467;1.86
946;1940.25;581.561;1.86
947;1947.58;563.738;1.86
948;1945.14;585.467;1.87
949;1913.09;575.701;1.87
950;1895.7;601.337;1.87
951;1930.18;565.935;1.87
952;1967.41;571.795;1.87
953;1984.5;607.196;1.87
954;1986.95;557.878;1.87
955;1967.41;567.888;1.87
956;1930.18;567.888;1.87
957;1910.65;579.608;1.87
958;1937.81;583.514;1.87
959;1950.02;567.888;1.87
960;1952.46;557.878;1.87
961;1942.69;573.748;1.87
962;1905.46;587.42;1.87
963;1873.42;557.878;1.88
964;1883.49;567.888;1.88
965;1922.86;599.384;1.88
966;1940.25;573.748;1.88
967;1945.14;565.935;1.88
968;1942.69;567.888;1.88
969;1913.09;577.654;1.88
970;1898.14;593.524;1.88
971;1932.62;579.608;1.88
972;1967.41;563.738;1.88
973;1982.06;597.43;1.88
974;1989.39;573.748;1.88
975;1964.97;555.925;1.88
976;1930.18;573.748;1.88
977;1913.09;583.514;1.88
978;1940.25;583.514;1.89001
979;1952.46;567.888;1.89001
980;1954.9;553.972;1.89001
981;1945.14;577.654;1.89001
982;1913.09;585.467;1.89001
983;1873.42;552.019;1.89001
984;1888.37;575.701;1.89001
985;1927.74;591.571;1.89001
986;1942.69;577.654;1.89001
987;1950.02;565.935;1.89001
988;1945.14;577.654;1.89001
989;1917.97;577.654;1.89001
990;1898.14;595.477;1.89001
991;1935.06;571.795;1.89001
992;1969.86;567.888;1.89001
993;1982.06;601.337;1.9
994;1989.39;565.935;1.9
995;1967.41;561.785;1.9
996;1930.18;571.795;1.9
997;1915.53;583.514;1.9
998;1940.25;573.748;1.9
999;1950.02;571.795;1.9
1000;1954.9;548.112;1.9
1001;1945.14;583.514;1.9
1002;1910.65;581.561;1.9
1003;1873.42;544.206;1.9
1004;1890.81;585.467;1.9
1005;1927.74;585.467;1.9
1006;1942.69;579.608;1.9
1007;1952.46;563.738;1.9
1008;1945.14;585.467;1.91
1009;1917.97;577.654;1.91
1010;1903.02;601.337;1.91
1011;1937.81;567.888;1.91
1012;1974.74;567.888;1.91
1013;1989.39;607.196;1.91
1014;1992.13;559.832;1.91
1015;1967.41;565.935;1.91
1016;1932.62;565.935;1.91
1017;1920.42;583.514;1.91
1018;1942.69;565.935;1.91
1019;1957.34;569.842;1.91
1020;1959.78;559.832;1.91
1021;1950.02;569.842;1.91
1022;1910.65;589.618;1.91
1023;1875.86;557.878;1.92001
1024;1895.7;565.935;1.92001
1025;1932.62;601.337;1.92001
1026;1947.58;573.748;1.92001
1027;1957.34;565.935;1.92001
1028;1947.58;567.888;1.92001
1029;1920.42;579.608;1.92001
1030;1903.02;591.571;1.92001
1031;1940.25;581.561;1.92001
1032;1972.3;561.785;1.92001
1033;1986.95;593.524;1.92001
1034;1994.58;579.608;1.92001
1035;1969.86;553.972;1.92001
1036;1935.06;573.748;1.92001
1037;1920.42;583.514;1.93
1038;1945.14;581.561;1.93
1039;1954.9;569.842;1.93
1040;1959.78;555.925;1.93
1041;1950.02;575.701;1.93
1042;1915.53;583.514;1.93
1043;1880.74;550.066;1.93
1044;1895.7;573.748;1.93
1045;1935.06;597.43;1.93
1046;1952.46;575.701;1.93
1047;1957.34;565.935;1.93
1048;1952.46;571.795;1.93
1049;1925.3;577.654;1.93
1050;1907.9;597.43;1.93
1051;1947.58;573.748;1.94
1052;1979.62;567.888;1.94
1053;1992.13;601.337;1.94
1054;1997.02;569.842;1.94
1055;1972.3;557.878;1.94
1056;1940.25;571.795;1.94
1057;1920.42;581.561;1.94
1058;1947.58;573.748;1.94
1059;1959.78;571.795;1.94
1060;1964.97;550.066;1.94
1061;1950.02;583.514;1.94
1062;1917.97;581.561;1.94
1063;1895.7;546.159;1.94
1064;1883.49;583.514;1.94
1065;1925.3;589.618;1.94
1066;1947.58;579.608;1.95
1067;1957.34;563.738;1.95
1068;1957.34;581.561;1.95
1069;1935.06;575.701;1.95
1070;1910.65;601.337;1.95
1071;1927.74;567.888;1.95
1072;1972.3;567.888;1.95
1073;1986.95;607.196;1.95
1074;1999.46;561.785;1.95
1075;1986.95;565.935;1.95
1076;1952.46;567.888;1.95
1077;1925.3;585.467;1.95
1078;1937.81;567.888;1.95
1079;1957.34;571.795;1.95
1080;1964.97;548.112;1.96001
1081;1962.23;577.654;1.96001
1082;1932.62;583.514;1.96001
1083;1895.7;548.112;1.96001
1084;1885.93;575.701;1.96001
1085;1930.18;593.524;1.96001
1086;1950.02;577.654;1.96001
1087;1959.78;565.935;1.96001
1088;1959.78;577.654;1.96001
1089;1940.25;577.654;1.96001
1090;1910.65;599.384;1.96001
1091;1927.74;571.795;1.96001
1092;1974.74;565.935;1.96001
1093;1994.58;601.337;1.96001
1094;1999.46;565.935;1.97
1095;1989.39;561.785;1.97
1096;1952.46;569.842;1.97
1097;1925.3;583.514;1.97
1098;1942.69;571.795;1.97
1099;1957.34;571.795;1.97
1100;1967.41;548.112;1.97
1101;1962.23;583.514;1.97
1102;1935.06;579.608;1.97
1103;1898.14;542.009;1.97
1104;1888.37;585.467;1.97
1105;1932.62;587.42;1.97
1106;1952.46;581.561;1.97
1107;1959.78;561.785;1.98
1108;1962.23;583.514;1.98
1109;1940.25;575.701;1.98
1110;1915.53;601.337;1.98
1111;1932.62;583.514;1.98
1112;1977.18;555.925;1.98
1113;1997.02;587.42;1.98
1114;2001.9;585.467;1.98
1115;1989.39;546.159;1.98
1116;1954.9;573.748;1.98
1117;1927.74;583.514;1.98
1118;1947.58;581.561;1.98
1119;1964.97;569.842;1.98
1120;1969.86;559.832;1.98
1121;1967.41;567.888;1.99001
1122;1940.25;589.618;1.99001
1123;1900.58;557.878;1.99001
1124;1890.81;567.888;1.99001
1125;1932.62;603.29;1.99001
1126;1954.9;573.748;1.99001
1127;1964.97;565.935;1.99001
1128;1964.97;569.842;1.99001
1129;1942.69;577.654;1.99001
1130;1915.53;589.618;1.99001
1131;1935.06;579.608;1.99001
1132;1982.06;561.785;1.99001
1133;1997.02;593.524;1.99001
1134;2009.22;577.654;1.99001
1135;1994.58;552.019;2
1136;1959.78;571.795;2
1137;1930.18;581.561;2
1138;1947.58;581.561;2
1139;1967.41;569.842;2
1140;1969.86;552.019;2
1141;1967.41;575.701;2
1142;1942.69;583.514;2
1143;1900.58;553.972;2
1144;1895.7;575.701;2
1145;1937.81;595.477;2
1146;1959.78;575.701;2
1147;1969.86;565.935;2
1148;1969.86;571.795;2
1149;1942.69;575.701;2.01
1150;1920.42;597.43;2.01
1151;1942.69;571.795;2.01
1152;1982.06;563.738;2.01
1153;1999.46;599.384;2.01
1154;2009.22;569.842;2.01
1155;1997.02;557.878;2.01
1156;1959.78;569.842;2.01
1157;1935.06;581.561;2.01
1158;1952.46;575.701;2.01
1159;1969.86;569.842;2.01
1160;1974.74;550.066;2.01
1161;1972.3;581.561;2.01
1162;1945.14;583.514;2.01
1163;1905.46;546.159;2.02
1164;1898.14;581.561;2.02
1165;1935.06;591.571;2.02
1166;1962.23;579.608;2.02
1167;1972.3;561.785;2.02
1168;1969.86;581.561;2.02
1169;1945.14;575.701;2.02
1170;1920.42;595.477;2.02
1171;1942.69;567.888;2.02
1172;1986.95;567.888;2.02
1173;2001.9;583.514;2.02
1174;2011.67;591.571;2.02
1175;1997.02;544.206;2.02
1176;1959.78;571.795;2.02
1177;1932.62;579.608;2.03001
1178;1954.9;581.561;2.03001
1179;1974.74;567.888;2.03001
1180;1977.18;561.785;2.03001
1181;1974.74;567.888;2.03001
1182;1945.14;591.571;2.03001
1183;1905.46;561.785;2.03001
1184;1903.02;561.785;2.03001
1185;1942.69;605.243;2.03001
1186;1959.78;571.795;2.03001
1187;1974.74;565.935;2.03001
1188;1969.86;569.842;2.03001
1189;1947.58;577.654;2.03001
1190;1922.86;589.618;2.04
1191;1945.14;581.561;2.04
1192;1989.39;561.785;2.04
1193;2006.78;589.618;2.04
1194;2014.11;581.561;2.04
1195;2001.9;548.112;2.04
1196;1964.97;575.701;2.04
1197;1937.81;581.561;2.04
1198;1957.34;581.561;2.04
1199;1977.18;569.842;2.04
1200;1982.06;555.925;2.04
1201;1974.74;573.748;2.04
1202;1947.58;587.42;2.04
1203;1907.9;552.019;2.04
1204;1903.02;571.795;2.05
1205;1945.14;597.43;2.05
1206;1967.41;575.701;2.05
1207;1977.18;565.935;2.05
1208;1972.3;569.842;2.05
1209;1950.02;579.608;2.05
1210;1925.3;593.524;2.05
1211;1952.46;575.701;2.05
1212;1989.39;563.738;2.05
1213;2009.22;597.43;2.05
1214;2016.55;571.795;2.05
1215;2001.9;553.972;2.05
1216;1967.41;569.842;2.05
1217;1937.81;581.561;2.06001
1218;1959.78;579.608;2.06001
1219;1979.62;569.842;2.06001
1220;1979.62;552.019;2.06001
1221;1977.18;581.561;2.06001
1222;1947.58;583.514;2.06001
1223;1907.9;546.159;2.06001
1224;1905.46;577.654;2.06001
1225;1950.02;591.571;2.06001
1226;1969.86;577.654;2.06001
1227;1977.18;565.935;2.06001
1228;1977.18;577.654;2.06001
1229;1952.46;577.654;2.06001
1230;1927.74;599.384;2.06001
1231;1950.02;571.795;2.07
1232;1994.58;567.888;2.07
1233;2009.22;603.29;2.07
1234;2019.3;565.935;2.07
1235;2004.34;550.066;2.07
1236;1969.86;573.748;2.07
1237;1942.69;581.561;2.07
1238;1962.23;579.608;2.07
1239;1982.06;569.842;2.07
1240;1984.5;555.925;2.07
1241;1979.62;573.748;2.07
1242;1950.02;583.514;2.07
1243;1910.65;552.019;2.07
1244;1907.9;575.701;2.07
1245;1952.46;595.477;2.08
1246;1972.3;573.748;2.08
1247;1982.06;563.738;2.08
1248;1982.06;569.842;2.08
1249;1954.9;575.701;2.08
1250;1927.74;593.524;2.08
1251;1954.9;575.701;2.08
1252;1997.02;565.935;2.08
1253;2014.11;599.384;2.08
1254;2026.62;569.842;2.08
1255;2009.22;559.832;2.08
1256;1972.3;569.842;2.08
1257;1947.58;581.561;2.08
1258;1969.86;575.701;2.08
1259;1986.95;569.842;2.09
1260;1989.39;550.066;2.09
1261;1984.5;581.561;2.09
1262;1952.46;581.561;2.09
1263;1913.09;546.159;2.09
1264;1910.65;583.514;2.09
1265;1954.9;587.42;2.09
1266;1974.74;573.748;2.09
1267;1984.5;567.888;2.09
1268;1979.62;565.935;2.09
1269;1957.34;579.608;2.09
1270;1935.06;583.514;2.09
1271;1959.78;585.467;2.09
1272;2001.9;555.925;2.09
1273;2019.3;581.561;2.10001
1274;2026.62;589.618;2.10001
1275;2011.67;540.056;2.10001
1276;1977.18;573.748;2.10001
1277;1947.58;577.654;2.10001
1278;1972.3;581.561;2.10001
1279;1986.95;569.842;2.10001
1280;1994.58;559.832;2.10001
1281;1986.95;565.935;2.10001
1282;1954.9;589.618;2.10001
1283;1917.97;559.832;2.10001
1284;1915.53;561.785;2.10001
1285;1959.78;603.29;2.10001
1286;1979.62;573.748;2.10001
1287;1989.39;565.935;2.11
1288;1986.95;567.888;2.11
1289;1962.23;577.654;2.11
1290;1935.06;589.618;2.11
1291;1967.41;581.561;2.11
1292;2004.34;559.832;2.11
1293;2024.18;591.571;2.11
1294;2029.06;583.514;2.11
1295;2014.11;548.112;2.11
1296;1979.62;573.748;2.11
1297;1954.9;579.608;2.11
1298;1974.74;579.608;2.11
1299;1992.13;567.888;2.11
1300;1997.02;553.972;2.11
1301;1992.13;571.795;2.12
1302;1962.23;587.42;2.12
1303;1917.97;553.972;2.12
1304;1920.42;571.795;2.12
1305;1962.23;599.384;2.12
1306;1984.5;575.701;2.12
1307;1994.58;563.738;2.12
1308;1989.39;567.888;2.12
1309;1964.97;577.654;2.12
1310;1940.25;593.524;2.12
1311;1967.41;577.654;2.12
1312;2014.11;565.935;2.12
1313;2029.06;599.384;2.12
1314;2036.39;573.748;2.12
1315;2019.3;555.925;2.13
1316;1982.06;569.842;2.13
1317;1957.34;581.561;2.13
1318;1982.06;579.608;2.13
1319;1997.02;569.842;2.13
1320;2001.9;552.019;2.13
1321;1994.58;577.654;2.13
1322;1962.23;581.561;2.13
1323;1925.3;548.112;2.13
1324;1925.3;579.608;2.13
1325;1967.41;593.524;2.13
1326;1989.39;577.654;2.13
1327;1999.46;563.738;2.13
1328;1992.13;577.654;2.13
1329;1969.86;581.561;2.14001
1330;1945.14;579.608;2.14001
1331;1974.74;589.618;2.14001
1332;2011.67;552.019;2.14001
1333;2031.5;579.608;2.14001
1334;2041.27;591.571;2.14001
1335;2019.3;538.102;2.14001
1336;1984.5;573.748;2.14001
1337;1959.78;575.701;2.14001
1338;1979.62;581.561;2.14001
1339;2001.9;567.888;2.14001
1340;2001.9;563.738;2.14001
1341;1997.02;561.785;2.14001
1342;1964.97;593.524;2.15
1343;1925.3;561.785;2.15
1344;1927.74;555.925;2.15
1345;1972.3;607.196;2.15
1346;1992.13;573.748;2.15
1347;2001.9;569.842;2.15
1348;1999.46;565.935;2.15
1349;1972.3;577.654;2.15
1350;1950.02;587.42;2.15
1351;1977.18;583.514;2.15
1352;2019.3;557.878;2.15
1353;2036.39;589.618;2.15
1354;2041.27;585.467;2.15
1355;2024.18;546.159;2.16
1356;1986.95;571.795;2.16
1357;1962.23;579.608;2.16
1358;1986.95;583.514;2.16
1359;2004.34;565.935;2.16
1360;2009.22;557.878;2.16
1361;2001.9;571.795;2.16
1362;1972.3;589.618;2.16
1363;1930.18;555.925;2.16
1364;1935.06;563.738;2.16
1365;1977.18;601.337;2.16
1366;1997.02;571.795;2.16
1367;2006.78;565.935;2.16
1368;2001.9;567.888;2.17001
1369;1977.18;575.701;2.17001
1370;1950.02;591.571;2.17001
1371;1982.06;577.654;2.17001
1372;2021.74;561.785;2.17001
1373;2038.83;595.477;2.17001
1374;2046.46;577.654;2.17001
1375;2029.06;553.972;2.17001
1376;1989.39;571.795;2.17001
1377;1967.41;579.608;2.17001
1378;1992.13;581.561;2.17001
1379;2004.34;569.842;2.17001
1380;2009.22;550.066;2.18
1381;2004.34;575.701;2.18
1382;1972.3;581.561;2.18
1383;1932.62;548.112;2.18
1384;1937.81;575.701;2.18
1385;1982.06;593.524;2.18
1386;2001.9;577.654;2.18
1387;2014.11;563.738;2.18
1388;2006.78;571.795;2.18
1389;1982.06;575.701;2.18
1390;1959.78;585.467;2.18
1391;1989.39;581.561;2.18
1392;2026.62;559.832;2.18
1393;2043.71;589.618;2.18
1394;2051.34;581.561;2.19
1395;2033.94;550.066;2.19
1396;1997.02;573.748;2.19
1397;1974.74;581.561;2.19
1398;1994.58;583.514;2.19
1399;2014.11;567.888;2.19
1400;2016.55;553.972;2.19
1401;2009.22;571.795;2.19
1402;1977.18;587.42;2.19
1403;1937.81;553.972;2.19
1404;1940.25;567.888;2.19
1405;1986.95;599.384;2.19
1406;2004.34;571.795;2.2
1407;2016.55;565.935;2.2
1408;2009.22;567.888;2.2
1409;1984.5;577.654;2.2
1410;1959.78;595.477;2.2
1411;1994.58;575.701;2.2
1412;2033.94;563.738;2.2
1413;2051.34;595.477;2.2
1414;2056.22;573.748;2.2
1415;2033.94;555.925;2.2
1416;1997.02;571.795;2.2
1417;1974.74;583.514;2.2
1418;1999.46;579.608;2.2
1419;2014.11;569.842;2.21001
1420;2016.55;548.112;2.21001
1421;2019.3;557.878;2.21001
1422;1994.58;599.384;2.21001
1423;1954.9;569.842;2.21001
1424;1932.62;552.019;2.21001
1425;1977.18;613.3;2.21001
1426;2001.9;571.795;2.21001
1427;2016.55;569.842;2.21001
1428;2016.55;563.738;2.21001
1429;1999.46;581.561;2.21001
1430;1969.86;579.608;2.21001
1431;1974.74;587.42;2.22
1432;2026.62;552.019;2.22
1433;2046.46;581.561;2.22
1434;2061.11;591.571;2.22
1435;2053.78;540.056;2.22
1436;2016.55;571.795;2.22
1437;1984.5;575.701;2.22
1438;1992.13;581.561;2.22
1439;2016.55;565.935;2.22
1440;2024.18;559.832;2.22
1441;2024.18;561.785;2.22
1442;2001.9;591.571;2.22
1443;1957.34;563.738;2.23
1444;1937.81;555.925;2.23
1445;1979.62;607.196;2.23
1446;2006.78;571.795;2.23
1447;2021.74;569.842;2.23
1448;2024.18;565.935;2.23
1449;2004.34;577.654;2.23
1450;1974.74;587.42;2.23
1451;1982.06;583.514;2.23
1452;2029.06;557.878;2.23
1453;2053.78;587.42;2.23
1454;2063.55;585.467;2.23
1455;2053.78;546.159;2.24001
1456;2021.74;573.748;2.24001
1457;1989.39;579.608;2.24001
1458;1997.02;583.514;2.24001
1459;2021.74;567.888;2.24001
1460;2029.06;553.972;2.24001
1461;2029.06;567.888;2.24001
1462;2004.34;587.42;2.24001
1463;1962.23;553.972;2.24001
1464;1942.69;563.738;2.24001
1465;1984.5;597.43;2.24001
1466;2014.11;573.748;2.24001
1467;2026.62;563.738;2.25
1468;2029.06;567.888;2.25
1469;2009.22;577.654;2.25
1470;1977.18;591.571;2.25
1471;1984.5;577.654;2.25
1472;2031.5;559.832;2.25
1473;2053.78;593.524;2.25
1474;2065.99;575.701;2.25
1475;2058.66;550.066;2.25
1476;2024.18;571.795;2.25
1477;1989.39;583.514;2.25
1478;2001.9;579.608;2.25
1479;2029.06;567.888;2.26
1480;2033.94;552.019;2.26
1481;2033.94;575.701;2.26
1482;2009.22;585.467;2.26
1483;1967.41;569.842;2.26
1484;1947.58;546.159;2.26
1485;1989.39;613.3;2.26
1486;2016.55;575.701;2.26
1487;2029.06;571.795;2.26
1488;2031.5;561.785;2.26
1489;2011.67;579.608;2.26
1490;1982.06;577.654;2.26
1491;1989.39;589.618;2.27
1492;2038.83;550.066;2.27
1493;2061.11;577.654;2.27
1494;2070.87;595.477;2.27
1495;2063.55;538.102;2.27
1496;2029.06;571.795;2.27
1497;1997.02;573.748;2.27
1498;2006.78;583.514;2.27
1499;2029.06;563.738;2.27
1500;2038.83;561.785;2.27
1501;2036.39;559.832;2.27
1502;2011.67;595.477;2.27
1503;1972.3;565.935;2.28001
1504;1952.46;552.019;2.28001
1505;1994.58;609.149;2.28001
1506;2021.74;571.795;2.28001
1507;2036.39;567.888;2.28001
1508;2036.39;565.935;2.28001
1509;2014.11;575.701;2.28001
1510;1986.95;583.514;2.28001
1511;1994.58;585.467;2.28001
1512;2043.71;553.972;2.28001
1513;2065.99;583.514;2.28001
1514;2076.06;585.467;2.29
1515;2065.99;544.206;2.29
1516;2033.94;571.795;2.29
1517;1997.02;577.654;2.29
1518;2006.78;581.561;2.29
1519;2033.94;565.935;2.29
1520;2041.27;555.925;2.29
1521;2036.39;565.935;2.29
1522;2014.11;589.618;2.29
1523;1969.86;559.832;2.29
1524;1954.9;561.785;2.29
1525;1997.02;603.29;2.29
1526;2026.62;571.795;2.3
1527;2036.39;563.738;2.3
1528;2038.83;565.935;2.3
1529;2016.55;575.701;2.3
1530;1984.5;587.42;2.3
1531;1999.46;577.654;2.3
1532;2046.46;557.878;2.3
1533;2068.43;591.571;2.3
1534;2078.5;577.654;2.3
1535;2070.87;548.112;2.3
1536;2036.39;569.842;2.3
1537;2001.9;579.608;2.31001
1538;2014.11;579.608;2.31001
1539;2036.39;565.935;2.31001
1540;2046.46;553.972;2.31001
1541;2043.71;575.701;2.31001
1542;2016.55;583.514;2.31001
1543;1977.18;548.112;2.31001
1544;1959.78;569.842;2.31001
1545;2004.34;607.196;2.31001
1546;2029.06;571.795;2.31001
1547;2038.83;565.935;2.31001
1548;2041.27;563.738;2.32
1549;2019.3;577.654;2.32
1550;1989.39;585.467;2.32
1551;2004.34;583.514;2.32
1552;2051.34;555.925;2.32
1553;2073.62;583.514;2.32
1554;2083.38;583.514;2.32
1555;2073.62;542.009;2.32
1556;2038.83;569.842;2.32
1557;2004.34;575.701;2.32
1558;2016.55;579.608;2.32
1559;2041.27;565.935;2.33
1560;2048.9;553.972;2.33
1561;2046.46;567.888;2.33
1562;2016.55;589.618;2.33
1563;1977.18;553.972;2.33
1564;1959.78;563.738;2.33
1565;2001.9;603.29;2.33
1566;2031.5;571.795;2.33
1567;2043.71;563.738;2.33
1568;2043.71;561.785;2.33
1569;2024.18;575.701;2.33
1570;1994.58;589.618;2.33
1571;2004.34;577.654;2.34
1572;2056.22;559.832;2.34
1573;2078.5;593.524;2.34
1574;2088.27;573.748;2.34
1575;2076.06;550.066;2.34
1576;2038.83;569.842;2.34
1577;2009.22;569.842;2.34
1578;2024.18;583.514;2.34
1579;2043.71;561.785;2.34
1580;2051.34;565.935;2.34
1581;2051.34;553.972;2.34
1582;2024.18;599.384;2.35001
1583;1979.62;569.842;2.35001
1584;1964.97;548.112;2.35001
1585;2009.22;615.253;2.35001
1586;2036.39;573.748;2.35001
1587;2048.9;571.795;2.35001
1588;2048.9;561.785;2.35001
1589;2026.62;579.608;2.35001
1590;1997.02;577.654;2.35001
1591;2011.67;589.618;2.35001
1592;2058.66;546.159;2.35001
1593;2078.5;575.701;2.36
1594;2090.71;593.524;2.36
1595;2078.5;534.196;2.36
1596;2043.71;569.842;2.36
1597;2011.67;571.795;2.36
1598;2024.18;583.514;2.36
1599;2051.34;565.935;2.36
1600;2056.22;561.785;2.36
1601;2053.78;559.832;2.36
1602;2026.62;593.524;2.36
1603;1984.5;563.738;2.36
1604;1969.86;553.972;2.37
1605;2014.11;607.196;2.37
1606;2041.27;569.842;2.37
1607;2053.78;567.888;2.37
1608;2053.78;561.785;2.37
1609;2031.5;575.701;2.37
1610;2004.34;581.561;2.37
1611;2016.55;583.514;2.37
1612;2063.55;552.019;2.37
1613;2083.38;579.608;2.37
1614;2095.59;587.42;2.38
1615;2083.38;538.102;2.38
1616;2048.9;569.842;2.38
1617;2016.55;575.701;2.38
1618;2031.5;579.608;2.38
1619;2053.78;563.738;2.38
1620;2061.11;555.925;2.38
1621;2056.22;563.738;2.38
1622;2031.5;589.618;2.38
1623;1989.39;555.925;2.38
1624;1977.18;559.832;2.38
1625;2021.74;603.29;2.39001
1626;2046.46;569.842;2.39001
1627;2061.11;561.785;2.39001
1628;2058.66;563.738;2.39001
1629;2036.39;573.748;2.39001
1630;2004.34;587.42;2.39001
1631;2021.74;575.701;2.39001
1632;2065.99;555.925;2.39001
1633;2090.71;589.618;2.39001
1634;2100.78;577.654;2.39001
1635;2083.38;546.159;2.39001
1636;2051.34;567.888;2.4
1637;2019.3;577.654;2.4
1638;2036.39;581.561;2.4
1639;2058.66;561.785;2.4
1640;2063.55;567.888;2.4
1641;2061.11;553.972;2.4
1642;2036.39;599.384;2.4
1643;1997.02;571.795;2.4
1644;1979.62;542.009;2.4
1645;2026.62;609.149;2.4
1646;2056.22;571.795;2.41
1647;2061.11;571.795;2.41
1648;2063.55;559.832;2.41
1649;2038.83;577.654;2.41
1650;2011.67;573.748;2.41
1651;2026.62;589.618;2.41
1652;2076.06;542.009;2.41
1653;2093.15;571.795;2.41
1654;2103.22;595.477;2.41
1655;2090.71;534.196;2.41
1656;2056.22;571.795;2.41
1657;2024.18;567.888;2.42001
1658;2038.83;579.608;2.42001
1659;2063.55;563.738;2.42001
1660;2068.43;561.785;2.42001
1661;2063.55;555.925;2.42001
1662;2038.83;593.524;2.42001
1663;1997.02;565.935;2.42001
1664;1982.06;546.159;2.42001
1665;2029.06;609.149;2.42001
1666;2053.78;567.888;2.42001
1667;2063.55;567.888;2.43
1668;2063.55;561.785;2.43
1669;2043.71;577.654;2.43
1670;2014.11;577.654;2.43
1671;2031.5;583.514;2.43
1672;2078.5;550.066;2.43
1673;2100.78;577.654;2.43
1674;2105.66;587.42;2.43
1675;2095.59;536.149;2.43
1676;2058.66;569.842;2.43
1677;2026.62;571.795;2.43
1678;2043.71;577.654;2.44
1679;2068.43;565.935;2.44
1680;2073.62;557.878;2.44
1681;2070.87;559.832;2.44
1682;2041.27;587.42;2.44
1683;2001.9;557.878;2.44
1684;1989.39;555.925;2.44
1685;2038.83;603.29;2.44
1686;2063.55;567.888;2.44
1687;2073.62;563.738;2.44
1688;2076.06;563.738;2.44
1689;2051.34;571.795;2.45
1690;2024.18;583.514;2.45
1691;2041.27;577.654;2.45
1692;2083.38;553.972;2.45
1693;2105.66;585.467;2.45
1694;2115.43;579.608;2.45
1695;2100.78;542.009;2.45
1696;2065.99;569.842;2.45
1697;2031.5;577.654;2.45
1698;2048.9;577.654;2.45
