<WeldAnalyseData xmlns:i="http:www.w3.org/2001/XMLSchema-instance">
<WeldParameter>
<TimeStamp>DT#2024-01-25-15:24:13</TimeStamp>
<Generator>SG-22-10000</Generator>
<GenFreq>20</GenFreq>
<MaxForce>8000</MaxForce>
<MaxPower>10000</MaxPower>
<RunupPressure>1.5</RunupPressure>
<RunupDist>10</RunupDist>
<RunPress>0.8</RunPress>
<ShakeDelay>0.03</ShakeDelay>
<ShakeTime>0.3</ShakeTime>
<RunBackPress1>6</RunBackPress1>
<RunBackPress2>2</RunBackPress2>
<RunBackDist>1</RunBackDist>
<TrigValue>500</TrigValue>
<TrigModeUnit>W</TrigModeUnit>
<WeldModeUnit>Ws</WeldModeUnit>
<PressNr>0</PressNr>
<MaxLoss>1500</MaxLoss>
</WeldParameter>
<WeldSets>
<WeldSet>
<PressRiseTime>0</PressRiseTime>
<RunPressure>1</RunPressure>
<Amplitude>86</Amplitude>
<WeldMode>3270</WeldMode>
</WeldSet>
</WeldSets>
<WeldValue>
<WeldNr>3040</WeldNr>
<RecipeName>RickStyle</RecipeName>
<WeldTime>1659</WeldTime>
<DistDiff>2.15</DistDiff>
<DistAbs>77.94</DistAbs>
<Energy>3271.81</Energy>
<MaxPower>2232.98</MaxPower>
<CycleTime>6080</CycleTime>
<TrigForce>502.701</TrigForce>
<TrigDist>75.79</TrigDist>
<RunSpeed>69.596</RunSpeed>
<MaxForce>619.16</MaxForce>
<LossPower>322.333</LossPower>
</WeldValue>
</WeldAnalyseData>
#CSV-START#
ms;Power[W];Force[N];Distance[mm]
1;0;0;0
2;0;504.654;0
3;0;506.607;0
4;0;504.654;0
5;0;508.56;0
6;0;506.607;0
7;0;506.607;0
8;0;494.644;0
9;0;431.654;0.0199966
10;0;411.878;0.0400009
11;3.29984;378.185;0.0699997
12;52.7398;360.363;0.110001
13;134.224;344.737;0.150002
14;223.338;319.102;0.190002
15;304.823;317.148;0.239998
16;368.912;301.279;0.279999
17;437.883;283.456;0.330002
18;499.836;291.269;0.379997
19;568.808;297.372;0.419998
20;645.409;299.326;0.459999
21;719.569;309.091;0.489998
22;798.612;299.326;0.519997
23;867.584;328.867;0.540001
24;921.907;342.784;0.57
25;968.906;326.914;0.580002
26;1037.88;360.363;0.599998
27;1112.04;382.092;0.610001
28;1163.92;384.045;0.620003
29;1218.24;384.045;0.629997
30;1257.61;411.878;0.629997
31;1277.45;415.784;0.639999
32;1297.28;437.513;0.639999
33;1351.61;417.737;0.639999
34;1396.16;417.737;0.639999
35;1433.09;451.186;0.650002
36;1462.69;417.737;0.650002
37;1474.9;417.737;0.659996
38;1474.9;425.55;0.659996
39;1492.3;439.467;0.669998
40;1536.85;423.597;0.669998
41;1573.78;431.654;0.68
42;1598.5;415.784;0.68
43;1613.46;453.383;0.690002
44;1605.83;445.326;0.690002
45;1596.06;411.878;0.699997
46;1637.87;457.289;0.699997
47;1692.19;449.232;0.709999
48;1724.54;449.232;0.709999
49;1756.59;433.607;0.720001
50;1766.35;459.243;0.720001
51;1761.47;451.186;0.729996
52;1771.24;477.065;0.739998
53;1830.44;437.513;0.739998
54;1882.32;447.279;0.75
55;1917.12;486.831;0.760002
56;1931.76;435.56;0.760002
57;1926.88;451.186;0.769997
58;1907.04;453.383;0.769997
59;1911.93;472.915;0.779999
60;1956.48;455.336;0.790001
61;1983.65;469.008;0.790001
62;1998.6;443.373;0.799995
63;1998.6;492.691;0.799995
64;1969;477.065;0.799995
65;1946.72;441.42;0.809998
66;1981.2;488.784;0.809998
67;2030.64;488.784;0.82
68;2060.25;482.925;0.82
69;2074.9;467.055;0.830002
70;2067.57;492.691;0.830002
71;2045.29;482.925;0.839996
72;2037.97;510.514;0.839996
73;2094.73;475.112;0.839996
74;2134.41;482.925;0.849998
75;2159.13;520.524;0.849998
76;2164.01;472.915;0.849998
77;2139.29;482.925;0.860001
78;2102.06;484.878;0.860001
79;2099.62;504.654;0.870003
80;2136.85;479.019;0.870003
81;2156.38;494.644;0.870003
82;2164.01;472.915;0.879997
83;2151.5;518.326;0.879997
84;2117.01;506.607;0.879997
85;2077.64;467.055;0.889999
86;2097.17;524.43;0.889999
87;2141.73;510.514;0.900002
88;2164.01;512.467;0.900002
89;2176.22;494.644;0.900002
90;2166.45;520.524;0.909996
91;2136.85;506.607;0.909996
92;2117.01;534.196;0.909996
93;2164.01;490.738;0.919998
94;2208.26;496.597;0.919998
95;2228.1;534.196;0.919998
96;2232.98;510.514;0.93
97;2205.82;490.738;0.93
98;2161.57;508.56;0.93
99;2146.61;522.477;0.940002
100;2173.78;520.524;0.940002
101;2191.17;512.467;0.940002
102;2193.61;492.691;0.949997
103;2181.1;518.326;0.949997
104;2139.29;524.43;0.949997
105;2094.73;490.738;0.949997
106;2112.13;518.326;0.959999
107;2153.94;534.196;0.959999
108;2171.33;520.524;0.959999
109;2181.1;506.607;0.970001
110;2166.45;520.524;0.970001
111;2134.41;520.524;0.970001
112;2114.57;544.206;0.970001
113;2159.13;516.373;0.979996
114;2205.82;510.514;0.979996
115;2225.66;550.066;0.979996
116;2225.66;512.467;0.989998
117;2196.05;506.607;0.989998
118;2151.5;518.326;0.989998
119;2129.22;532.243;0.989998
120;2156.38;518.326;1
121;2168.89;522.477;1
122;2173.78;498.795;1
123;2156.38;534.196;1
124;2112.13;532.243;1.01
125;2067.57;496.597;1.01
126;2082.53;538.102;1.01
127;2121.89;540.056;1.01
128;2139.29;534.196;1.02
129;2146.61;520.524;1.02
130;2131.97;540.056;1.02
131;2094.73;532.243;1.02
132;2072.45;555.925;1.03
133;2112.13;522.477;1.03
134;2151.5;522.477;1.03
135;2166.45;561.785;1.03
136;2173.78;514.42;1.03
137;2149.06;520.524;1.04
138;2107.25;522.477;1.04
139;2089.85;544.206;1.04
140;2117.01;518.326;1.04
141;2134.41;528.336;1.05
142;2136.85;506.607;1.05
143;2117.01;550.066;1.05
144;2077.64;538.102;1.05
145;2035.53;500.748;1.05
146;2052.92;555.925;1.06
147;2092.29;540.056;1.06
148;2107.25;542.009;1.06
149;2109.69;522.477;1.06
150;2099.62;546.159;1.06
151;2067.57;532.243;1.07
152;2042.85;559.832;1.07
153;2084.97;518.326;1.07
154;2121.89;530.29;1.07
155;2139.29;557.878;1.07
156;2139.29;536.149;1.08
157;2112.13;514.42;1.08
158;2070.01;534.196;1.08
159;2055.36;544.206;1.08
160;2082.53;544.206;1.08
161;2097.17;532.243;1.09
162;2097.17;514.42;1.09
163;2082.53;540.056;1.09
164;2040.41;548.112;1.09
165;2005.92;514.42;1.09
166;2018.13;540.056;1.1
167;2060.25;557.878;1.1
168;2077.64;544.206;1.1
169;2080.08;528.336;1.1
170;2067.57;540.056;1.1
171;2037.97;544.206;1.1
172;2018.13;565.935;1.11
173;2062.69;540.056;1.11
174;2097.17;532.243;1.11
175;2114.57;569.842;1.11
176;2114.57;538.102;1.11
177;2087.41;528.336;1.11
178;2050.48;540.056;1.12
179;2035.53;553.972;1.12
180;2065.13;540.056;1.12
181;2080.08;540.056;1.12
182;2084.97;516.373;1.12
183;2070.01;553.972;1.12
184;2030.64;552.019;1.13
185;1986.09;516.373;1.13
186;2005.92;555.925;1.13
187;2042.85;559.832;1.13
188;2057.81;552.019;1.13
189;2062.69;530.29;1.13
190;2050.48;555.925;1.14
191;2018.13;546.159;1.14
192;2001.04;571.795;1.14
193;2040.41;536.149;1.14
194;2072.45;540.056;1.14
195;2087.41;579.608;1.14
196;2089.85;532.243;1.15
197;2060.25;538.102;1.15
198;2023.32;542.009;1.15
199;2008.37;557.878;1.15
200;2035.53;536.149;1.15
201;2047.73;542.009;1.15
202;2047.73;522.477;1.16
203;2033.09;565.935;1.16
204;1990.97;553.972;1.16
205;1956.48;520.524;1.16
206;1976.32;569.842;1.16
207;2015.69;555.925;1.16
208;2030.64;557.878;1.16
209;2037.97;540.056;1.17
210;2023.32;563.738;1.17
211;1986.09;550.066;1.17
212;1976.32;577.654;1.17
213;2020.57;536.149;1.17
214;2052.92;548.112;1.17
215;2065.13;581.561;1.17
216;2065.13;544.206;1.18
217;2040.41;542.009;1.18
218;2001.04;546.159;1.18
219;1993.41;563.738;1.18
220;2020.57;546.159;1.18
221;2030.64;550.066;1.18
222;2033.09;526.383;1.18
223;2018.13;567.888;1.18
224;1978.76;559.832;1.19
225;1944.28;522.477;1.19
226;1966.25;569.842;1.19
227;2001.04;563.738;1.19
228;2015.69;559.832;1.19
229;2023.32;542.009;1.19
230;2008.37;567.888;1.19
231;1978.76;555.925;1.2
232;1963.81;583.514;1.2
233;2008.37;542.009;1.2
234;2042.85;552.019;1.2
235;2052.92;587.42;1.2
236;2052.92;534.196;1.2
237;2028.2;550.066;1.2
238;1988.53;546.159;1.2
239;1978.76;567.888;1.21
240;2005.92;542.009;1.21
241;2015.69;557.878;1.21
242;2020.57;532.243;1.21
243;2003.48;577.654;1.21
244;1966.25;563.738;1.21
245;1926.88;538.102;1.21
246;1949.16;553.972;1.21
247;1988.53;585.467;1.22
248;2003.48;557.878;1.22
249;2008.37;550.066;1.22
250;1993.41;552.019;1.22
251;1966.25;563.738;1.22
252;1954.04;579.608;1.22
253;1996.16;561.785;1.22
254;2028.2;548.112;1.23
255;2035.53;585.467;1.23
256;2042.85;561.785;1.23
257;2028.2;542.009;1.23
258;1990.97;557.878;1.23
259;1963.81;571.795;1.23
260;1981.2;563.738;1.23
261;2003.48;557.878;1.23
262;2008.37;538.102;1.23
263;2003.48;567.888;1.24
264;1969;571.795;1.24
265;1929.32;536.149;1.24
266;1926.88;567.888;1.24
267;1969;579.608;1.24
268;1990.97;567.888;1.24
269;1996.16;553.972;1.24
270;1993.41;571.795;1.24
271;1969;569.842;1.25
272;1939.09;587.42;1.25
273;1969;557.878;1.25
274;2010.81;559.832;1.25
275;2028.2;597.43;1.25
276;2037.97;557.878;1.25
277;2018.13;555.925;1.25
278;1983.65;561.785;1.25
279;1956.48;579.608;1.26
280;1976.32;561.785;1.26
281;1996.16;561.785;1.26
282;2001.04;542.009;1.26
283;1996.16;579.608;1.26
284;1961.37;573.748;1.26
285;1919.56;538.102;1.26
286;1919.56;581.561;1.26
287;1961.37;579.608;1.27
288;1981.2;575.701;1.27
289;1990.97;557.878;1.27
290;1986.09;583.514;1.27
291;1958.93;573.748;1.27
292;1936.65;595.477;1.27
293;1963.81;557.878;1.27
294;2003.48;567.888;1.27
295;2023.32;603.29;1.27
296;2028.2;552.019;1.28
297;2010.81;563.738;1.28
298;1976.32;563.738;1.28
299;1951.6;581.561;1.28
300;1973.88;559.832;1.28
301;1993.41;573.748;1.28
302;1998.6;546.159;1.28
303;1993.41;591.571;1.28
304;1956.48;577.654;1.28
305;1917.12;540.056;1.29
306;1917.12;567.888;1.29
307;1958.93;599.384;1.29
308;1978.76;573.748;1.29
309;1986.09;563.738;1.29
310;1983.65;567.888;1.29
311;1954.04;577.654;1.29
312;1929.32;595.477;1.29
313;1961.37;577.654;1.29
314;2003.48;563.738;1.3
315;2020.57;601.337;1.3
316;2030.64;575.701;1.3
317;2010.81;557.878;1.3
318;1973.88;571.795;1.3
319;1949.16;585.467;1.3
320;1973.88;581.561;1.3
321;1990.97;571.795;1.3
322;1996.16;555.925;1.3
323;1986.09;583.514;1.31
324;1956.48;585.467;1.31
325;1914.67;550.066;1.31
326;1914.67;581.561;1.31
327;1956.48;597.43;1.31
328;1978.76;579.608;1.31
329;1988.53;567.888;1.31
330;1983.65;581.561;1.31
331;1954.04;581.561;1.31
332;1929.32;603.29;1.32
333;1963.81;573.748;1.32
334;2001.04;571.795;1.32
335;2020.57;607.196;1.32
336;2028.2;569.842;1.32
337;2008.37;565.935;1.32
338;1973.88;573.748;1.32
339;1949.16;587.42;1.32
340;1971.44;571.795;1.32
341;1988.53;577.654;1.32
342;1996.16;555.925;1.33
343;1988.53;591.571;1.33
344;1951.6;585.467;1.33
345;1911.93;548.112;1.33
346;1917.12;589.618;1.33
347;1958.93;591.571;1.33
348;1973.88;585.467;1.33
349;1986.09;569.842;1.33
350;1981.2;595.477;1.33
351;1956.48;585.467;1.33
352;1929.32;609.149;1.34
353;1961.37;573.748;1.34
354;2003.48;575.701;1.34
355;2020.57;611.347;1.34
356;2028.2;561.785;1.34
357;2008.37;573.748;1.34
358;1971.44;575.701;1.34
359;1951.6;593.524;1.34
360;1976.32;569.842;1.34
361;1990.97;581.561;1.34
362;1996.16;553.972;1.35
363;1988.53;601.337;1.35
364;1954.04;585.467;1.35
365;1914.67;550.066;1.35
366;1919.56;603.29;1.35
367;1963.81;595.477;1.35
368;1981.2;583.514;1.35
369;1990.97;571.795;1.35
370;1986.09;589.618;1.35
371;1958.93;583.514;1.35
372;1934.21;607.196;1.35
373;1971.44;575.701;1.36
374;2008.37;575.701;1.36
375;2025.76;613.3;1.36
376;2033.09;567.888;1.36
377;2013.25;573.748;1.36
378;1976.32;575.701;1.36
379;1958.93;595.477;1.36
380;1978.76;571.795;1.36
381;1996.16;579.608;1.36
382;2001.04;553.972;1.36
383;1990.97;595.477;1.36
384;1958.93;587.42;1.37
385;1917.12;552.019;1.37
386;1922;599.384;1.37
387;1963.81;589.618;1.37
388;1983.65;587.42;1.37
389;1993.41;569.842;1.37
390;1986.09;595.477;1.37
391;1956.48;583.514;1.37
392;1936.65;611.347;1.37
393;1969;569.842;1.37
394;2010.81;579.608;1.37
395;2028.2;615.253;1.38
396;2033.09;563.738;1.38
397;2010.81;557.878;1.38
398;1973.88;583.514;1.38
399;1956.48;589.618;1.38
400;1978.76;591.571;1.38
401;1996.16;579.608;1.38
402;2001.04;561.785;1.38
403;1990.97;585.467;1.38
404;1954.04;591.571;1.38
405;1917.12;561.785;1.38
406;1924.44;579.608;1.38
407;1963.81;605.243;1.39
408;1981.2;585.467;1.39
409;1988.53;571.795;1.39
410;1983.65;579.608;1.39
411;1954.04;583.514;1.39
412;1931.76;605.243;1.39
413;1969;581.561;1.39
414;2010.81;573.748;1.39
415;2023.32;609.149;1.39
416;2033.09;579.608;1.39
417;2010.81;565.935;1.39
418;1973.88;579.608;1.39
419;1956.48;591.571;1.39
420;1981.2;583.514;1.4
421;1996.16;579.608;1.4
422;1998.6;557.878;1.4
423;1993.41;587.42;1.4
424;1956.48;589.618;1.4
425;1917.12;555.925;1.4
426;1926.88;589.618;1.4
427;1969;595.477;1.4
428;1986.09;587.42;1.4
429;1996.16;569.842;1.4
430;1986.09;593.524;1.4
431;1958.93;583.514;1.4
432;1939.09;611.347;1.41
433;1973.88;579.608;1.41
434;2010.81;575.701;1.41
435;2028.2;613.3;1.41
436;2033.09;565.935;1.41
437;2010.81;573.748;1.41
438;1973.88;573.748;1.41
439;1956.48;593.524;1.41
440;1983.65;569.842;1.41
441;1996.16;577.654;1.41
442;2001.04;555.925;1.41
443;1990.97;597.43;1.41
444;1956.48;587.42;1.41
445;1914.67;550.066;1.42
446;1926.88;599.384;1.42
447;1969;589.618;1.42
448;1983.65;587.42;1.42
449;1993.41;571.795;1.42
450;1986.09;595.477;1.42
451;1958.93;583.514;1.42
452;1939.09;607.196;1.42
453;1976.32;567.888;1.42
454;2010.81;579.608;1.42
455;2028.2;615.253;1.42
456;2035.53;559.832;1.42
457;2010.81;577.654;1.42
458;1973.88;583.514;1.43
459;1958.93;589.618;1.43
460;1983.65;591.571;1.43
461;1998.6;577.654;1.43
462;2003.48;561.785;1.43
463;1993.41;583.514;1.43
464;1958.93;595.477;1.43
465;1917.12;561.785;1.43
466;1929.32;581.561;1.43
467;1971.44;605.243;1.43
468;1988.53;585.467;1.43
469;1993.41;571.795;1.43
470;1988.53;581.561;1.43
471;1958.93;585.467;1.43
472;1939.09;605.243;1.44
473;1978.76;583.514;1.44
474;2015.69;571.795;1.44
475;2030.64;609.149;1.44
476;2037.97;581.561;1.44
477;2013.25;567.888;1.44
478;1976.32;579.608;1.44
479;1961.37;593.524;1.44
480;1988.53;583.514;1.44
481;2003.48;579.608;1.44
482;2005.92;559.832;1.44
483;1990.97;591.571;1.44
484;1958.93;593.524;1.44
485;1917.12;553.972;1.45
486;1934.21;589.618;1.45
487;1973.88;597.43;1.45
488;1990.97;587.42;1.45
489;1998.6;571.795;1.45
490;1988.53;591.571;1.45
491;1958.93;585.467;1.45
492;1944.28;609.149;1.45
493;1981.2;579.608;1.45
494;2018.13;575.701;1.45
495;2033.09;615.253;1.45
496;2037.97;571.795;1.45
497;2018.13;571.795;1.45
498;1973.88;573.748;1.45
499;1963.81;595.477;1.46
500;1990.97;573.748;1.46
501;2001.04;581.561;1.46
502;2005.92;557.878;1.46
503;1996.16;597.43;1.46
504;1958.93;587.42;1.46
505;1922;552.019;1.46
506;1936.65;601.337;1.46
507;1976.32;593.524;1.46
508;1990.97;591.571;1.46
509;2001.04;573.748;1.46
510;1990.97;597.43;1.46
511;1961.37;585.467;1.46
512;1946.72;611.347;1.46
513;1983.65;571.795;1.47
514;2020.57;577.654;1.47
515;2037.97;619.16;1.47
516;2037.97;563.738;1.47
517;2013.25;577.654;1.47
518;1981.2;577.654;1.47
519;1966.25;593.524;1.47
520;1990.97;579.608;1.47
521;2005.92;583.514;1.47
522;2008.37;557.878;1.47
523;1996.16;595.477;1.47
524;1956.48;591.571;1.47
525;1924.44;553.972;1.47
526;1941.84;597.43;1.47
527;1978.76;595.477;1.47
528;1993.41;591.571;1.48
529;2001.04;573.748;1.48
530;1990.97;595.477;1.48
531;1961.37;585.467;1.48
532;1946.72;611.347;1.48
533;1988.53;575.701;1.48
534;2023.32;577.654;1.48
535;2037.97;615.253;1.48
536;2042.85;569.842;1.48
537;2015.69;577.654;1.48
538;1978.76;577.654;1.48
539;1966.25;595.477;1.48
540;1993.41;573.748;1.48
541;2008.37;581.561;1.48
542;2010.81;555.925;1.49
543;1998.6;601.337;1.49
544;1961.37;589.618;1.49
545;1922;552.019;1.49
546;1941.84;605.243;1.49
547;1981.2;593.524;1.49
548;1996.16;591.571;1.49
549;2005.92;571.795;1.49
550;1993.41;577.654;1.49
551;1966.25;587.42;1.49
552;1949.16;603.29;1.49
553;1990.97;589.618;1.49
554;2025.76;567.888;1.49
555;2040.41;605.243;1.49
556;2042.85;585.467;1.49
557;2015.69;563.738;1.5
558;1981.2;583.514;1.5
559;1971.44;593.524;1.5
560;1996.16;593.524;1.5
561;2008.37;581.561;1.5
562;2013.25;561.785;1.5
563;1998.6;589.618;1.5
564;1958.93;595.477;1.5
565;1924.44;559.832;1.5
566;1946.72;587.42;1.5
567;1986.09;603.29;1.5
568;1998.6;587.42;1.5
569;2005.92;575.701;1.5
570;1996.16;585.467;1.5
571;1966.25;585.467;1.51
572;1951.6;607.196;1.51
573;1993.41;581.561;1.51
574;2025.76;575.701;1.51
575;2040.41;613.3;1.51
576;2040.41;579.608;1.51
577;2015.69;571.795;1.51
578;1976.32;579.608;1.51
579;1969;593.524;1.51
580;1996.16;579.608;1.51
581;2008.37;581.561;1.51
582;2013.25;557.878;1.51
583;1998.6;591.571;1.51
584;1961.37;589.618;1.51
585;1924.44;553.972;1.51
586;1946.72;595.477;1.52
587;1986.09;595.477;1.52
588;2003.48;587.42;1.52
589;2008.37;573.748;1.52
590;1996.16;595.477;1.52
591;1963.81;587.42;1.52
592;1954.04;611.347;1.52
593;1996.16;573.748;1.52
594;2020.57;577.654;1.52
595;2037.97;615.253;1.52
596;2047.73;567.888;1.52
597;2030.64;575.701;1.52
598;1993.41;575.701;1.52
599;1966.25;597.43;1.52
600;1988.53;573.748;1.52
601;2008.37;581.561;1.53
602;2013.25;557.878;1.53
603;2008.37;599.384;1.53
604;1976.32;587.42;1.53
605;1936.65;550.066;1.53
606;1931.76;603.29;1.53
607;1976.32;589.618;1.53
608;1998.6;591.571;1.53
609;2008.37;571.795;1.53
610;2005.92;577.654;1.53
611;1981.2;585.467;1.53
612;1954.04;601.337;1.53
613;1978.76;587.42;1.53
614;2023.32;569.842;1.53
615;2040.41;603.29;1.53
616;2047.73;585.467;1.54
617;2030.64;561.785;1.54
618;1993.41;581.561;1.54
619;1969;589.618;1.54
620;1990.97;591.571;1.54
621;2013.25;579.608;1.54
622;2013.25;561.785;1.54
623;2008.37;585.467;1.54
624;1976.32;591.571;1.54
625;1936.65;557.878;1.54
626;1936.65;583.514;1.54
627;1981.2;601.337;1.54
628;2001.04;585.467;1.54
629;2010.81;573.748;1.54
630;2005.92;583.514;1.54
631;1978.76;585.467;1.55
632;1954.04;607.196;1.55
633;1978.76;581.561;1.55
634;2023.32;573.748;1.55
635;2040.41;609.149;1.55
636;2047.73;575.701;1.55
637;2030.64;567.888;1.55
638;1996.16;575.701;1.55
639;1969;589.618;1.55
640;1993.41;577.654;1.55
641;2010.81;579.608;1.55
642;2015.69;555.925;1.55
643;2010.81;589.618;1.55
644;1978.76;589.618;1.55
645;1934.21;548.112;1.55
646;1934.21;591.571;1.56
647;1981.2;593.524;1.56
648;1998.6;587.42;1.56
649;2008.37;571.795;1.56
650;2005.92;593.524;1.56
651;1978.76;581.561;1.56
652;1951.6;609.149;1.56
653;1983.65;573.748;1.56
654;2023.32;575.701;1.56
655;2042.85;613.3;1.56
656;2050.48;567.888;1.56
657;2030.64;575.701;1.56
658;1996.16;577.654;1.56
659;1971.44;593.524;1.56
660;1993.41;571.795;1.56
661;2013.25;579.608;1.56
662;2015.69;555.925;1.57
663;2010.81;595.477;1.57
664;1981.2;587.42;1.57
665;1936.65;550.066;1.57
666;1939.09;601.337;1.57
667;1978.76;589.618;1.57
668;1998.6;589.618;1.57
669;2008.37;569.842;1.57
670;2003.48;595.477;1.57
671;1978.76;583.514;1.57
672;1954.04;607.196;1.57
673;1986.09;575.701;1.57
674;2025.76;573.748;1.57
675;2042.85;609.149;1.57
676;2050.48;571.795;1.57
677;2030.64;569.842;1.58
678;1996.16;575.701;1.58
679;1971.44;591.571;1.58
680;1993.41;575.701;1.58
681;2010.81;577.654;1.58
682;2015.69;557.878;1.58
683;2005.92;591.571;1.58
684;1976.32;587.42;1.58
685;1934.21;548.112;1.58
686;1939.09;595.477;1.58
687;1981.2;589.618;1.58
688;1998.6;587.42;1.58
689;2008.37;569.842;1.58
690;2003.48;593.524;1.58
691;1976.32;583.514;1.58
692;1951.6;607.196;1.58
693;1981.2;573.748;1.59
694;2023.32;575.701;1.59
695;2042.85;613.3;1.59
696;2047.73;561.785;1.59
697;2030.64;575.701;1.59
698;1993.41;573.748;1.59
699;1969;591.571;1.59
700;1993.41;569.842;1.59
701;2013.25;577.654;1.59
702;2018.13;561.785;1.59
703;2008.37;579.608;1.59
704;1973.88;593.524;1.59
705;1931.76;559.832;1.59
706;1936.65;575.701;1.59
707;1983.65;607.196;1.59
708;1998.6;579.608;1.59
709;2008.37;571.795;1.6
710;2003.48;573.748;1.6
711;1973.88;581.561;1.6
712;1954.04;599.384;1.6
713;1983.65;581.561;1.6
714;2023.32;569.842;1.6
715;2042.85;603.29;1.6
716;2050.48;579.608;1.6
717;2030.64;561.785;1.6
718;1990.97;577.654;1.6
719;1969;589.618;1.6
720;1993.41;585.467;1.6
721;2010.81;577.654;1.6
722;2015.69;557.878;1.6
723;2008.37;585.467;1.6
724;1971.44;587.42;1.6
725;1931.76;557.878;1.6
726;1936.65;585.467;1.61
727;1978.76;599.384;1.61
728;1998.6;583.514;1.61
729;2008.37;571.795;1.61
730;2001.04;583.514;1.61
731;1973.88;585.467;1.61
732;1951.6;605.243;1.61
733;1986.09;575.701;1.61
734;2023.32;573.748;1.61
735;2042.85;609.149;1.61
736;2045.29;569.842;1.61
737;2030.64;569.842;1.61
738;1993.41;573.748;1.61
739;1971.44;591.571;1.61
740;1993.41;573.748;1.61
741;2010.81;577.654;1.61
742;2013.25;552.019;1.62
743;2003.48;591.571;1.62
744;1971.44;585.467;1.62
745;1929.32;548.112;1.62
746;1939.09;593.524;1.62
747;1978.76;589.618;1.62
748;1998.6;587.42;1.62
749;2005.92;569.842;1.62
750;2001.04;593.524;1.62
751;1973.88;579.608;1.62
752;1951.6;607.196;1.62
753;1986.09;569.842;1.62
754;2023.32;575.701;1.62
755;2040.41;611.347;1.62
756;2047.73;561.785;1.62
757;2025.76;573.748;1.62
758;1990.97;571.795;1.63
759;1969;591.571;1.63
760;1996.16;567.888;1.63
761;2008.37;577.654;1.63
762;2013.25;563.738;1.63
763;2005.92;577.654;1.63
764;1971.44;593.524;1.63
765;1926.88;561.785;1.63
766;1936.65;573.748;1.63
767;1981.2;609.149;1.63
768;1996.16;581.561;1.63
769;2008.37;571.795;1.63
770;2001.04;573.748;1.63
771;1973.88;585.467;1.63
772;1951.6;599.384;1.63
773;1986.09;583.514;1.63
774;2023.32;567.888;1.64
775;2040.41;605.243;1.64
776;2047.73;579.608;1.64
777;2025.76;561.785;1.64
778;1988.53;577.654;1.64
779;1969;587.42;1.64
780;1993.41;583.514;1.64
781;2008.37;575.701;1.64
782;2015.69;557.878;1.64
783;2003.48;585.467;1.64
784;1969;587.42;1.64
785;1929.32;553.972;1.64
786;1939.09;585.467;1.64
787;1983.65;599.384;1.64
788;1998.6;581.561;1.64
789;2005.92;569.842;1.64
790;2001.04;583.514;1.65
791;1971.44;583.514;1.65
792;1951.6;603.29;1.65
793;1988.53;575.701;1.65
794;2025.76;573.748;1.65
795;2042.85;609.149;1.65
796;2047.73;571.795;1.65
797;2028.2;567.888;1.65
798;1988.53;573.748;1.65
799;1973.88;587.42;1.65
800;1996.16;571.795;1.65
801;2010.81;577.654;1.65
802;2015.69;552.019;1.65
803;2005.92;593.524;1.65
804;1971.44;585.467;1.65
805;1929.32;552.019;1.65
806;1941.84;593.524;1.66
807;1983.65;591.571;1.66
808;2001.04;585.467;1.66
809;2005.92;567.888;1.66
810;2001.04;591.571;1.66
811;1973.88;581.561;1.66
812;1954.04;607.196;1.66
813;1990.97;569.842;1.66
814;2025.76;573.748;1.66
815;2042.85;611.347;1.66
816;2047.73;563.738;1.66
817;2025.76;571.795;1.66
818;1986.09;571.795;1.66
819;1969;591.571;1.66
820;1996.16;569.842;1.66
821;2010.81;577.654;1.66
822;2015.69;553.972;1.67
823;2001.04;589.618;1.67
824;1966.25;587.42;1.67
825;1929.32;550.066;1.67
826;1939.09;587.42;1.67
827;1978.76;595.477;1.67
828;1998.6;585.467;1.67
829;2005.92;567.888;1.67
830;1998.6;587.42;1.67
831;1969;583.514;1.67
832;1949.16;605.243;1.67
833;1988.53;573.748;1.67
834;2023.32;573.748;1.67
835;2040.41;609.149;1.67
836;2045.29;567.888;1.67
837;2020.57;569.842;1.67
838;1986.09;571.795;1.67
839;1969;589.618;1.68
840;1996.16;571.795;1.68
841;2008.37;577.654;1.68
842;2013.25;553.972;1.68
843;2003.48;593.524;1.68
844;1963.81;583.514;1.68
845;1926.88;548.112;1.68
846;1941.84;597.43;1.68
847;1981.2;589.618;1.68
848;1998.6;589.618;1.68
849;2005.92;567.888;1.68
850;1996.16;589.618;1.68
851;1969;581.561;1.68
852;1949.16;609.149;1.68
853;1990.97;565.935;1.68
854;2023.32;565.935;1.68
855;2040.41;595.477;1.68
856;2045.29;585.467;1.69
857;2020.57;553.972;1.69
858;1983.65;579.608;1.69
859;1969;587.42;1.69
860;1993.41;589.618;1.69
861;2010.81;573.748;1.69
862;2010.81;559.832;1.69
863;1998.6;581.561;1.69
864;1963.81;591.571;1.69
865;1926.88;557.878;1.69
866;1941.84;575.701;1.69
867;1983.65;603.29;1.69
868;1998.6;579.608;1.69
869;2005.92;571.795;1.69
870;1993.41;575.701;1.69
871;1966.25;581.561;1.69
872;1951.6;599.384;1.7
873;1988.53;577.654;1.7
874;2025.76;569.842;1.7
875;2042.85;603.29;1.7
876;2042.85;577.654;1.7
877;2018.13;563.738;1.7
878;1983.65;575.701;1.7
879;1969;589.618;1.7
880;1993.41;579.608;1.7
881;2005.92;577.654;1.7
882;2010.81;555.925;1.7
883;2001.04;585.467;1.7
884;1963.81;587.42;1.7
885;1926.88;552.019;1.7
886;1941.84;587.42;1.7
887;1981.2;593.524;1.7
888;1996.16;583.514;1.7
889;2003.48;567.888;1.71
890;1993.41;587.42;1.71
891;1961.37;581.561;1.71
892;1946.72;601.337;1.71
893;1988.53;573.748;1.71
894;2025.76;573.748;1.71
895;2040.41;611.347;1.71
896;2040.41;567.888;1.71
897;2020.57;569.842;1.71
898;1981.2;571.795;1.71
899;1969;589.618;1.71
900;1993.41;569.842;1.71
901;2005.92;577.654;1.71
902;2010.81;553.972;1.71
903;1998.6;593.524;1.71
904;1958.93;581.561;1.71
905;1924.44;548.112;1.71
906;1941.84;597.43;1.72
907;1981.2;587.42;1.72
908;1996.16;587.42;1.72
909;2005.92;569.842;1.72
910;1996.16;593.524;1.72
911;1961.37;581.561;1.72
912;1949.16;605.243;1.72
913;1988.53;567.888;1.72
914;2023.32;567.888;1.72
915;2040.41;597.43;1.72
916;2042.85;585.467;1.72
917;2015.69;553.972;1.72
918;1981.2;577.654;1.72
919;1966.25;587.42;1.72
920;1998.6;587.42;1.72
921;2008.37;575.701;1.72
922;2008.37;559.832;1.73
923;1998.6;579.608;1.73
924;1958.93;591.571;1.73
925;1922;559.832;1.73
926;1941.84;575.701;1.73
927;1981.2;601.337;1.73
928;1996.16;579.608;1.73
929;2001.04;569.842;1.73
930;1990.97;575.701;1.73
931;1961.37;581.561;1.73
932;1946.72;601.337;1.73
933;1990.97;579.608;1.73
934;2023.32;567.888;1.73
935;2037.97;603.29;1.73
936;2040.41;577.654;1.73
937;2010.81;561.785;1.73
938;1978.76;575.701;1.73
939;1966.25;587.42;1.74
940;1990.97;581.561;1.74
941;2005.92;575.701;1.74
942;2008.37;553.972;1.74
943;1998.6;585.467;1.74
944;1966.25;587.42;1.74
945;1924.44;552.019;1.74
946;1931.76;585.467;1.74
947;1976.32;593.524;1.74
948;1990.97;585.467;1.74
949;1998.6;567.888;1.74
950;1993.41;585.467;1.74
951;1966.25;581.561;1.74
952;1944.28;603.29;1.74
953;1978.76;573.748;1.74
954;2015.69;573.748;1.74
955;2033.09;609.149;1.74
956;2037.97;567.888;1.74
957;2020.57;569.842;1.75
958;1983.65;571.795;1.75
959;1963.81;589.618;1.75
960;1988.53;571.795;1.75
961;2001.04;575.701;1.75
962;2008.37;552.019;1.75
963;1996.16;591.571;1.75
964;1961.37;583.514;1.75
965;1924.44;548.112;1.75
966;1931.76;595.477;1.75
967;1971.44;589.618;1.75
968;1990.97;583.514;1.75
969;1998.6;567.888;1.75
970;1993.41;591.571;1.75
971;1966.25;579.608;1.75
972;1941.84;607.196;1.75
973;1978.76;567.888;1.75
974;2015.69;573.748;1.76
975;2035.53;607.196;1.76
976;2040.41;573.748;1.76
977;2018.13;565.935;1.76
978;1981.2;575.701;1.76
979;1961.37;587.42;1.76
980;1988.53;575.701;1.76
981;2003.48;575.701;1.76
982;2008.37;552.019;1.76
983;1998.6;587.42;1.76
984;1961.37;585.467;1.76
985;1922;548.112;1.76
986;1934.21;589.618;1.76
987;1976.32;591.571;1.76
988;1990.97;583.514;1.76
989;1998.6;565.935;1.76
990;1993.41;591.571;1.76
991;1963.81;579.608;1.77
992;1944.28;607.196;1.77
993;1981.2;573.748;1.77
994;2015.69;573.748;1.77
995;2033.09;609.149;1.77
996;2040.41;565.935;1.77
997;2018.13;569.842;1.77
998;1978.76;569.842;1.77
999;1961.37;589.618;1.77
1000;1988.53;567.888;1.77
1001;2003.48;577.654;1.77
1002;2005.92;553.972;1.77
1003;1996.16;593.524;1.77
1004;1958.93;583.514;1.77
1005;1924.44;559.832;1.77
1006;1934.21;571.795;1.77
1007;1973.88;607.196;1.77
1008;1990.97;579.608;1.78
1009;1996.16;567.888;1.78
1010;1993.41;571.795;1.78
1011;1961.37;583.514;1.78
1012;1941.84;599.384;1.78
1013;1981.2;583.514;1.78
1014;2015.69;567.888;1.78
1015;2033.09;599.384;1.78
1016;2035.53;583.514;1.78
1017;2015.69;557.878;1.78
1018;1978.76;577.654;1.78
1019;1961.37;587.42;1.78
1020;1990.97;587.42;1.78
1021;2003.48;573.748;1.78
1022;2005.92;557.878;1.78
1023;1996.16;581.561;1.78
1024;1958.93;589.618;1.78
1025;1919.56;555.925;1.79
1026;1934.21;579.608;1.79
1027;1973.88;597.43;1.79
1028;1988.53;579.608;1.79
1029;1998.6;567.888;1.79
1030;1988.53;579.608;1.79
1031;1961.37;583.514;1.79
1032;1941.84;601.337;1.79
1033;1981.2;577.654;1.79
1034;2018.13;573.748;1.79
1035;2033.09;605.243;1.79
1036;2035.53;571.795;1.79
1037;2013.25;563.738;1.79
1038;1976.32;573.748;1.79
1039;1961.37;587.42;1.79
1040;1986.09;575.701;1.79
1041;2001.04;575.701;1.79
1042;2003.48;550.066;1.79
1043;1996.16;587.42;1.8
1044;1958.93;585.467;1.8
1045;1919.56;548.112;1.8
1046;1934.21;589.618;1.8
1047;1973.88;591.571;1.8
1048;1990.97;583.514;1.8
1049;1996.16;567.888;1.8
1050;1986.09;589.618;1.8
1051;1958.93;583.514;1.8
1052;1939.09;603.29;1.8
1053;1981.2;571.795;1.8
1054;2015.69;571.795;1.8
1055;2030.64;607.196;1.8
1056;2035.53;563.738;1.8
1057;2013.25;567.888;1.8
1058;1973.88;571.795;1.8
1059;1961.37;589.618;1.8
1060;1988.53;567.888;1.81
1061;2001.04;575.701;1.81
1062;2003.48;552.019;1.81
1063;1990.97;595.477;1.81
1064;1958.93;583.514;1.81
1065;1917.12;550.066;1.81
1066;1936.65;569.842;1.81
1067;1976.32;607.196;1.81
1068;1990.97;577.654;1.81
1069;1998.6;571.795;1.81
1070;1986.09;571.795;1.81
1071;1956.48;581.561;1.81
1072;1944.28;597.43;1.81
1073;1983.65;583.514;1.81
1074;2018.13;565.935;1.81
1075;2033.09;599.384;1.81
1076;2035.53;583.514;1.81
1077;2013.25;555.925;1.81
1078;1976.32;575.701;1.82
1079;1961.37;587.42;1.82
1080;1988.53;587.42;1.82
1081;2001.04;573.748;1.82
1082;2003.48;559.832;1.82
1083;1990.97;581.561;1.82
1084;1954.04;589.618;1.82
1085;1917.12;555.925;1.82
1086;1936.65;577.654;1.82
1087;1976.32;601.337;1.82
1088;1990.97;581.561;1.82
1089;1998.6;567.888;1.82
1090;1988.53;577.654;1.82
1091;1958.93;581.561;1.82
1092;1944.28;603.29;1.82
1093;1983.65;577.654;1.82
1094;2018.13;569.842;1.82
1095;2033.09;605.243;1.82
1096;2035.53;573.748;1.83
1097;2010.81;565.935;1.83
1098;1973.88;571.795;1.83
1099;1966.25;589.618;1.83
1100;1990.97;579.608;1.83
1101;2003.48;575.701;1.83
1102;2005.92;552.019;1.83
1103;1990.97;587.42;1.83
1104;1956.48;585.467;1.83
1105;1919.56;548.112;1.83
1106;1939.09;589.618;1.83
1107;1978.76;591.571;1.83
1108;1988.53;585.467;1.83
1109;1996.16;565.935;1.83
1110;1993.41;589.618;1.83
1111;1971.44;579.608;1.83
1112;1944.28;605.243;1.83
1113;1963.81;571.795;1.83
1114;2008.37;573.748;1.84
1115;2028.2;611.347;1.84
1116;2037.97;565.935;1.84
1117;2025.76;567.888;1.84
1118;1990.97;571.795;1.84
1119;1961.37;591.571;1.84
1120;1976.32;567.888;1.84
1121;2001.04;577.654;1.84
1122;2003.48;552.019;1.84
1123;2001.04;595.477;1.84
1124;1971.44;585.467;1.84
1125;1931.76;548.112;1.84
1126;1924.44;597.43;1.84
1127;1966.25;597.43;1.84
1128;1986.09;583.514;1.84
1129;1996.16;569.842;1.84
1130;1993.41;583.514;1.84
1131;1973.88;579.608;1.84
1132;1944.28;603.29;1.84
1133;1969;575.701;1.85
1134;2010.81;571.795;1.85
1135;2030.64;609.149;1.85
1136;2037.97;571.795;1.85
1137;2028.2;567.888;1.85
1138;1988.53;573.748;1.85
1139;1963.81;591.571;1.85
1140;1981.2;573.748;1.85
1141;2001.04;573.748;1.85
1142;2005.92;553.972;1.85
1143;2001.04;589.618;1.85
1144;1973.88;585.467;1.85
1145;1929.32;550.066;1.85
1146;1924.44;593.524;1.85
1147;1969;589.618;1.85
1148;1988.53;583.514;1.85
1149;2001.04;567.888;1.85
1150;1998.6;591.571;1.85
1151;1971.44;579.608;1.85
1152;1944.28;605.243;1.85
1153;1969;569.842;1.86
1154;2013.25;573.748;1.86
1155;2033.09;611.347;1.86
1156;2040.41;561.785;1.86
1157;2023.32;555.925;1.86
1158;1988.53;579.608;1.86
1159;1963.81;585.467;1.86
1160;1983.65;589.618;1.86
1161;2001.04;575.701;1.86
1162;2005.92;561.785;1.86
1163;2003.48;577.654;1.86
1164;1971.44;593.524;1.86
1165;1931.76;557.878;1.86
1166;1929.32;575.701;1.86
1167;1971.44;603.29;1.86
1168;1990.97;579.608;1.86
1169;2001.04;567.888;1.86
1170;1996.16;571.795;1.86
1171;1971.44;581.561;1.86
1172;1944.28;599.384;1.87
1173;1971.44;581.561;1.87
1174;2010.81;565.935;1.87
1175;2030.64;599.384;1.87
1176;2040.41;579.608;1.87
1177;2020.57;559.832;1.87
1178;1986.09;577.654;1.87
1179;1961.37;587.42;1.87
1180;1983.65;585.467;1.87
1181;2003.48;575.701;1.87
1182;2008.37;555.925;1.87
1183;2003.48;583.514;1.87
1184;1969;587.42;1.87
1185;1931.76;553.972;1.87
1186;1929.32;583.514;1.87
1187;1971.44;595.477;1.87
1188;1990.97;583.514;1.87
1189;2001.04;567.888;1.87
1190;1996.16;583.514;1.87
1191;1973.88;583.514;1.88
1192;1946.72;603.29;1.88
1193;1971.44;573.748;1.88
1194;2013.25;571.795;1.88
1195;2033.09;605.243;1.88
1196;2040.41;571.795;1.88
1197;2023.32;563.738;1.88
1198;1988.53;571.795;1.88
1199;1961.37;587.42;1.88
1200;1986.09;571.795;1.88
1201;2001.04;575.701;1.88
1202;2008.37;553.972;1.88
1203;2001.04;587.42;1.88
1204;1971.44;585.467;1.88
1205;1931.76;546.159;1.88
1206;1929.32;591.571;1.88
1207;1973.88;591.571;1.88
1208;1990.97;583.514;1.88
1209;2003.48;567.888;1.88
1210;1998.6;591.571;1.89
1211;1971.44;581.561;1.89
1212;1946.72;605.243;1.89
1213;1971.44;569.842;1.89
1214;2015.69;571.795;1.89
1215;2033.09;611.347;1.89
1216;2040.41;561.785;1.89
1217;2025.76;571.795;1.89
1218;1988.53;577.654;1.89
1219;1966.25;583.514;1.89
1220;1986.09;587.42;1.89
1221;2003.48;571.795;1.89
1222;2010.81;559.832;1.89
1223;2001.04;575.701;1.89
1224;1971.44;593.524;1.89
1225;1934.21;557.878;1.89
1226;1934.21;569.842;1.89
1227;1976.32;603.29;1.89
1228;1993.41;577.654;1.89
1229;2003.48;569.842;1.9
1230;2001.04;569.842;1.9
1231;1971.44;581.561;1.9
1232;1949.16;597.43;1.9
1233;1978.76;581.561;1.9
1234;2018.13;563.738;1.9
1235;2035.53;599.384;1.9
1236;2042.85;581.561;1.9
1237;2025.76;559.832;1.9
1238;1988.53;573.748;1.9
1239;1966.25;587.42;1.9
1240;1988.53;585.467;1.9
1241;2005.92;575.701;1.9
1242;2010.81;555.925;1.9
1243;2005.92;581.561;1.9
1244;1973.88;587.42;1.9
1245;1934.21;552.019;1.9
1246;1936.65;579.608;1.9
1247;1976.32;595.477;1.9
1248;1996.16;579.608;1.91
1249;2005.92;565.935;1.91
1250;2001.04;579.608;1.91
1251;1973.88;579.608;1.91
1252;1951.6;603.29;1.91
1253;1978.76;575.701;1.91
1254;2020.57;569.842;1.91
1255;2037.97;603.29;1.91
1256;2045.29;569.842;1.91
1257;2028.2;565.935;1.91
1258;1990.97;571.795;1.91
1259;1966.25;587.42;1.91
1260;1993.41;573.748;1.91
1261;2010.81;573.748;1.91
1262;2015.69;552.019;1.91
1263;2005.92;589.618;1.91
1264;1973.88;585.467;1.91
1265;1934.21;548.112;1.92
1266;1936.65;589.618;1.92
1267;1981.2;589.618;1.92
1268;1996.16;581.561;1.92
1269;2005.92;567.888;1.92
1270;2001.04;587.42;1.92
1271;1976.32;581.561;1.92
1272;1951.6;603.29;1.92
1273;1983.65;569.842;1.92
1274;2023.32;571.795;1.92
1275;2040.41;609.149;1.92
1276;2047.73;561.785;1.92
1277;2028.2;569.842;1.92
1278;1990.97;575.701;1.92
1279;1969;587.42;1.92
1280;1996.16;577.654;1.92
1281;2013.25;573.748;1.92
1282;2015.69;553.972;1.92
1283;2008.37;583.514;1.92
1284;1973.88;583.514;1.93
1285;1934.21;550.066;1.93
1286;1941.84;585.467;1.93
1287;1981.2;593.524;1.93
1288;2001.04;581.561;1.93
1289;2008.37;565.935;1.93
1290;2003.48;583.514;1.93
1291;1976.32;579.608;1.93
1292;1954.04;601.337;1.93
1293;1988.53;571.795;1.93
1294;2025.76;571.795;1.93
1295;2040.41;607.196;1.93
1296;2050.48;565.935;1.93
1297;2030.64;567.888;1.93
1298;1990.97;569.842;1.93
1299;1969;587.42;1.93
1300;2001.04;567.888;1.93
1301;2015.69;573.748;1.94
1302;2018.13;552.019;1.94
1303;2005.92;589.618;1.94
1304;1976.32;583.514;1.94
1305;1934.21;546.159;1.94
1306;1941.84;595.477;1.94
1307;1983.65;587.42;1.94
1308;2001.04;583.514;1.94
1309;2010.81;567.888;1.94
1310;2003.48;569.842;1.94
1311;1976.32;581.561;1.94
1312;1956.48;593.524;1.94
1313;1990.97;585.467;1.94
1314;2028.2;563.738;1.94
1315;2045.29;593.524;1.94
1316;2052.92;583.514;1.94
1317;2028.2;552.019;1.94
1318;1990.97;575.701;1.94
1319;1976.32;583.514;1.95
1320;1998.6;583.514;1.95
1321;2015.69;573.748;1.95
1322;2020.57;555.925;1.95
1323;2010.81;577.654;1.95
1324;1976.32;589.618;1.95
1325;1934.21;555.925;1.95
1326;1949.16;573.748;1.95
1327;1986.09;603.29;1.95
1328;2003.48;579.608;1.95
1329;2015.69;567.888;1.95
1330;2008.37;571.795;1.95
1331;1978.76;581.561;1.95
1332;1956.48;597.43;1.95
1333;1993.41;577.654;1.95
1334;2030.64;565.935;1.95
1335;2047.73;601.337;1.96
1336;2055.36;573.748;1.96
1337;2033.09;561.785;1.96
1338;1996.16;571.795;1.96
1339;1978.76;585.467;1.96
1340;2003.48;579.608;1.96
1341;2020.57;571.795;1.96
1342;2020.57;552.019;1.96
1343;2013.25;583.514;1.96
1344;1978.76;583.514;1.96
1345;1939.09;548.112;1.96
1346;1946.72;585.467;1.96
1347;1993.41;591.571;1.96
1348;2008.37;579.608;1.96
1349;2015.69;565.935;1.96
1350;2008.37;583.514;1.96
1351;1981.2;581.561;1.96
1352;1956.48;603.29;1.96
1353;1996.16;571.795;1.97
1354;2037.97;571.795;1.97
1355;2052.92;607.196;1.97
1356;2057.81;565.935;1.97
1357;2035.53;567.888;1.97
1358;1998.6;569.842;1.97
1359;1981.2;589.618;1.97
1360;2008.37;569.842;1.97
1361;2023.32;575.701;1.97
1362;2025.76;550.066;1.97
1363;2015.69;589.618;1.97
1364;1978.76;583.514;1.97
1365;1939.09;544.206;1.97
1366;1954.04;593.524;1.97
1367;1993.41;587.42;1.97
1368;2010.81;585.467;1.97
1369;2018.13;571.795;1.97
1370;2010.81;569.842;1.98
1371;1981.2;581.561;1.98
1372;1963.81;593.524;1.98
1373;2003.48;585.467;1.98
1374;2037.97;561.785;1.98
1375;2057.81;591.571;1.98
1376;2057.81;585.467;1.98
1377;2037.97;553.972;1.98
1378;1998.6;575.701;1.98
1379;1983.65;581.561;1.98
1380;2010.81;585.467;1.98
1381;2025.76;571.795;1.98
1382;2025.76;555.925;1.98
1383;2015.69;575.701;1.98
1384;1981.2;589.618;1.98
1385;1941.84;557.878;1.98
1386;1954.04;573.748;1.98
1387;1996.16;601.337;1.99
1388;2013.25;577.654;1.99
1389;2020.57;567.888;1.99
1390;2013.25;571.795;1.99
1391;1983.65;577.654;1.99
1392;1969;597.43;1.99
1393;2005.92;577.654;1.99
1394;2040.41;569.842;1.99
1395;2060.25;599.384;1.99
1396;2065.13;575.701;1.99
1397;2040.41;561.785;1.99
1398;2003.48;575.701;1.99
1399;1988.53;585.467;1.99
1400;2013.25;581.561;1.99
1401;2028.2;571.795;1.99
1402;2030.64;553.972;1.99
1403;2020.57;581.561;1.99
1404;1983.65;585.467;2
1405;1946.72;550.066;2
1406;1961.37;581.561;2
1407;2001.04;593.524;2
1408;2018.13;579.608;2
1409;2025.76;567.888;2
1410;2018.13;581.561;2
1411;1988.53;579.608;2
1412;1971.44;601.337;2
1413;2010.81;571.795;2
1414;2045.29;569.842;2
1415;2062.69;605.243;2
1416;2065.13;567.888;2
1417;2045.29;567.888;2
1418;2003.48;569.842;2
1419;1988.53;585.467;2
1420;2018.13;567.888;2
1421;2030.64;573.748;2
1422;2033.09;552.019;2.01
1423;2020.57;587.42;2.01
1424;1986.09;581.561;2.01
1425;1946.72;544.206;2.01
1426;1963.81;591.571;2.01
1427;2003.48;587.42;2.01
1428;2020.57;583.514;2.01
1429;2025.76;563.738;2.01
1430;2018.13;589.618;2.01
1431;1986.09;577.654;2.01
1432;1973.88;601.337;2.01
1433;2013.25;575.701;2.01
1434;2050.48;569.842;2.01
1435;2062.69;601.337;2.01
1436;2067.57;571.795;2.01
1437;2040.41;561.785;2.01
1438;2003.48;569.842;2.02
1439;1988.53;585.467;2.02
1440;2015.69;577.654;2.02
1441;2030.64;573.748;2.02
1442;2033.09;552.019;2.02
1443;2023.32;585.467;2.02
1444;1983.65;583.514;2.02
1445;1946.72;546.159;2.02
1446;1949.16;585.467;2.02
1447;1990.97;589.618;2.02
1448;2015.69;579.608;2.02
1449;2025.76;563.738;2.02
1450;2023.32;585.467;2.02
1451;2001.04;575.701;2.02
1452;1973.88;603.29;2.02
1453;1990.97;569.842;2.02
1454;2037.97;571.795;2.02
1455;2060.25;609.149;2.03
1456;2067.57;561.785;2.03
1457;2057.81;565.935;2.03
1458;2020.57;569.842;2.03
1459;1990.97;585.467;2.03
1460;2010.81;565.935;2.03
1461;2028.2;569.842;2.03
1462;2037.97;559.832;2.03
1463;2033.09;569.842;2.03
1464;2003.48;593.524;2.03
1465;1961.37;561.785;2.03
1466;1954.04;565.935;2.03
1467;1996.16;605.243;2.03
1468;2018.13;575.701;2.03
1469;2030.64;567.888;2.03
1470;2025.76;569.842;2.03
1471;2003.48;577.654;2.03
1472;1973.88;593.524;2.04
1473;1996.16;581.561;2.04
1474;2045.29;561.785;2.04
1475;2062.69;595.477;2.04
1476;2072.45;579.608;2.04
1477;2060.25;552.019;2.04
1478;2020.57;575.701;2.04
1479;1996.16;581.561;2.04
1480;2015.69;585.467;2.04
1481;2033.09;571.795;2.04
1482;2040.41;553.972;2.04
1483;2033.09;573.748;2.04
1484;2003.48;585.467;2.04
1485;1963.81;552.019;2.04
1486;1956.48;573.748;2.04
1487;1998.6;595.477;2.04
1488;2023.32;577.654;2.04
1489;2030.64;563.738;2.05
1490;2030.64;573.748;2.05
1491;2005.92;577.654;2.05
1492;1976.32;599.384;2.05
1493;2001.04;575.701;2.05
1494;2045.29;565.935;2.05
1495;2065.13;599.384;2.05
1496;2072.45;569.842;2.05
1497;2057.81;561.785;2.05
1498;2020.57;571.795;2.05
1499;1990.97;583.514;2.05
1500;2013.25;575.701;2.05
1501;2035.53;571.795;2.05
1502;2040.41;550.066;2.05
1503;2035.53;585.467;2.05
1504;2005.92;583.514;2.05
1505;1963.81;546.159;2.06
1506;1958.93;585.467;2.06
1507;2003.48;589.618;2.06
1508;2025.76;581.561;2.06
1509;2035.53;563.738;2.06
1510;2033.09;585.467;2.06
1511;2010.81;577.654;2.06
1512;1983.65;603.29;2.06
1513;2003.48;567.888;2.06
1514;2050.48;569.842;2.06
1515;2067.57;605.243;2.06
1516;2077.64;565.935;2.06
1517;2062.69;565.935;2.06
1518;2028.2;567.888;2.06
1519;2001.04;585.467;2.06
1520;2020.57;565.935;2.06
1521;2040.41;573.748;2.06
1522;2047.73;559.832;2.07
1523;2040.41;569.842;2.07
1524;2010.81;589.618;2.07
1525;1966.25;563.738;2.07
1526;1963.81;565.935;2.07
1527;2010.81;605.243;2.07
1528;2030.64;573.748;2.07
1529;2040.41;567.888;2.07
1530;2037.97;567.888;2.07
1531;2013.25;579.608;2.07
1532;1983.65;591.571;2.07
1533;2010.81;581.561;2.07
1534;2052.92;561.785;2.07
1535;2072.45;593.524;2.07
1536;2080.08;579.608;2.07
1537;2067.57;550.066;2.07
1538;2030.64;573.748;2.07
1539;2003.48;583.514;2.08
1540;2025.76;585.467;2.08
1541;2045.29;571.795;2.08
1542;2050.48;553.972;2.08
1543;2047.73;575.701;2.08
1544;2010.81;583.514;2.08
1545;1969;552.019;2.08
1546;1971.44;571.795;2.08
1547;2013.25;597.43;2.08
1548;2035.53;577.654;2.08
1549;2045.29;565.935;2.08
1550;2040.41;571.795;2.08
1551;2015.69;577.654;2.08
1552;1988.53;597.43;2.08
1553;2015.69;573.748;2.08
1554;2060.25;565.935;2.08
1555;2074.9;601.337;2.08
1556;2087.41;571.795;2.09
1557;2067.57;555.925;2.09
1558;2033.09;567.888;2.09
1559;2008.37;583.514;2.09
1560;2033.09;575.701;2.09
1561;2052.92;571.795;2.09
1562;2055.36;550.066;2.09
1563;2050.48;581.561;2.09
1564;2018.13;581.561;2.09
1565;1973.88;546.159;2.09
1566;1976.32;583.514;2.09
1567;2020.57;591.571;2.09
1568;2040.41;579.608;2.09
1569;2052.92;561.785;2.09
1570;2047.73;581.561;2.09
1571;2020.57;573.748;2.09
1572;1996.16;599.384;2.09
1573;2023.32;567.888;2.1
1574;2065.13;569.842;2.1
1575;2087.41;607.196;2.1
1576;2092.29;563.738;2.1
1577;2074.9;563.738;2.1
1578;2037.97;567.888;2.1
1579;2013.25;585.467;2.1
1580;2035.53;565.935;2.1
1581;2057.81;569.842;2.1
1582;2060.25;548.112;2.1
1583;2055.36;579.608;2.1
1584;2020.57;585.467;2.1
1585;1981.2;548.112;2.1
1586;1981.2;577.654;2.1
1587;2025.76;593.524;2.1
1588;2047.73;575.701;2.1
1589;2057.81;563.738;2.1
1590;2052.92;577.654;2.1
1591;2023.32;577.654;2.11
1592;2001.04;599.384;2.11
1593;2028.2;569.842;2.11
1594;2072.45;565.935;2.11
1595;2089.85;601.337;2.11
1596;2097.17;567.888;2.11
1597;2077.64;561.785;2.11
1598;2042.85;567.888;2.11
1599;2015.69;585.467;2.11
1600;2040.41;569.842;2.11
1601;2060.25;571.795;2.11
1602;2062.69;550.066;2.11
1603;2057.81;583.514;2.11
1604;2023.32;579.608;2.11
1605;1983.65;544.206;2.11
1606;1986.09;587.42;2.11
1607;2030.64;585.467;2.12
1608;2050.48;581.561;2.12
1609;2060.25;565.935;2.12
1610;2052.92;585.467;2.12
1611;2025.76;575.701;2.12
1612;2001.04;601.337;2.12
1613;2033.09;585.467;2.12
1614;2077.64;555.925;2.12
1615;2094.73;587.42;2.12
1616;2102.06;585.467;2.12
1617;2084.97;546.159;2.12
1618;2045.29;573.748;2.12
1619;2023.32;579.608;2.12
1620;2047.73;581.561;2.12
1621;2065.13;569.842;2.12
1622;2067.57;555.925;2.12
1623;2062.69;573.748;2.13
1624;2028.2;587.42;2.13
1625;1986.09;555.925;2.13
1626;1988.53;567.888;2.13
1627;2035.53;601.337;2.13
1628;2055.36;573.748;2.13
1629;2065.13;563.738;2.13
1630;2057.81;565.935;2.13
1631;2030.64;577.654;2.13
1632;2005.92;593.524;2.13
1633;2037.97;577.654;2.13
1634;2080.08;561.785;2.13
1635;2099.62;595.477;2.13
1636;2104.8;577.654;2.13
1637;2084.97;552.019;2.13
1638;2047.73;571.795;2.13
1639;2023.32;581.561;2.14
1640;2050.48;579.608;2.14
1641;2070.01;569.842;2.14
1642;2072.45;552.019;2.14
1643;2065.13;577.654;2.14
1644;2030.64;583.514;2.14
1645;1990.97;546.159;2.14
1646;1993.41;573.748;2.14
1647;2040.41;593.524;2.14
1648;2060.25;575.701;2.14
1649;2070.01;561.785;2.14
1650;2060.25;573.748;2.14
1651;2035.53;575.701;2.14
1652;2010.81;597.43;2.14
1653;2045.29;571.795;2.14
1654;2084.97;565.935;2.15
1655;2102.06;603.29;2.15
1656;2109.69;567.888;2.15
1657;2089.85;559.832;2.15
1658;2050.48;569.842;2.15
1659;2028.2;583.514;2.15
