<WeldAnalyseData xmlns:i="http:www.w3.org/2001/XMLSchema-instance">
<WeldParameter>
<TimeStamp>DT#2024-01-25-15:26:49</TimeStamp>
<Generator>SG-22-10000</Generator>
<GenFreq>20</GenFreq>
<MaxForce>8000</MaxForce>
<MaxPower>10000</MaxPower>
<RunupPressure>1.5</RunupPressure>
<RunupDist>10</RunupDist>
<RunPress>0.8</RunPress>
<ShakeDelay>0.03</ShakeDelay>
<ShakeTime>0.3</ShakeTime>
<RunBackPress1>6</RunBackPress1>
<RunBackPress2>2</RunBackPress2>
<RunBackDist>1</RunBackDist>
<TrigValue>500</TrigValue>
<TrigModeUnit>W</TrigModeUnit>
<WeldModeUnit>Ws</WeldModeUnit>
<PressNr>0</PressNr>
<MaxLoss>1500</MaxLoss>
</WeldParameter>
<WeldSets>
<WeldSet>
<PressRiseTime>0</PressRiseTime>
<RunPressure>1</RunPressure>
<Amplitude>86</Amplitude>
<WeldMode>3270</WeldMode>
</WeldSet>
</WeldSets>
<WeldValue>
<WeldNr>3044</WeldNr>
<RecipeName>RickStyle</RecipeName>
<WeldTime>1684</WeldTime>
<DistDiff>2.38</DistDiff>
<DistAbs>78.05</DistAbs>
<Energy>3270.99</Energy>
<MaxPower>2159.38</MaxPower>
<CycleTime>6010</CycleTime>
<TrigForce>502.701</TrigForce>
<TrigDist>75.67</TrigDist>
<RunSpeed>67.5022</RunSpeed>
<MaxForce>617.206</MaxForce>
<LossPower>324.526</LossPower>
</WeldValue>
</WeldAnalyseData>
#CSV-START#
ms;Power[W];Force[N];Distance[mm]
1;0;0;0
2;0;502.701;0.0100021
3;0;500.748;0.0100021
4;0;500.748;0.0100021
5;0;502.701;0.0100021
6;0;502.701;0.0100021
7;0;504.654;0.0100021
8;0;472.915;0.0100021
9;0;421.644;0.0200043
10;0;399.915;0.0400009
11;0;354.503;0.0800018
12;25.8263;354.503;0.120003
13;92.6618;323.008;0.160004
14;171.705;314.951;0.200005
15;248.306;295.419;0.25
16;314.837;291.269;0.290001
17;371.601;281.503;0.340004
18;435.69;299.326;0.389999
19;512.291;271.737;0.440002
20;586.451;287.362;0.480003
21;655.423;317.148;0.520004
22;724.7;277.596;0.550003
23;788.789;311.045;0.580002
24;850.742;317.148;0.610001
25;912.389;336.68;0.630005
26;981.361;334.727;0.650002
27;1040.87;350.597;0.669998
28;1095.19;338.633;0.68
29;1134.56;386.242;0.690002
30;1154.4;392.102;0.700005
31;1173.93;370.373;0.700005
32;1223.37;415.784;0.709999
33;1265.49;415.784;0.709999
34;1297.53;415.784;0.709999
35;1332.02;403.821;0.720001
36;1354.3;421.644;0.720001
37;1361.62;417.737;0.730003
38;1388.78;441.42;0.730003
39;1448.29;407.971;0.740005
40;1494.99;421.644;0.740005
41;1532.22;453.383;0.75
42;1556.94;407.971;0.75
43;1559.38;421.644;0.760002
44;1554.19;423.597;0.760002
45;1576.47;441.42;0.770004
46;1616.15;421.644;0.770004
47;1645.75;431.654;0.779999
48;1668.03;411.878;0.779999
49;1675.35;457.289;0.790001
50;1660.4;441.42;0.800003
51;1655.51;407.971;0.800003
52;1702.51;461.196;0.810005
53;1749.51;445.326;0.82
54;1781.56;445.326;0.82
55;1803.83;429.456;0.830002
56;1808.72;453.383;0.840004
57;1798.65;445.326;0.849998
58;1813.6;472.915;0.849998
59;1875.25;427.503;0.860001
60;1917.36;449.232;0.870003
61;1944.53;486.831;0.870003
62;1954.29;427.503;0.880005
63;1939.64;455.336;0.880005
64;1912.48;453.383;0.889999
65;1922.25;472.915;0.889999
66;1966.8;453.383;0.900002
67;1988.78;463.149;0.910004
68;1998.85;443.373;0.910004
69;1986.34;494.644;0.919998
70;1956.73;472.915;0.919998
71;1932.01;441.42;0.93
72;1974.13;506.607;0.93
73;2015.94;477.065;0.940002
74;2038.22;477.065;0.940002
75;2045.54;469.008;0.940002
76;2033.33;490.738;0.950005
77;2006.17;480.972;0.950005
78;2011.06;502.701;0.959999
79;2065.38;457.289;0.959999
80;2097.42;482.925;0.970001
81;2117.26;510.514;0.970001
82;2114.82;449.232;0.980003
83;2087.66;484.878;0.980003
84;2053.17;486.831;0.980003
85;2055.61;498.795;0.990005
86;2087.66;484.878;0.990005
87;2102.61;486.831;1
88;2107.49;479.019;1
89;2082.77;508.56;1
90;2043.1;500.748;1.01
91;2015.94;463.149;1.01
92;2053.17;514.42;1.02
93;2085.22;510.514;1.02
94;2097.42;506.607;1.02
95;2105.05;488.784;1.03
96;2085.22;512.467;1.03
97;2053.17;506.607;1.03
98;2055.61;530.29;1.04
99;2107.49;492.691;1.04
100;2144.42;498.795;1.04
101;2159.38;538.102;1.05
102;2151.75;486.831;1.05
103;2117.26;498.795;1.05
104;2072.7;498.795;1.06001
105;2075.45;520.524;1.06001
106;2102.61;496.597;1.06001
107;2112.38;504.654;1.07
108;2114.82;480.972;1.07
109;2085.22;530.29;1.07
110;2040.66;516.373;1.08
111;2011.06;477.065;1.08
112;2048.29;534.196;1.08
113;2075.45;514.42;1.09
114;2090.1;522.477;1.09
115;2092.54;500.748;1.09
116;2070.26;524.43;1.1
117;2038.22;514.42;1.1
118;2038.22;540.056;1.1
119;2085.22;492.691;1.1
120;2114.82;512.467;1.11
121;2129.77;550.066;1.11
122;2122.14;490.738;1.11
123;2085.22;516.373;1.12
124;2050.73;510.514;1.12
125;2053.17;532.243;1.12
126;2085.22;508.56;1.12
127;2097.42;520.524;1.13
128;2107.49;498.795;1.13
129;2087.66;548.112;1.13
130;2048.29;524.43;1.13
131;2015.94;490.738;1.14
132;2048.29;552.019;1.14
133;2077.89;524.43;1.14
134;2087.66;528.336;1.14
135;2085.22;512.467;1.15
136;2062.94;536.149;1.15
137;2026.01;524.43;1.15
138;2023.57;548.112;1.15
139;2067.82;498.795;1.16
140;2092.54;522.477;1.16
141;2105.05;553.972;1.16
142;2097.42;492.691;1.16
143;2058.05;522.477;1.17
144;2021.13;522.477;1.17
145;2021.13;536.149;1.17
146;2048.29;518.326;1.17
147;2055.61;524.43;1.17
148;2053.17;510.514;1.18
149;2040.66;553.972;1.18
150;1998.85;528.336;1.18
151;1956.73;498.795;1.18
152;1969.24;553.972;1.18
153;2008.61;534.196;1.19
154;2026.01;534.196;1.19
155;2033.33;520.524;1.19
156;2021.13;540.056;1.19
157;1991.22;530.29;1.19
158;1971.69;553.972;1.2
159;2008.61;506.607;1.2
160;2043.1;528.336;1.2
161;2062.94;561.785;1.2
162;2067.82;504.654;1.2
163;2038.22;530.29;1.21
164;2001.29;526.383;1.21
165;1983.89;544.206;1.21
166;2013.5;522.477;1.21
167;2028.45;532.243;1.21
168;2028.45;514.42;1.21
169;2015.94;563.738;1.22
170;1974.13;536.149;1.22
171;1936.9;508.56;1.22
172;1951.85;569.842;1.22
173;1991.22;538.102;1.22
174;2006.17;540.056;1.22
175;2013.5;526.383;1.23
176;2003.73;548.112;1.23
177;1974.13;540.056;1.23
178;1954.29;557.878;1.23
179;1996.41;510.514;1.23
180;2030.89;538.102;1.23
181;2050.73;569.842;1.24001
182;2053.17;526.383;1.24001
183;2028.45;528.336;1.24001
184;1991.22;532.243;1.24001
185;1974.13;552.019;1.24001
186;2003.73;534.196;1.24001
187;2015.94;538.102;1.25
188;2018.38;514.42;1.25
189;2003.73;552.019;1.25
190;1964.06;546.159;1.25
191;1922.25;510.514;1.25
192;1939.64;557.878;1.25
193;1976.57;552.019;1.26
194;1991.22;548.112;1.26
195;1996.41;528.336;1.26
196;1986.34;553.972;1.26
197;1954.29;544.206;1.26
198;1939.64;569.842;1.26
199;1976.57;528.336;1.27
200;2011.06;540.056;1.27
201;2028.45;575.701;1.27
202;2030.89;524.43;1.27
203;2003.73;540.056;1.27
204;1969.24;536.149;1.27
205;1951.85;555.925;1.28
206;1974.13;536.149;1.28
207;1991.22;544.206;1.28
208;1991.22;520.524;1.28
209;1979.01;567.888;1.28
210;1942.08;548.112;1.28
211;1904.85;516.373;1.28
212;1919.8;569.842;1.29
213;1956.73;552.019;1.29
214;1974.13;553.972;1.29
215;1981.45;536.149;1.29
216;1971.69;557.878;1.29
217;1939.64;550.066;1.29
218;1924.69;573.748;1.29
219;1964.06;526.383;1.3
220;1998.85;544.206;1.3
221;2015.94;579.608;1.3
222;2018.38;522.477;1.3
223;1993.96;546.159;1.3
224;1956.73;542.009;1.3
225;1942.08;561.785;1.3
226;1969.24;538.102;1.31001
227;1981.45;548.112;1.31001
228;1983.89;526.383;1.31001
229;1971.69;577.654;1.31001
230;1934.45;553.972;1.31001
231;1897.53;520.524;1.31001
232;1912.48;583.514;1.31001
233;1949.41;553.972;1.31001
234;1969.24;555.925;1.32
235;1974.13;542.009;1.32
236;1964.06;561.785;1.32
237;1934.45;552.019;1.32
238;1919.8;573.748;1.32
239;1961.62;526.383;1.32
240;1996.41;550.066;1.32
241;2013.5;581.561;1.33
242;2013.5;520.524;1.33
243;1988.78;542.009;1.33
244;1951.85;546.159;1.33
245;1942.08;563.738;1.33
246;1966.8;550.066;1.33
247;1979.01;550.066;1.33
248;1981.45;530.29;1.33
249;1969.24;565.935;1.34
250;1932.01;561.785;1.34
251;1897.53;526.383;1.34
252;1912.48;569.842;1.34
253;1949.41;565.935;1.34
254;1966.8;561.785;1.34
255;1971.69;546.159;1.34
256;1959.17;569.842;1.35
257;1932.01;555.925;1.35
258;1917.36;585.467;1.35
259;1959.17;548.112;1.35
260;1991.22;553.972;1.35
261;2006.17;589.618;1.35
262;2008.61;540.056;1.35
263;1986.34;552.019;1.35
264;1946.97;550.066;1.36
265;1936.9;567.888;1.36
266;1961.62;548.112;1.36
267;1971.69;555.925;1.36
268;1976.57;532.243;1.36
269;1959.17;573.748;1.36
270;1924.69;563.738;1.36
271;1887.76;528.336;1.36
272;1904.85;581.561;1.37
273;1942.08;565.935;1.37
274;1956.73;567.888;1.37
275;1961.62;550.066;1.37
276;1951.85;575.701;1.37
277;1919.8;563.738;1.37
278;1909.73;587.42;1.37
279;1949.41;546.159;1.37
280;1981.45;559.832;1.38
281;1996.41;595.477;1.38
282;2001.29;540.056;1.38
283;1976.57;559.832;1.38
284;1942.08;557.878;1.38
285;1929.57;575.701;1.38
286;1954.29;553.972;1.38
287;1961.62;561.785;1.38
288;1971.69;544.206;1.39
289;1954.29;591.571;1.39
290;1919.8;569.842;1.39
291;1882.57;536.149;1.39
292;1902.41;597.43;1.39
293;1936.9;571.795;1.39
294;1949.41;571.795;1.39
295;1959.17;559.832;1.39
296;1949.41;577.654;1.4
297;1917.36;567.888;1.4
298;1907.29;593.524;1.4
299;1949.41;544.206;1.4
300;1979.01;567.888;1.4
301;1993.96;599.384;1.4
302;2001.29;538.102;1.4
303;1974.13;567.888;1.4
304;1934.45;561.785;1.4
305;1924.69;579.608;1.41
306;1951.85;561.785;1.41
307;1961.62;569.842;1.41
308;1966.8;546.159;1.41
309;1949.41;593.524;1.41
310;1914.92;575.701;1.41
311;1880.13;540.056;1.41
312;1899.97;597.43;1.41
313;1934.45;577.654;1.41
314;1949.41;579.608;1.42
315;1954.29;561.785;1.42
316;1944.53;583.514;1.42
317;1914.92;571.795;1.42
318;1904.85;595.477;1.42
319;1944.53;553.972;1.42
320;1976.57;569.842;1.42
321;1991.22;605.243;1.42
322;1996.41;546.159;1.42
323;1969.24;569.842;1.43
324;1934.45;567.888;1.43
325;1924.69;585.467;1.43
326;1951.85;561.785;1.43
327;1959.17;573.748;1.43
328;1961.62;553.972;1.43
329;1946.97;601.337;1.43
330;1912.48;579.608;1.43
331;1877.69;548.112;1.44
332;1895.08;607.196;1.44
333;1932.01;575.701;1.44
334;1944.53;579.608;1.44
335;1949.41;563.738;1.44
336;1936.9;579.608;1.44
337;1909.73;577.654;1.44
338;1899.97;603.29;1.44
339;1944.53;573.748;1.44
340;1976.57;569.842;1.44
341;1991.22;605.243;1.45
342;1991.22;563.738;1.45
343;1964.06;567.888;1.45
344;1929.57;571.795;1.45
345;1919.8;585.467;1.45
346;1944.53;569.842;1.45
347;1956.73;573.748;1.45
348;1961.62;552.019;1.45
349;1946.97;589.618;1.45
350;1909.73;581.561;1.46
351;1875.25;546.159;1.46
352;1897.53;591.571;1.46
353;1929.57;587.42;1.46
354;1944.53;581.561;1.46
355;1951.85;567.888;1.46
356;1939.64;589.618;1.46
357;1909.73;579.608;1.46
358;1899.97;607.196;1.46
359;1942.08;567.888;1.46
360;1974.13;573.748;1.47
361;1988.78;609.149;1.47
362;1991.22;561.785;1.47
363;1964.06;569.842;1.47
364;1929.57;569.842;1.47
365;1919.8;589.618;1.47
366;1946.97;565.935;1.47
367;1956.73;575.701;1.47
368;1959.17;552.019;1.47
369;1944.53;599.384;1.47
370;1907.29;585.467;1.48
371;1872.81;546.159;1.48
372;1895.08;601.337;1.48
373;1929.57;583.514;1.48
374;1944.53;585.467;1.48
375;1946.97;565.935;1.48
376;1936.9;591.571;1.48
377;1907.29;579.608;1.48
378;1899.97;603.29;1.48
379;1942.08;557.878;1.48
380;1974.13;575.701;1.49001
381;1988.78;609.149;1.49001
382;1986.34;553.972;1.49001
383;1961.62;575.701;1.49001
384;1927.13;571.795;1.49001
385;1917.36;591.571;1.49001
386;1946.97;567.888;1.49001
387;1954.29;577.654;1.49001
388;1956.73;559.832;1.49001
389;1944.53;605.243;1.49001
390;1907.29;583.514;1.5
391;1870.36;548.112;1.5
392;1892.64;607.196;1.5
393;1927.13;583.514;1.5
394;1942.08;583.514;1.5
395;1946.97;567.888;1.5
396;1934.45;579.608;1.5
397;1904.85;579.608;1.5
398;1897.53;603.29;1.5
399;1939.64;575.701;1.5
400;1971.69;571.795;1.5
401;1986.34;607.196;1.51
402;1986.34;571.795;1.51
403;1959.17;569.842;1.51
404;1927.13;573.748;1.51
405;1917.36;589.618;1.51
406;1944.53;577.654;1.51
407;1956.73;577.654;1.51
408;1959.17;553.972;1.51
409;1944.53;591.571;1.51
410;1907.29;585.467;1.51
411;1872.81;550.066;1.51
412;1895.08;591.571;1.52
413;1929.57;593.524;1.52
414;1942.08;585.467;1.52
415;1949.41;569.842;1.52
416;1936.9;589.618;1.52
417;1907.29;581.561;1.52
418;1899.97;605.243;1.52
419;1942.08;571.795;1.52
420;1974.13;573.748;1.52
421;1988.78;611.347;1.52
422;1991.22;563.738;1.52
423;1961.62;571.795;1.53
424;1924.69;571.795;1.53
425;1922.25;591.571;1.53
426;1946.97;567.888;1.53
427;1956.73;577.654;1.53
428;1959.17;555.925;1.53
429;1942.08;595.477;1.53
430;1904.85;585.467;1.53
431;1872.81;550.066;1.53
432;1897.53;599.384;1.53
433;1929.57;589.618;1.53
434;1944.53;585.467;1.53
435;1946.97;569.842;1.54
436;1936.9;593.524;1.54
437;1907.29;581.561;1.54
438;1902.41;607.196;1.54
439;1944.53;565.935;1.54
440;1974.13;575.701;1.54
441;1988.78;613.3;1.54
442;1986.34;557.878;1.54
443;1961.62;575.701;1.54
444;1924.69;571.795;1.54
445;1919.8;589.618;1.54
446;1944.53;567.888;1.55
447;1956.73;577.654;1.55
448;1956.73;557.878;1.55
449;1942.08;605.243;1.55
450;1904.85;583.514;1.55
451;1872.81;550.066;1.55
452;1897.53;607.196;1.55
453;1929.57;581.561;1.55
454;1944.53;585.467;1.55
455;1949.41;569.842;1.55
456;1936.9;593.524;1.55
457;1907.29;583.514;1.55
458;1897.53;607.196;1.56001
459;1946.97;569.842;1.56001
460;1971.69;575.701;1.56001
461;1988.78;613.3;1.56001
462;1988.78;561.785;1.56001
463;1959.17;571.795;1.56001
464;1927.13;573.748;1.56001
465;1919.8;591.571;1.56001
466;1946.97;569.842;1.56001
467;1956.73;581.561;1.56001
468;1959.17;557.878;1.56001
469;1942.08;599.384;1.56001
470;1907.29;583.514;1.57
471;1875.25;550.066;1.57
472;1899.97;603.29;1.57
473;1932.01;585.467;1.57
474;1946.97;585.467;1.57
475;1949.41;569.842;1.57
476;1939.64;593.524;1.57
477;1907.29;581.561;1.57
478;1904.85;609.149;1.57
479;1946.97;561.785;1.57
480;1976.57;577.654;1.57
481;1991.22;615.253;1.57
482;1988.78;557.878;1.58
483;1961.62;577.654;1.58
484;1929.57;575.701;1.58
485;1924.69;591.571;1.58
486;1951.85;569.842;1.58
487;1959.17;581.561;1.58
488;1961.62;559.832;1.58
489;1949.41;585.467;1.58
490;1914.92;591.571;1.58
491;1880.13;555.925;1.58
492;1895.08;587.42;1.58
493;1929.57;599.384;1.58
494;1944.53;585.467;1.58
495;1951.85;571.795;1.59
496;1939.64;581.561;1.59
497;1914.92;585.467;1.59
498;1899.97;607.196;1.59
499;1942.08;581.561;1.59
500;1976.57;575.701;1.59
501;1988.78;609.149;1.59
502;1993.96;571.795;1.59
503;1969.24;567.888;1.59
504;1934.45;575.701;1.59
505;1919.8;593.524;1.59
506;1946.97;577.654;1.6
507;1956.73;579.608;1.6
508;1964.06;557.878;1.6
509;1951.85;593.524;1.6
510;1912.48;587.42;1.6
511;1877.69;553.972;1.6
512;1892.64;595.477;1.6
513;1929.57;593.524;1.6
514;1946.97;589.618;1.6
515;1954.29;571.795;1.6
516;1942.08;593.524;1.6
517;1914.92;585.467;1.6
518;1899.97;611.347;1.6
519;1939.64;573.748;1.61
520;1976.57;575.701;1.61
521;1993.96;615.253;1.61
522;1993.96;565.935;1.61
523;1969.24;575.701;1.61
524;1934.45;575.701;1.61
525;1919.8;593.524;1.61
526;1946.97;571.795;1.61
527;1961.62;581.561;1.61
528;1964.06;557.878;1.61
529;1949.41;597.43;1.61
530;1912.48;585.467;1.61
531;1880.13;550.066;1.61
532;1897.53;603.29;1.62
533;1932.01;589.618;1.62
534;1944.53;589.618;1.62
535;1954.29;571.795;1.62
536;1942.08;595.477;1.62
537;1914.92;585.467;1.62
538;1902.41;609.149;1.62
539;1942.08;567.888;1.62
540;1979.01;581.561;1.62
541;1993.96;617.206;1.62
542;1993.96;559.832;1.62
543;1971.69;577.654;1.62
544;1934.45;575.701;1.63
545;1927.13;595.477;1.63
546;1951.85;571.795;1.63
547;1961.62;581.561;1.63
548;1966.8;559.832;1.63
549;1951.85;609.149;1.63
550;1917.36;591.571;1.63
551;1880.13;559.832;1.63
552;1897.53;583.514;1.63
553;1934.45;601.337;1.63
554;1949.41;583.514;1.63
555;1954.29;571.795;1.63
556;1944.53;579.608;1.63
557;1914.92;585.467;1.64
558;1902.41;605.243;1.64
559;1944.53;579.608;1.64
560;1974.13;573.748;1.64
561;1991.22;609.149;1.64
562;1993.96;575.701;1.64
563;1969.24;569.842;1.64
564;1934.45;579.608;1.64
565;1924.69;589.618;1.64
566;1949.41;583.514;1.64
567;1959.17;579.608;1.64
568;1964.06;557.878;1.64
569;1946.97;589.618;1.64
570;1914.92;589.618;1.64
571;1880.13;552.019;1.65
572;1899.97;593.524;1.65
573;1932.01;593.524;1.65
574;1946.97;585.467;1.65
575;1954.29;571.795;1.65
576;1944.53;591.571;1.65
577;1914.92;585.467;1.65
578;1907.29;609.149;1.65
579;1946.97;575.701;1.65
580;1979.01;575.701;1.65
581;1991.22;617.206;1.65
582;1993.96;569.842;1.65
583;1969.24;573.748;1.65
584;1932.01;575.701;1.66
585;1922.25;593.524;1.66
586;1949.41;571.795;1.66
587;1959.17;579.608;1.66
588;1964.06;555.925;1.66
589;1949.41;597.43;1.66
590;1909.73;587.42;1.66
591;1880.13;548.112;1.66
592;1899.97;601.337;1.66
593;1934.45;591.571;1.66
594;1951.85;589.618;1.66
595;1956.73;569.842;1.66
596;1946.97;595.477;1.66
597;1917.36;585.467;1.67
598;1902.41;607.196;1.67
599;1946.97;571.795;1.67
600;1979.01;579.608;1.67
601;1991.22;615.253;1.67
602;1993.96;561.785;1.67
603;1974.13;577.654;1.67
604;1932.01;571.795;1.67
605;1924.69;591.571;1.67
606;1951.85;571.795;1.67
607;1961.62;581.561;1.67
608;1964.06;559.832;1.67
609;1949.41;603.29;1.67
610;1914.92;585.467;1.67
611;1880.13;552.019;1.68
612;1904.85;595.477;1.68
613;1934.45;593.524;1.68
614;1946.97;589.618;1.68
615;1954.29;571.795;1.68
616;1944.53;589.618;1.68
617;1912.48;583.514;1.68
618;1902.41;605.243;1.68
619;1946.97;571.795;1.68
620;1976.57;577.654;1.68
621;1988.78;615.253;1.68
622;1991.22;565.935;1.68
623;1966.8;573.748;1.68
624;1932.01;575.701;1.68
625;1922.25;593.524;1.68
626;1949.41;569.842;1.69
627;1959.17;579.608;1.69
628;1961.62;553.972;1.69
629;1949.41;597.43;1.69
630;1912.48;585.467;1.69
631;1877.69;550.066;1.69
632;1902.41;603.29;1.69
633;1934.45;589.618;1.69
634;1949.41;589.618;1.69
635;1954.29;569.842;1.69
636;1942.08;595.477;1.69
637;1914.92;579.608;1.69
638;1902.41;607.196;1.69
639;1946.97;565.935;1.69
640;1976.57;577.654;1.7
641;1988.78;613.3;1.7
642;1991.22;557.878;1.7
643;1966.8;557.878;1.7
644;1932.01;579.608;1.7
645;1922.25;589.618;1.7
646;1951.85;591.571;1.7
647;1959.17;577.654;1.7
648;1961.62;557.878;1.7
649;1946.97;585.467;1.7
650;1909.73;593.524;1.7
651;1877.69;555.925;1.7
652;1897.53;581.561;1.7
653;1924.69;601.337;1.7
654;1942.08;583.514;1.7
655;1949.41;571.795;1.71
656;1946.97;579.608;1.71
657;1922.25;583.514;1.71
658;1899.97;603.29;1.71
659;1924.69;579.608;1.71
660;1966.8;571.795;1.71
661;1981.45;609.149;1.71
662;1991.22;577.654;1.71
663;1976.57;569.842;1.71
664;1939.64;577.654;1.71
665;1917.36;589.618;1.71
666;1939.64;581.561;1.71
667;1956.73;577.654;1.71
668;1959.17;555.925;1.71
669;1951.85;589.618;1.71
670;1922.25;589.618;1.72
671;1885.32;552.019;1.72
672;1882.57;589.618;1.72
673;1919.8;595.477;1.72
674;1939.64;583.514;1.72
675;1949.41;569.842;1.72
676;1944.53;587.42;1.72
677;1919.8;583.514;1.72
678;1897.53;605.243;1.72
679;1924.69;571.795;1.72
680;1966.8;577.654;1.72
681;1983.89;613.3;1.72
682;1991.22;567.888;1.72
683;1976.57;573.748;1.72
684;1939.64;573.748;1.72
685;1919.8;591.571;1.72
686;1939.64;571.795;1.73
687;1956.73;577.654;1.73
688;1959.17;552.019;1.73
689;1951.85;593.524;1.73
690;1922.25;585.467;1.73
691;1882.57;550.066;1.73
692;1882.57;599.384;1.73
693;1922.25;589.618;1.73
694;1939.64;583.514;1.73
695;1949.41;569.842;1.73
696;1944.53;591.571;1.73
697;1917.36;581.561;1.73
698;1897.53;605.243;1.73
699;1927.13;565.935;1.73
700;1966.8;577.654;1.73
701;1981.45;613.3;1.73
702;1991.22;561.785;1.74001
703;1974.13;575.701;1.74001
704;1939.64;573.748;1.74001
705;1917.36;589.618;1.74001
706;1939.64;587.42;1.74001
707;1951.85;575.701;1.74001
708;1959.17;557.878;1.74001
709;1949.41;581.561;1.74001
710;1919.8;591.571;1.74001
711;1882.57;555.925;1.74001
712;1882.57;579.608;1.74001
713;1919.8;603.29;1.74001
714;1939.64;581.561;1.74001
715;1946.97;569.842;1.74001
716;1942.08;573.748;1.74001
717;1917.36;581.561;1.75
718;1897.53;603.29;1.75
719;1922.25;579.608;1.75
720;1966.8;571.795;1.75
721;1981.45;605.243;1.75
722;1991.22;577.654;1.75
723;1974.13;563.738;1.75
724;1936.9;575.701;1.75
725;1917.36;587.42;1.75
726;1936.9;583.514;1.75
727;1951.85;575.701;1.75
728;1956.73;555.925;1.75
729;1949.41;587.42;1.75
730;1917.36;587.42;1.75
731;1877.69;553.972;1.75
732;1882.57;589.618;1.76
733;1919.8;595.477;1.76
734;1936.9;583.514;1.76
735;1944.53;569.842;1.76
736;1939.64;587.42;1.76
737;1914.92;583.514;1.76
738;1892.64;607.196;1.76
739;1922.25;573.748;1.76
740;1964.06;573.748;1.76
741;1981.45;611.347;1.76
742;1988.78;569.842;1.76
743;1974.13;569.842;1.76
744;1939.64;573.748;1.76
745;1917.36;589.618;1.76
746;1936.9;573.748;1.76
747;1954.29;577.654;1.76
748;1956.73;555.925;1.77
749;1951.85;593.524;1.77
750;1919.8;585.467;1.77
751;1880.13;548.112;1.77
752;1882.57;595.477;1.77
753;1922.25;591.571;1.77
754;1939.64;585.467;1.77
755;1946.97;567.888;1.77
756;1942.08;591.571;1.77
757;1917.36;581.561;1.77
758;1897.53;605.243;1.77
759;1927.13;571.795;1.77
760;1964.06;573.748;1.77
761;1981.45;613.3;1.77
762;1988.78;561.785;1.77
763;1971.69;571.795;1.78
764;1936.9;571.795;1.78
765;1914.92;589.618;1.78
766;1939.64;579.608;1.78
767;1954.29;573.748;1.78
768;1959.17;555.925;1.78
769;1951.85;587.42;1.78
770;1917.36;585.467;1.78
771;1882.57;550.066;1.78
772;1885.32;589.618;1.78
773;1922.25;593.524;1.78
774;1939.64;583.514;1.78
775;1946.97;571.795;1.78
776;1942.08;587.42;1.78
777;1917.36;583.514;1.78
778;1897.53;607.196;1.78
779;1927.13;571.795;1.79
780;1966.8;573.748;1.79
781;1981.45;611.347;1.79
782;1991.22;563.738;1.79
783;1974.13;569.842;1.79
784;1936.9;573.748;1.79
785;1914.92;591.571;1.79
786;1939.64;571.795;1.79
787;1954.29;577.654;1.79
788;1959.17;552.019;1.79
789;1949.41;593.524;1.79
790;1919.8;585.467;1.79
791;1882.57;548.112;1.79
792;1885.32;599.384;1.79
793;1924.69;589.618;1.79
794;1942.08;585.467;1.79
795;1946.97;569.842;1.8
796;1942.08;591.571;1.8
797;1917.36;583.514;1.8
798;1897.53;597.43;1.8
799;1927.13;585.467;1.8
800;1966.8;565.935;1.8
801;1981.45;599.384;1.8
802;1991.22;583.514;1.8
803;1971.69;557.878;1.8
804;1936.9;575.701;1.8
805;1914.92;585.467;1.8
806;1936.9;585.467;1.8
807;1954.29;575.701;1.8
808;1959.17;559.832;1.8
809;1949.41;581.561;1.8
810;1914.92;589.618;1.8
811;1880.13;555.925;1.81001
812;1885.32;579.608;1.81001
813;1922.25;601.337;1.81001
814;1939.64;579.608;1.81001
815;1951.85;569.842;1.81001
816;1944.53;575.701;1.81001
817;1917.36;579.608;1.81001
818;1899.97;601.337;1.81001
819;1929.57;579.608;1.81001
820;1969.24;571.795;1.81001
821;1983.89;605.243;1.81001
822;1991.22;577.654;1.81001
823;1974.13;563.738;1.81001
824;1939.64;575.701;1.81001
825;1919.8;589.618;1.81001
826;1944.53;581.561;1.82
827;1956.73;573.748;1.82
828;1961.62;555.925;1.82
829;1951.85;589.618;1.82
830;1919.8;585.467;1.82
831;1882.57;552.019;1.82
832;1887.76;585.467;1.82
833;1927.13;593.524;1.82
834;1942.08;585.467;1.82
835;1951.85;567.888;1.82
836;1946.97;585.467;1.82
837;1919.8;581.561;1.82
838;1899.97;603.29;1.82
839;1932.01;573.748;1.82
840;1969.24;571.795;1.82
841;1983.89;609.149;1.82
842;1991.22;565.935;1.83
843;1974.13;567.888;1.83
844;1936.9;571.795;1.83
845;1919.8;589.618;1.83
846;1944.53;571.795;1.83
847;1959.17;575.701;1.83
848;1961.62;553.972;1.83
849;1954.29;591.571;1.83
850;1919.8;585.467;1.83
851;1880.13;548.112;1.83
852;1892.64;595.477;1.83
853;1929.57;587.42;1.83
854;1942.08;583.514;1.83
855;1951.85;567.888;1.83
856;1944.53;589.618;1.83
857;1914.92;579.608;1.83
858;1899.97;595.477;1.84
859;1934.45;583.514;1.84
860;1971.69;563.738;1.84
861;1986.34;593.524;1.84
862;1991.22;585.467;1.84
863;1974.13;555.925;1.84
864;1939.64;575.701;1.84
865;1919.8;585.467;1.84
866;1946.97;587.42;1.84
867;1959.17;571.795;1.84
868;1964.06;557.878;1.84
869;1954.29;579.608;1.84
870;1917.36;589.618;1.84
871;1880.13;557.878;1.84
872;1892.64;575.701;1.84
873;1927.13;605.243;1.84
874;1946.97;579.608;1.85
875;1951.85;567.888;1.85
876;1949.41;569.842;1.85
877;1922.25;581.561;1.85
878;1899.97;597.43;1.85
879;1936.9;579.608;1.85
880;1974.13;567.888;1.85
881;1986.34;601.337;1.85
882;1993.96;577.654;1.85
883;1974.13;561.785;1.85
884;1939.64;575.701;1.85
885;1922.25;585.467;1.85
886;1946.97;585.467;1.85
887;1959.17;575.701;1.85
888;1964.06;553.972;1.85
889;1951.85;583.514;1.85
890;1919.8;589.618;1.86
891;1882.57;552.019;1.86
892;1892.64;583.514;1.86
893;1932.01;595.477;1.86
894;1944.53;581.561;1.86
895;1951.85;567.888;1.86
896;1946.97;581.561;1.86
897;1917.36;581.561;1.86
898;1902.41;603.29;1.86
899;1936.9;575.701;1.86
900;1974.13;571.795;1.86
901;1986.34;609.149;1.86
902;1993.96;569.842;1.86
903;1974.13;567.888;1.86
904;1936.9;571.795;1.86
905;1922.25;585.467;1.86
906;1946.97;573.748;1.87
907;1959.17;573.748;1.87
908;1966.8;552.019;1.87
909;1954.29;589.618;1.87
910;1917.36;585.467;1.87
911;1880.13;546.159;1.87
912;1895.08;593.524;1.87
913;1929.57;589.618;1.87
914;1944.53;581.561;1.87
915;1954.29;567.888;1.87
916;1944.53;589.618;1.87
917;1919.8;579.608;1.87
918;1899.97;605.243;1.87
919;1936.9;569.842;1.87
920;1974.13;569.842;1.87
921;1986.34;603.29;1.87
922;1996.41;575.701;1.87
923;1974.13;563.738;1.88
924;1936.9;573.748;1.88
925;1922.25;587.42;1.88
926;1946.97;581.561;1.88
927;1959.17;573.748;1.88
928;1964.06;553.972;1.88
929;1951.85;587.42;1.88
930;1919.8;587.42;1.88
931;1880.13;550.066;1.88
932;1895.08;585.467;1.88
933;1932.01;593.524;1.88
934;1946.97;579.608;1.88
935;1954.29;565.935;1.88
936;1946.97;585.467;1.88
937;1919.8;579.608;1.88
938;1902.41;605.243;1.88
939;1936.9;571.795;1.89
940;1974.13;571.795;1.89
941;1991.22;607.196;1.89
942;1993.96;567.888;1.89
943;1971.69;567.888;1.89
944;1936.9;573.748;1.89
945;1919.8;587.42;1.89
946;1949.41;571.795;1.89
947;1961.62;573.748;1.89
948;1966.8;553.972;1.89
949;1954.29;591.571;1.89
950;1922.25;583.514;1.89
951;1882.57;563.738;1.89
952;1897.53;565.935;1.89
953;1934.45;609.149;1.89
954;1949.41;577.654;1.89
955;1956.73;571.795;1.9
956;1949.41;571.795;1.9
957;1919.8;581.561;1.9
958;1904.85;593.524;1.9
959;1942.08;581.561;1.9
960;1976.57;563.738;1.9
961;1991.22;593.524;1.9
962;1996.41;585.467;1.9
963;1976.57;550.066;1.9
964;1939.64;577.654;1.9
965;1927.13;585.467;1.9
966;1949.41;585.467;1.9
967;1964.06;573.748;1.9
968;1969.24;559.832;1.9
969;1956.73;577.654;1.9
970;1922.25;587.42;1.9
971;1885.32;557.878;1.91
972;1899.97;575.701;1.91
973;1934.45;601.337;1.91
974;1949.41;579.608;1.91
975;1956.73;567.888;1.91
976;1946.97;571.795;1.91
977;1922.25;579.608;1.91
978;1902.41;601.337;1.91
979;1942.08;581.561;1.91
980;1979.01;567.888;1.91
981;1993.96;599.384;1.91
982;1996.41;577.654;1.91
983;1976.57;559.832;1.91
984;1956.73;575.701;1.91
985;1927.13;585.467;1.91
986;1942.08;583.514;1.91
987;1961.62;573.748;1.92
988;1966.8;553.972;1.92
989;1964.06;583.514;1.92
990;1936.9;587.42;1.92
991;1897.53;552.019;1.92
992;1887.76;583.514;1.92
993;1924.69;593.524;1.92
994;1946.97;579.608;1.92
995;1956.73;565.935;1.92
996;1959.17;583.514;1.92
997;1936.9;579.608;1.92
998;1909.73;603.29;1.92
999;1927.13;573.748;1.92
1000;1971.69;573.748;1.92
1001;1988.78;607.196;1.92
1002;2001.29;569.842;1.92
1003;1988.78;565.935;1.92
1004;1956.73;571.795;1.93
1005;1929.57;587.42;1.93
1006;1942.08;571.795;1.93
1007;1961.62;575.701;1.93
1008;1969.24;553.972;1.93
1009;1966.8;589.618;1.93
1010;1939.64;583.514;1.93
1011;1897.53;548.112;1.93
1012;1887.76;589.618;1.93
1013;1927.13;611.347;1.93
1014;1946.97;579.608;1.93
1015;1959.17;571.795;1.93
1016;1959.17;571.795;1.93
1017;1936.9;581.561;1.93
1018;1907.29;591.571;1.93
1019;1927.13;585.467;1.93
1020;1971.69;559.832;1.94
1021;1993.96;593.524;1.94
1022;2003.73;585.467;1.94
1023;1991.22;550.066;1.94
1024;1956.73;577.654;1.94
1025;1929.57;583.514;1.94
1026;1946.97;589.618;1.94
1027;1966.8;573.748;1.94
1028;1971.69;559.832;1.94
1029;1969.24;575.701;1.94
1030;1942.08;591.571;1.94
1031;1902.41;559.832;1.94
1032;1887.76;571.795;1.94
1033;1927.13;601.337;1.94
1034;1949.41;577.654;1.94
1035;1959.17;565.935;1.94
1036;1959.17;571.795;1.94
1037;1934.45;577.654;1.95
1038;1907.29;595.477;1.95
1039;1929.57;581.561;1.95
1040;1976.57;565.935;1.95
1041;1993.96;599.384;1.95
1042;2003.73;579.608;1.95
1043;1991.22;557.878;1.95
1044;1956.73;577.654;1.95
1045;1929.57;585.467;1.95
1046;1944.53;587.42;1.95
1047;1966.8;573.748;1.95
1048;1969.24;553.972;1.95
1049;1964.06;579.608;1.95
1050;1936.9;587.42;1.95
1051;1897.53;553.972;1.95
1052;1890.2;579.608;1.95
1053;1927.13;597.43;1.95
1054;1949.41;579.608;1.96
1055;1959.17;565.935;1.96
1056;1956.73;577.654;1.96
1057;1936.9;579.608;1.96
1058;1909.73;601.337;1.96
1059;1929.57;575.701;1.96
1060;1974.13;569.842;1.96
1061;1993.96;605.243;1.96
1062;2003.73;569.842;1.96
1063;1991.22;563.738;1.96
1064;1956.73;571.795;1.96
1065;1929.57;587.42;1.96
1066;1946.97;577.654;1.96
1067;1969.24;573.748;1.96
1068;1969.24;552.019;1.96
1069;1966.8;587.42;1.96
1070;1936.9;585.467;1.96
1071;1899.97;548.112;1.96
1072;1892.64;589.618;1.97
1073;1929.57;589.618;1.97
1074;1951.85;583.514;1.97
1075;1959.17;565.935;1.97
1076;1959.17;569.842;1.97
1077;1934.45;579.608;1.97
1078;1907.29;599.384;1.97
1079;1932.01;579.608;1.97
1080;1974.13;565.935;1.97
1081;1993.96;601.337;1.97
1082;2003.73;575.701;1.97
1083;1988.78;563.738;1.97
1084;1956.73;573.748;1.97
1085;1927.13;585.467;1.97
1086;1949.41;581.561;1.97
1087;1969.24;573.748;1.97
1088;1974.13;553.972;1.97
1089;1971.69;583.514;1.97
1090;1939.64;585.467;1.98
1091;1899.97;550.066;1.98
1092;1895.08;583.514;1.98
1093;1934.45;593.524;1.98
1094;1951.85;581.561;1.98
1095;1964.06;569.842;1.98
1096;1961.62;581.561;1.98
1097;1939.64;579.608;1.98
1098;1912.48;601.337;1.98
1099;1934.45;573.748;1.98
1100;1979.01;569.842;1.98
1101;1996.41;605.243;1.98
1102;2006.17;569.842;1.98
1103;1991.22;563.738;1.98
1104;1959.17;571.795;1.98
1105;1934.45;579.608;1.98
1106;1951.85;585.467;1.98
1107;1969.24;569.842;1.98
1108;1976.57;563.738;1.99001
1109;1969.24;569.842;1.99001
1110;1939.64;597.43;1.99001
1111;1902.41;567.888;1.99001
1112;1895.08;561.785;1.99001
1113;1936.9;609.149;1.99001
1114;1954.29;577.654;1.99001
1115;1964.06;571.795;1.99001
1116;1964.06;569.842;1.99001
1117;1939.64;581.561;1.99001
1118;1914.92;589.618;1.99001
1119;1939.64;585.467;1.99001
1120;1981.45;559.832;1.99001
1121;1998.85;591.571;1.99001
1122;2006.17;587.42;1.99001
1123;1993.96;550.066;1.99001
1124;1959.17;575.701;1.99001
1125;1934.45;583.514;2
1126;1954.29;585.467;2
1127;1974.13;571.795;2
1128;1976.57;557.878;2
1129;1974.13;575.701;2
1130;1944.53;591.571;2
1131;1904.85;559.832;2
1132;1899.97;573.748;2
1133;1939.64;603.29;2
1134;1956.73;575.701;2
1135;1969.24;567.888;2
1136;1966.8;569.842;2
1137;1942.08;581.561;2
1138;1917.36;597.43;2
1139;1939.64;581.561;2
1140;1983.89;565.935;2
1141;2003.73;597.43;2
1142;2013.5;579.608;2.01
1143;1996.41;557.878;2.01
1144;1964.06;575.701;2.01
1145;1936.9;585.467;2.01
1146;1956.73;583.514;2.01
1147;1974.13;571.795;2.01
1148;1979.01;553.972;2.01
1149;1976.57;579.608;2.01
1150;1946.97;587.42;2.01
1151;1907.29;552.019;2.01
1152;1902.41;579.608;2.01
1153;1944.53;595.477;2.01
1154;1959.17;577.654;2.01
1155;1969.24;565.935;2.01
1156;1969.24;575.701;2.01
1157;1944.53;577.654;2.01
1158;1919.8;601.337;2.01
1159;1944.53;575.701;2.02
1160;1988.78;567.888;2.02
1161;2006.17;603.29;2.02
1162;2011.06;569.842;2.02
1163;1998.85;563.738;2.02
1164;1964.06;571.795;2.02
1165;1939.64;585.467;2.02
1166;1964.06;577.654;2.02
1167;1979.01;571.795;2.02
1168;1983.89;565.935;2.02
1169;1979.01;563.738;2.02
1170;1946.97;599.384;2.02
1171;1907.29;567.888;2.02
1172;1907.29;563.738;2.02
1173;1946.97;611.347;2.02
1174;1966.8;575.701;2.02
1175;1974.13;573.748;2.03
1176;1969.24;571.795;2.03
1177;1946.97;581.561;2.03
1178;1922.25;587.42;2.03
1179;1946.97;587.42;2.03
1180;1991.22;557.878;2.03
1181;2008.61;587.42;2.03
1182;2018.38;589.618;2.03
1183;2001.29;550.066;2.03
1184;1966.8;575.701;2.03
1185;1944.53;581.561;2.03
1186;1964.06;583.514;2.03
1187;1981.45;573.748;2.03
1188;1986.34;561.785;2.03
1189;1981.45;573.748;2.03
1190;1951.85;593.524;2.03
1191;1909.73;561.785;2.03
1192;1907.29;569.842;2.04
1193;1949.41;607.196;2.04
1194;1971.69;577.654;2.04
1195;1979.01;567.888;2.04
1196;1976.57;571.795;2.04
1197;1951.85;579.608;2.04
1198;1924.69;597.43;2.04
1199;1951.85;581.561;2.04
1200;1993.96;563.738;2.04
1201;2013.5;595.477;2.04
1202;2021.13;581.561;2.04
1203;2003.73;557.878;2.04
1204;1966.8;575.701;2.04
1205;1944.53;583.514;2.04
1206;1964.06;585.467;2.04
1207;1981.45;573.748;2.04
1208;1988.78;557.878;2.05
1209;1981.45;577.654;2.05
1210;1951.85;589.618;2.05
1211;1909.73;555.925;2.05
1212;1912.48;577.654;2.05
1213;1951.85;599.384;2.05
1214;1971.69;575.701;2.05
1215;1981.45;567.888;2.05
1216;1976.57;573.748;2.05
1217;1954.29;577.654;2.05
1218;1927.13;601.337;2.05
1219;1954.29;575.701;2.05
1220;1998.85;567.888;2.05
1221;2013.5;603.29;2.05
1222;2021.13;573.748;2.05
1223;2006.17;563.738;2.05
1224;1971.69;571.795;2.05
1225;1944.53;585.467;2.06001
1226;1966.8;577.654;2.06001
1227;1986.34;573.748;2.06001
1228;1991.22;552.019;2.06001
1229;1986.34;575.701;2.06001
1230;1951.85;589.618;2.06001
1231;1917.36;557.878;2.06001
1232;1917.36;571.795;2.06001
1233;1954.29;605.243;2.06001
1234;1974.13;577.654;2.06001
1235;1986.34;569.842;2.06001
1236;1981.45;571.795;2.06001
1237;1956.73;579.608;2.06001
1238;1932.01;599.384;2.06001
1239;1956.73;581.561;2.06001
1240;1998.85;565.935;2.06001
1241;2018.38;599.384;2.07
1242;2026.01;579.608;2.07
1243;2008.61;559.832;2.07
1244;1974.13;575.701;2.07
1245;1949.41;585.467;2.07
1246;1974.13;583.514;2.07
1247;1991.22;571.795;2.07
1248;1996.41;553.972;2.07
1249;1988.78;581.561;2.07
1250;1954.29;585.467;2.07
1251;1917.36;552.019;2.07
1252;1914.92;579.608;2.07
1253;1961.62;595.477;2.07
1254;1979.01;577.654;2.07
1255;1986.34;565.935;2.07
1256;1979.01;577.654;2.08
1257;1954.29;579.608;2.08
1258;1932.01;601.337;2.08
1259;1961.62;575.701;2.08
1260;2006.17;555.925;2.08
1261;2021.13;583.514;2.08
1262;2030.89;595.477;2.08
1263;2011.06;542.009;2.08
1264;1976.57;575.701;2.08
1265;1954.29;577.654;2.08
1266;1976.57;585.467;2.08
1267;1993.96;571.795;2.08
1268;1998.85;563.738;2.08
1269;1991.22;565.935;2.08
1270;1959.17;597.43;2.08
1271;1919.8;567.888;2.08
1272;1922.25;561.785;2.09
1273;1964.06;611.347;2.09
1274;1983.89;575.701;2.09
1275;1988.78;571.795;2.09
1276;1986.34;569.842;2.09
1277;1959.17;583.514;2.09
1278;1936.9;591.571;2.09
1279;1969.24;587.42;2.09
1280;2008.61;557.878;2.09
1281;2026.01;591.571;2.09
1282;2030.89;587.42;2.09
1283;2018.38;550.066;2.09
1284;1981.45;577.654;2.09
1285;1956.73;581.561;2.09
1286;1981.45;585.467;2.09
1287;1998.85;573.748;2.09
1288;2001.29;559.832;2.1
1289;1996.41;571.795;2.1
1290;1961.62;593.524;2.1
1291;1924.69;559.832;2.1
1292;1927.13;569.842;2.1
1293;1966.8;605.243;2.1
1294;1986.34;575.701;2.1
1295;1996.41;565.935;2.1
1296;1988.78;567.888;2.1
1297;1964.06;581.561;2.1
1298;1939.64;593.524;2.1
1299;1971.69;579.608;2.1
1300;2013.5;563.738;2.1
1301;2028.45;595.477;2.1
1302;2038.22;579.608;2.1
1303;2018.38;555.925;2.11
1304;1983.89;573.748;2.11
1305;1961.62;585.467;2.11
1306;1986.34;585.467;2.11
1307;2001.29;571.795;2.11
1308;2006.17;553.972;2.11
1309;1998.85;577.654;2.11
1310;1966.8;587.42;2.11
1311;1924.69;553.972;2.11
1312;1929.57;575.701;2.11
1313;1969.24;597.43;2.11
1314;1988.78;577.654;2.11
1315;1996.41;565.935;2.11
1316;1991.22;573.748;2.11
1317;1964.06;579.608;2.11
1318;1942.08;599.384;2.11
1319;1966.8;575.701;2.12
1320;2008.61;565.935;2.12
1321;2028.45;579.608;2.12
1322;2040.66;597.43;2.12
1323;2030.89;540.056;2.12
1324;1991.22;573.748;2.12
1325;1966.8;575.701;2.12
1326;1983.89;581.561;2.12
1327;2003.73;569.842;2.12
1328;2008.61;565.935;2.12
1329;2003.73;563.738;2.12
1330;1976.57;597.43;2.12
1331;1934.45;571.795;2.12
1332;1924.69;557.878;2.12
1333;1969.24;613.3;2.12
1334;1988.78;575.701;2.12
1335;2001.29;573.748;2.13
1336;1998.85;569.842;2.13
1337;1974.13;583.514;2.13
1338;1946.97;585.467;2.13
1339;1971.69;587.42;2.13
1340;2018.38;557.878;2.13
1341;2033.33;587.42;2.13
1342;2045.54;587.42;2.13
1343;2030.89;548.112;2.13
1344;1998.85;573.748;2.13
1345;1969.24;581.561;2.13
1346;1991.22;585.467;2.13
1347;2011.06;571.795;2.13
1348;2015.94;561.785;2.13
1349;2013.5;569.842;2.13
1350;1981.45;593.524;2.13
1351;1939.64;561.785;2.14
1352;1929.57;565.935;2.14
1353;1974.13;607.196;2.14
1354;1998.85;577.654;2.14
1355;2006.17;567.888;2.14
1356;2003.73;569.842;2.14
1357;1981.45;581.561;2.14
1358;1954.29;591.571;2.14
1359;1976.57;581.561;2.14
1360;2023.57;561.785;2.14
1361;2043.1;593.524;2.14
1362;2050.73;583.514;2.14
1363;2038.22;552.019;2.14
1364;2006.17;573.748;2.14
1365;1976.57;581.561;2.14
1366;1996.41;583.514;2.15
1367;2015.94;573.748;2.15
1368;2023.57;555.925;2.15
1369;2015.94;577.654;2.15
1370;1986.34;591.571;2.15
1371;1946.97;555.925;2.15
1372;1942.08;573.748;2.15
1373;1981.45;601.337;2.15
1374;2006.17;575.701;2.15
1375;2011.06;565.935;2.15
1376;2008.61;569.842;2.15
1377;1983.89;579.608;2.15
1378;1956.73;599.384;2.15
1379;1981.45;577.654;2.15
1380;2026.01;563.738;2.15
1381;2045.54;599.384;2.15
1382;2055.61;587.42;2.16
1383;2043.1;548.112;2.16
1384;2008.61;575.701;2.16
1385;1981.45;581.561;2.16
1386;2001.29;583.514;2.16
1387;2021.13;571.795;2.16
1388;2026.01;557.878;2.16
1389;2023.57;573.748;2.16
1390;1991.22;591.571;2.16
1391;1951.85;557.878;2.16
1392;1946.97;569.842;2.16
1393;1988.78;603.29;2.16
1394;2011.06;579.608;2.16
1395;2018.38;567.888;2.16
1396;2018.38;569.842;2.16
1397;1991.22;577.654;2.17
1398;1966.8;595.477;2.17
1399;1991.22;577.654;2.17
1400;2035.78;563.738;2.17
1401;2055.61;597.43;2.17
1402;2062.94;577.654;2.17
1403;2048.29;553.972;2.17
1404;2013.5;575.701;2.17
1405;1986.34;583.514;2.17
1406;2008.61;583.514;2.17
1407;2028.45;571.795;2.17
1408;2033.33;553.972;2.17
1409;2026.01;579.608;2.17
1410;1996.41;587.42;2.17
1411;1954.29;552.019;2.17
1412;1951.85;577.654;2.17
1413;1993.96;615.253;2.18
1414;2015.94;575.701;2.18
1415;2023.57;573.748;2.18
1416;2023.57;567.888;2.18
1417;1993.96;585.467;2.18
1418;1969.24;581.561;2.18
1419;1993.96;593.524;2.18
1420;2040.66;552.019;2.18
1421;2060.5;579.608;2.18
1422;2067.82;595.477;2.18
1423;2053.17;538.102;2.18
1424;2018.38;573.748;2.18
1425;1991.22;573.748;2.18
1426;2013.5;583.514;2.18
1427;2033.33;569.842;2.18
1428;2035.78;565.935;2.19
1429;2033.33;563.738;2.19
1430;2001.29;599.384;2.19
1431;1961.62;569.842;2.19
1432;1956.73;557.878;2.19
1433;1998.85;611.347;2.19
1434;2021.13;573.748;2.19
1435;2028.45;567.888;2.19
1436;2026.01;567.888;2.19
1437;2001.29;581.561;2.19
1438;1974.13;587.42;2.19
1439;2003.73;585.467;2.19
1440;2045.54;553.972;2.19
1441;2067.82;585.467;2.19
1442;2072.7;589.618;2.19
1443;2060.5;544.206;2.19
1444;2021.13;573.748;2.2
1445;1998.85;579.608;2.2
1446;2021.13;581.561;2.2
1447;2040.66;569.842;2.2
1448;2045.54;559.832;2.2
1449;2040.66;569.842;2.2
1450;2006.17;593.524;2.2
1451;1964.06;559.832;2.2
1452;1964.06;565.935;2.2
1453;2008.61;605.243;2.2
1454;2026.01;575.701;2.2
1455;2035.78;565.935;2.2
1456;2030.89;569.842;2.2
1457;2006.17;581.561;2.2
1458;1979.01;593.524;2.2
1459;2008.61;581.561;2.2
1460;2053.17;561.785;2.21
1461;2072.7;593.524;2.21
1462;2080.33;579.608;2.21
1463;2065.38;552.019;2.21
1464;2028.45;573.748;2.21
1465;2003.73;583.514;2.21
1466;2026.01;581.561;2.21
1467;2045.54;571.795;2.21
1468;2050.73;555.925;2.21
1469;2043.1;575.701;2.21
1470;2013.5;587.42;2.21
1471;1969.24;552.019;2.21
1472;1971.69;573.748;2.21
1473;2015.94;599.384;2.21
1474;2033.33;575.701;2.21
1475;2043.1;577.654;2.22
1476;2040.66;565.935;2.22
1477;2013.5;583.514;2.22
1478;1988.78;577.654;2.22
1479;2018.38;591.571;2.22
1480;2062.94;548.112;2.22
1481;2077.89;577.654;2.22
1482;2087.66;599.384;2.22
1483;2070.26;538.102;2.22
1484;2033.33;573.748;2.22
1485;2008.61;575.701;2.22
1486;2035.78;583.514;2.22
1487;2053.17;567.888;2.22
1488;2055.61;565.935;2.22
1489;2055.61;561.785;2.22
1490;2033.33;597.43;2.22
1491;1993.96;569.842;2.23
1492;1969.24;552.019;2.23
1493;2006.17;613.3;2.23
1494;2035.78;575.701;2.23
1495;2045.54;571.795;2.23
1496;2048.29;565.935;2.23
1497;2030.89;579.608;2.23
1498;1998.85;585.467;2.23
1499;2003.73;589.618;2.23
1500;2055.61;553.972;2.23
1501;2080.33;585.467;2.23
1502;2092.54;591.571;2.23
1503;2085.22;540.056;2.23
1504;2055.61;575.701;2.23
1505;2021.13;579.608;2.23
1506;2028.45;583.514;2.24001
1507;2055.61;567.888;2.24001
1508;2062.94;561.785;2.24001
1509;2062.94;567.888;2.24001
1510;2040.66;593.524;2.24001
1511;1998.85;561.785;2.24001
1512;1971.69;561.785;2.24001
1513;2011.06;605.243;2.24001
1514;2040.66;573.748;2.24001
1515;2053.17;567.888;2.24001
1516;2055.61;567.888;2.24001
1517;2038.22;577.654;2.24001
1518;2006.17;589.618;2.24001
1519;2011.06;581.561;2.24001
1520;2062.94;559.832;2.25
1521;2087.66;591.571;2.25
1522;2099.86;583.514;2.25
1523;2094.98;550.066;2.25
1524;2062.94;573.748;2.25
1525;2026.01;581.561;2.25
1526;2033.33;581.561;2.25
1527;2062.94;567.888;2.25
1528;2070.26;555.925;2.25
1529;2070.26;573.748;2.25
1530;2048.29;587.42;2.25
1531;2003.73;553.972;2.25
1532;1983.89;573.748;2.25
1533;2021.13;601.337;2.25
1534;2050.73;575.701;2.26
1535;2060.5;565.935;2.26
1536;2060.5;567.888;2.26
1537;2043.1;581.561;2.26
1538;2011.06;585.467;2.26
1539;2015.94;587.42;2.26
1540;2067.82;553.972;2.26
1541;2094.98;585.467;2.26
1542;2105.05;587.42;2.26
1543;2099.86;546.159;2.26
1544;2067.82;573.748;2.26
1545;2033.33;579.608;2.26
1546;2038.22;581.561;2.26
1547;2070.26;569.842;2.26
1548;2077.89;557.878;2.27
1549;2077.89;569.842;2.27
1550;2055.61;589.618;2.27
1551;2011.06;559.832;2.27
1552;1986.34;563.738;2.27
1553;2026.01;605.243;2.27
1554;2053.17;575.701;2.27
1555;2067.82;567.888;2.27
1556;2067.82;569.842;2.27
1557;2050.73;577.654;2.27
1558;2013.5;591.571;2.27
1559;2023.57;579.608;2.27
1560;2072.7;559.832;2.27
1561;2102.61;593.524;2.27
1562;2112.38;579.608;2.28
1563;2105.05;552.019;2.28
1564;2072.7;571.795;2.28
1565;2040.66;583.514;2.28
1566;2045.54;583.514;2.28
1567;2075.45;563.738;2.28
1568;2082.77;571.795;2.28
1569;2082.77;553.972;2.28
1570;2058.05;599.384;2.28
1571;2015.94;573.748;2.28
1572;1991.22;546.159;2.28
1573;2030.89;611.347;2.28
1574;2062.94;575.701;2.28
1575;2070.26;569.842;2.29
1576;2075.45;563.738;2.29
1577;2053.17;583.514;2.29
1578;2021.13;577.654;2.29
1579;2030.89;591.571;2.29
1580;2082.77;548.112;2.29
1581;2105.05;577.654;2.29
1582;2119.7;597.43;2.29
1583;2109.94;538.102;2.29
1584;2077.89;569.842;2.29
1585;2043.1;573.748;2.29
1586;2053.17;583.514;2.29
1587;2080.33;565.935;2.29
1588;2087.66;563.738;2.29
1589;2087.66;561.785;2.3
1590;2065.38;597.43;2.3
1591;2021.13;569.842;2.3
1592;1998.85;553.972;2.3
1593;2038.22;613.3;2.3
1594;2065.38;573.748;2.3
1595;2080.33;569.842;2.3
1596;2077.89;565.935;2.3
1597;2060.5;577.654;2.3
1598;2028.45;581.561;2.3
1599;2035.78;585.467;2.3
1600;2087.66;553.972;2.3
1601;2112.38;583.514;2.3
1602;2124.58;589.618;2.31001
1603;2114.82;540.056;2.31001
1604;2080.33;569.842;2.31001
1605;2045.54;577.654;2.31001
1606;2058.05;583.514;2.31001
1607;2085.22;565.935;2.31001
1608;2094.98;555.925;2.31001
1609;2092.54;567.888;2.31001
1610;2067.82;591.571;2.31001
1611;2026.01;561.785;2.31001
1612;2003.73;559.832;2.31001
1613;2043.1;605.243;2.31001
1614;2070.26;571.795;2.31001
1615;2085.22;563.738;2.32
1616;2082.77;567.888;2.32
1617;2062.94;579.608;2.32
1618;2030.89;591.571;2.32
1619;2040.66;579.608;2.32
1620;2090.1;557.878;2.32
1621;2119.7;591.571;2.32
1622;2129.77;581.561;2.32
1623;2122.14;546.159;2.32
1624;2090.1;571.795;2.32
1625;2055.61;581.561;2.32
1626;2065.38;579.608;2.32
1627;2090.1;567.888;2.33
1628;2099.86;567.888;2.33
1629;2097.42;553.972;2.33
1630;2072.7;601.337;2.33
1631;2028.45;573.748;2.33
1632;2011.06;546.159;2.33
1633;2050.73;607.196;2.33
1634;2080.33;573.748;2.33
1635;2090.1;575.701;2.33
1636;2092.54;563.738;2.33
1637;2067.82;583.514;2.33
1638;2040.66;575.701;2.33
1639;2048.29;593.524;2.33
1640;2102.61;548.112;2.34
1641;2124.58;571.795;2.34
1642;2139.54;601.337;2.34
1643;2129.77;534.196;2.34
1644;2094.98;569.842;2.34
1645;2060.5;571.795;2.34
1646;2072.7;583.514;2.34
1647;2102.61;563.738;2.34
1648;2107.49;563.738;2.34
1649;2107.49;557.878;2.34
1650;2075.45;599.384;2.34
1651;2035.78;569.842;2.34
1652;2015.94;553.972;2.34
1653;2058.05;613.3;2.35
1654;2085.22;571.795;2.35
1655;2097.42;569.842;2.35
1656;2094.98;561.785;2.35
1657;2072.7;577.654;2.35
1658;2043.1;579.608;2.35
1659;2055.61;585.467;2.35
1660;2107.49;548.112;2.35
1661;2132.21;577.654;2.35
1662;2141.98;591.571;2.35
1663;2132.21;538.102;2.35
1664;2099.86;571.795;2.35
1665;2065.38;575.701;2.36
1666;2077.89;581.561;2.36
1667;2105.05;565.935;2.36
1668;2112.38;557.878;2.36
1669;2112.38;563.738;2.36
1670;2082.77;591.571;2.36
1671;2040.66;561.785;2.36
1672;2021.13;555.925;2.36
1673;2065.38;607.196;2.36
1674;2090.1;573.748;2.36
1675;2105.05;563.738;2.36
1676;2102.61;565.935;2.36
1677;2080.33;579.608;2.37
1678;2050.73;585.467;2.37
1679;2062.94;581.561;2.37
1680;2112.38;552.019;2.37
1681;2141.98;587.42;2.37
1682;2151.75;585.467;2.37
1683;2139.54;542.009;2.37
1684;2105.05;571.795;2.37
