<WeldAnalyseData xmlns:i="http:www.w3.org/2001/XMLSchema-instance">
<WeldParameter>
<TimeStamp>DT#2023-12-05-13:57:48</TimeStamp>
<Generator>SG-22-10000</Generator>
<GenFreq>20</GenFreq>
<MaxForce>8000</MaxForce>
<MaxPower>10000</MaxPower>
<RunupPressure>1.5</RunupPressure>
<RunupDist>10</RunupDist>
<RunPress>0.8</RunPress>
<ShakeDelay>0.03</ShakeDelay>
<ShakeTime>0.3</ShakeTime>
<RunBackPress1>6</RunBackPress1>
<RunBackPress2>2</RunBackPress2>
<RunBackDist>1</RunBackDist>
<TrigValue>500</TrigValue>
<TrigModeUnit>W</TrigModeUnit>
<WeldModeUnit>Ws</WeldModeUnit>
<PressNr>0</PressNr>
<MaxLoss>1500</MaxLoss>
</WeldParameter>
<WeldSets>
<WeldSet>
<PressRiseTime>0</PressRiseTime>
<RunPressure>1</RunPressure>
<Amplitude>86</Amplitude>
<WeldMode>3270</WeldMode>
</WeldSet>
</WeldSets>
<WeldValue>
<WeldNr>2398</WeldNr>
<RecipeName>RickStyle</RecipeName>
<WeldTime>1854</WeldTime>
<DistDiff>3.65</DistDiff>
<DistAbs>78.33</DistAbs>
<Energy>3271.15</Energy>
<MaxPower>2061.81</MaxPower>
<CycleTime>6200</CycleTime>
<TrigForce>508.56</TrigForce>
<TrigDist>74.68</TrigDist>
<RunSpeed>68.2009</RunSpeed>
<MaxForce>605.243</MaxForce>
<LossPower>246.609</LossPower>
</WeldValue>
</WeldAnalyseData>
#CSV-START#
ms;Power[W];Force[N];Distance[mm]
1;0;0;0
2;0;508.56;0
3;0;510.514;0
4;0;510.514;0.0100021
5;0;512.467;0.0100021
6;0;510.514;0.0100021
7;0;510.514;0.0100021
8;0;504.654;0.0100021
9;0;479.019;0.0199966
10;0.286118;467.055;0.0199966
11;19.8179;455.336;0.0400009
12;29.8891;437.513;0.0500031
13;44.5379;449.232;0.0699997
14;69.2579;437.513;0.0899963
15;93.978;425.55;0.0999985
16;121.139;433.607;0.120003
17;153.184;423.597;0.129997
18;175.462;421.644;0.150002
19;197.741;417.737;0.159996
20;214.831;425.55;0.18
21;234.668;421.644;0.190002
22;256.947;431.654;0.209999
23;284.108;407.971;0.220001
24;313.711;421.644;0.230003
25;333.548;431.654;0.25
26;350.639;413.831;0.260002
27;365.593;425.55;0.269997
28;375.359;425.55;0.279999
29;380.547;437.513;0.290001
30;387.871;425.55;0.300003
31;397.637;431.654;0.309998
32;402.52;421.644;0.32
33;404.962;441.42;0.330002
34;400.079;439.467;0.339996
35;397.637;427.503;0.349998
36;400.079;443.373;0.370003
37;404.962;437.513;0.379997
38;410.15;437.513;0.389999
39;415.033;429.456;0.400002
40;415.033;445.326;0.409996
41;415.033;439.467;0.419998
42;417.474;455.336;0.43
43;427.24;435.56;0.440002
44;432.123;443.373;0.449997
45;434.565;453.383;0.459999
46;434.565;437.513;0.470001
47;434.565;445.326;0.480003
48;429.682;445.326;0.489998
49;427.24;453.383;0.5
50;429.682;439.467;0.510002
51;434.565;447.279;0.519997
52;434.565;435.56;0.529999
53;434.565;459.243;0.540001
54;429.682;451.186;0.550003
55;427.24;439.467;0.559998
56;429.682;461.196;0.57
57;437.311;451.186;0.57
58;442.194;451.186;0.580002
59;444.636;445.326;0.589996
60;444.636;461.196;0.599998
61;447.077;457.289;0.610001
62;449.519;461.196;0.620003
63;459.284;461.196;0.629997
64;471.797;453.383;0.639999
65;476.68;461.196;0.650002
66;481.563;457.289;0.650002
67;481.563;455.336;0.659996
68;476.68;459.243;0.669998
69;476.68;459.243;0.68
70;479.122;455.336;0.690002
71;484.004;457.289;0.699997
72;484.004;453.383;0.709999
73;486.446;461.196;0.720001
74;481.563;465.102;0.730003
75;476.68;457.289;0.739998
76;479.122;467.055;0.739998
77;484.004;467.055;0.75
78;486.446;465.102;0.760002
79;494.076;461.196;0.769997
80;496.517;472.915;0.779999
81;494.076;469.008;0.790001
82;494.076;477.065;0.790001
83;508.724;470.962;0.800003
84;518.796;467.055;0.809998
85;523.679;477.065;0.82
86;523.679;461.196;0.830002
87;526.12;467.055;0.839996
88;523.679;469.008;0.849998
89;523.679;470.962;0.860001
90;526.12;461.196;0.860001
91;535.886;467.055;0.870003
92;538.327;457.289;0.879997
93;540.769;477.065;0.889999
94;533.444;475.112;0.900002
95;528.562;465.102;0.909996
96;535.886;480.972;0.919998
97;545.957;477.065;0.919998
98;550.84;475.112;0.93
99;555.723;469.008;0.940002
100;560.606;484.878;0.949997
101;558.164;477.065;0.959999
102;560.606;488.784;0.970001
103;573.119;469.008;0.980003
104;587.767;475.112;0.980003
105;595.092;488.784;0.989998
106;602.721;467.055;1
107;602.721;477.065;1.01
108;597.533;479.019;1.02
109;597.533;482.925;1.03
110;605.163;467.055;1.03
111;610.046;472.915;1.04
112;614.929;461.196;1.05
113;617.37;488.784;1.06
114;610.046;477.065;1.07
115;605.163;465.102;1.08
116;614.929;484.878;1.09
117;627.441;477.065;1.1
118;632.324;477.065;1.11
119;634.766;467.055;1.12
120;639.649;486.831;1.13
121;639.649;479.019;1.14
122;639.649;494.644;1.15
123;659.486;461.196;1.16
124;671.693;470.962;1.17
125;681.764;480.972;1.18
126;684.206;477.065;1.19
127;684.206;472.915;1.2
128;679.018;475.112;1.21
129;676.576;479.019;1.22
130;684.206;470.962;1.23
131;689.089;470.962;1.24
132;693.972;465.102;1.25
133;693.972;472.915;1.26
134;689.089;477.065;1.27
135;681.764;465.102;1.28
136;689.089;475.112;1.3
137;703.738;475.112;1.31
138;708.926;472.915;1.32
139;713.809;465.102;1.33
140;716.25;479.019;1.34
141;713.809;475.112;1.35
142;711.367;484.878;1.36
143;726.016;472.915;1.37
144;745.853;469.008;1.38
145;753.178;482.925;1.4
146;758.061;469.008;1.41
147;760.502;470.962;1.42
148;755.619;472.915;1.43
149;753.178;477.065;1.44
150;763.249;459.243;1.45
151;770.573;467.055;1.46
152;775.456;455.336;1.47
153;780.339;472.915;1.49
154;775.456;475.112;1.5
155;763.249;457.289;1.51
156;765.69;475.112;1.52
157;780.339;470.962;1.53
158;790.41;467.055;1.54
159;795.293;459.243;1.55
160;797.735;479.019;1.56
161;797.735;469.008;1.58
162;795.293;482.925;1.59
163;809.942;465.102;1.6
164;827.338;467.055;1.61
165;839.545;482.925;1.62
166;847.175;461.196;1.63
167;844.733;467.055;1.64
168;844.733;467.055;1.65
169;837.104;477.065;1.66
170;849.616;453.383;1.67
171;859.382;465.102;1.68
172;866.707;451.186;1.69
173;871.895;480.972;1.7
174;869.148;470.962;1.71
175;856.941;457.289;1.72
176;861.824;480.972;1.73
177;879.219;469.008;1.74
178;886.544;470.962;1.75
179;891.427;457.289;1.76
180;899.056;480.972;1.77
181;896.31;470.962;1.77
182;893.868;488.784;1.78
183;908.822;457.289;1.79
184;928.659;467.055;1.8
185;943.308;486.831;1.81
186;953.379;465.102;1.82
187;953.379;470.962;1.83
188;950.632;470.962;1.84
189;948.191;482.925;1.85
190;960.704;463.149;1.85
191;975.352;475.112;1.86
192;985.424;457.289;1.87
193;990.307;486.831;1.88
194;987.865;480.972;1.89
195;977.794;467.055;1.89
196;982.982;490.738;1.9
197;1007.7;482.925;1.91
198;1017.47;482.925;1.92
199;1029.68;470.962;1.92
200;1037.31;496.597;1.93
201;1039.75;486.831;1.94
202;1037.31;506.607;1.94
203;1059.28;477.065;1.95
204;1086.44;484.878;1.96
205;1101.39;504.654;1.96
206;1116.04;477.065;1.97
207;1121.23;488.784;1.98
208;1116.04;486.831;1.98
209;1111.16;502.701;1.99
210;1128.56;479.019;2
211;1143.2;488.784;2
212;1155.72;475.112;2.01
213;1160.6;514.42;2.01
214;1153.28;498.795;2.02
215;1140.76;482.925;2.02
216;1143.2;512.467;2.03
217;1167.92;504.654;2.03
218;1180.44;498.795;2.04
219;1192.64;488.784;2.04
220;1197.53;500.748;2.05
221;1195.09;504.654;2.05
222;1192.64;516.373;2.06
223;1212.48;506.607;2.06
224;1242.08;496.597;2.07
225;1254.6;518.326;2.07
226;1269.25;502.701;2.08
227;1269.25;504.654;2.08
228;1259.48;506.607;2.09
229;1257.04;516.373;2.09
230;1274.13;506.607;2.1
231;1289.08;506.607;2.1
232;1296.41;490.738;2.11
233;1303.73;514.42;2.11
234;1289.08;520.524;2.12
235;1276.57;498.795;2.12
236;1279.01;516.373;2.13
237;1306.17;516.373;2.13
238;1318.69;512.467;2.14
239;1330.89;500.748;2.14
240;1338.52;524.43;2.14
241;1330.89;516.373;2.15
242;1321.13;536.149;2.15
243;1348.29;514.42;2.16
244;1373.01;510.514;2.16
245;1385.22;530.29;2.17
246;1397.73;508.56;2.17
247;1395.29;516.373;2.17
248;1380.33;518.326;2.18
249;1373.01;530.29;2.18
250;1390.4;506.607;2.19
251;1402.61;516.373;2.19
252;1412.38;498.795;2.2
253;1412.38;526.383;2.2
254;1400.17;526.383;2.2
255;1380.33;506.607;2.21
256;1382.77;532.243;2.21
257;1412.38;524.43;2.21
258;1424.89;524.43;2.22
259;1432.21;508.56;2.22
260;1437.1;542.009;2.23
261;1427.33;526.383;2.23
262;1420.01;546.159;2.23
263;1444.73;516.373;2.24
264;1471.89;522.477;2.24
265;1484.1;540.056;2.24
266;1496.3;514.42;2.25
267;1491.42;524.43;2.25
268;1476.77;522.477;2.25
269;1466.7;538.102;2.26
270;1484.1;510.514;2.26
271;1496.3;524.43;2.26
272;1506.37;504.654;2.27
273;1506.37;546.159;2.27
274;1488.98;532.243;2.27
275;1466.7;514.42;2.28
276;1474.33;544.206;2.28
277;1493.86;528.336;2.28
278;1508.82;534.196;2.29
279;1513.7;516.373;2.29
280;1518.58;530.29;2.29
281;1506.37;530.29;2.3
282;1493.86;548.112;2.3
283;1521.02;532.243;2.3
284;1548.18;522.477;2.31
285;1560.7;544.206;2.31
286;1570.46;528.336;2.31
287;1563.14;526.383;2.32
288;1543.3;530.29;2.32
289;1531.09;542.009;2.32
290;1553.37;532.243;2.33
291;1563.14;528.336;2.33
292;1568.02;512.467;2.33
293;1568.02;538.102;2.34
294;1548.18;544.206;2.34
295;1523.46;516.373;2.34
296;1528.65;538.102;2.35
297;1555.81;538.102;2.35
298;1563.14;538.102;2.35
299;1570.46;522.477;2.35
300;1570.46;546.159;2.36
301;1555.81;536.149;2.36
302;1545.74;557.878;2.36
303;1570.46;532.243;2.37
304;1600.07;528.336;2.37
305;1612.58;552.019;2.37
306;1617.46;528.336;2.38
307;1612.58;532.243;2.38
308;1590.3;534.196;2.38
309;1580.53;550.066;2.38
310;1597.62;524.43;2.39
311;1607.7;532.243;2.39
312;1615.02;518.326;2.39
313;1612.58;546.159;2.4
314;1590.3;544.206;2.4
315;1565.58;524.43;2.4
316;1570.46;550.066;2.41
317;1595.18;540.056;2.41
318;1604.95;544.206;2.41
319;1612.58;524.43;2.41
320;1610.14;557.878;2.42
321;1590.3;542.009;2.42
322;1580.53;565.935;2.42
323;1607.7;530.29;2.42
324;1634.86;532.243;2.43
325;1649.51;555.925;2.43
326;1656.83;528.336;2.43
327;1649.51;540.056;2.43
328;1627.23;536.149;2.44
329;1615.02;552.019;2.44
330;1634.86;524.43;2.44
331;1644.62;540.056;2.44
332;1649.51;516.373;2.45
333;1644.62;559.832;2.45
334;1619.9;546.159;2.45
335;1592.74;526.383;2.45
336;1600.07;557.878;2.46
337;1624.79;542.009;2.46
338;1634.86;548.112;2.46
339;1642.18;532.243;2.46
340;1637.3;561.785;2.47
341;1622.34;546.159;2.47
342;1610.14;567.888;2.47
343;1639.74;540.056;2.47
344;1669.34;540.056;2.48
345;1681.55;559.832;2.48
346;1691.62;536.149;2.48
347;1681.55;544.206;2.48
348;1662.02;542.009;2.49
349;1651.95;559.832;2.49
350;1669.34;530.29;2.49
351;1683.99;542.009;2.49
352;1689.18;520.524;2.5
353;1681.55;557.878;2.5
354;1656.83;550.066;2.5
355;1629.67;528.336;2.5
356;1639.74;559.832;2.5
357;1666.9;550.066;2.51
358;1674.23;550.066;2.51
359;1683.99;532.243;2.51
360;1679.11;567.888;2.51
361;1664.46;548.112;2.52
362;1651.95;573.748;2.52
363;1681.55;534.196;2.52
364;1711.15;546.159;2.52
365;1726.11;565.935;2.52
366;1733.43;534.196;2.53
367;1726.11;548.112;2.53
368;1701.39;546.159;2.53
369;1689.18;563.738;2.53
370;1711.15;532.243;2.53
371;1721.22;550.066;2.54
372;1728.55;528.336;2.54
373;1721.22;550.066;2.54
374;1696.5;561.785;2.54
375;1669.34;538.102;2.54
376;1676.67;553.972;2.55
377;1706.27;559.832;2.55
378;1713.6;552.019;2.55
379;1721.22;540.056;2.55
380;1718.78;552.019;2.55
381;1698.95;555.925;2.56
382;1691.62;575.701;2.56
383;1721.22;550.066;2.56
384;1753.27;544.206;2.56
385;1765.48;567.888;2.56
386;1775.55;548.112;2.57
387;1763.04;550.066;2.57
388;1740.76;552.019;2.57
389;1728.55;569.842;2.57
390;1750.83;550.066;2.57
391;1760.59;550.066;2.58
392;1767.92;530.29;2.58
393;1760.59;561.785;2.58
394;1733.43;561.785;2.58
395;1701.39;542.009;2.58
396;1711.15;563.738;2.58
397;1740.76;561.785;2.59
398;1748.39;559.832;2.59
399;1753.27;544.206;2.59
400;1750.83;571.795;2.59
401;1730.99;559.832;2.59
402;1716.34;579.608;2.59
403;1755.71;552.019;2.6
404;1780.43;550.066;2.6
405;1797.52;573.748;2.6
406;1805.15;550.066;2.6
407;1795.08;555.925;2.6
408;1770.66;553.972;2.6
409;1758.15;571.795;2.61
410;1780.43;542.009;2.61
411;1792.64;557.878;2.61
412;1795.08;534.196;2.61
413;1790.2;573.748;2.61
414;1758.15;563.738;2.61
415;1728.55;542.009;2.62
416;1738.32;571.795;2.62
417;1767.92;561.785;2.62
418;1777.99;565.935;2.62
419;1785.31;548.112;2.62
420;1777.99;581.561;2.62
421;1755.71;559.832;2.63
422;1745.94;587.42;2.63
423;1785.31;546.159;2.63
424;1812.48;557.878;2.63
425;1827.43;579.608;2.63
426;1832.31;548.112;2.63
427;1819.8;557.878;2.64
428;1797.52;557.878;2.64
429;1785.31;575.701;2.64
430;1807.59;544.206;2.64
431;1819.8;561.785;2.64
432;1824.68;538.102;2.64
433;1814.92;583.514;2.64
434;1787.76;565.935;2.65
435;1755.71;548.112;2.65
436;1767.92;567.888;2.65
437;1795.08;571.795;2.65
438;1807.59;563.738;2.65
439;1810.03;548.112;2.65
440;1807.59;561.785;2.66
441;1785.31;567.888;2.66
442;1773.11;585.467;2.66
443;1810.03;561.785;2.66
444;1839.64;552.019;2.66
445;1854.59;577.654;2.66
446;1861.92;557.878;2.66
447;1846.96;557.878;2.67
448;1819.8;563.738;2.67
449;1817.36;575.701;2.67
450;1834.75;561.785;2.67
451;1846.96;559.832;2.67
452;1849.4;538.102;2.67
453;1842.08;569.842;2.67
454;1812.48;573.748;2.68
455;1780.43;548.112;2.68
456;1792.64;569.842;2.68
457;1817.36;569.842;2.68
458;1829.87;569.842;2.68
459;1832.31;552.019;2.68
460;1827.43;575.701;2.68
461;1802.71;567.888;2.69
462;1795.08;591.571;2.69
463;1832.31;559.832;2.69
464;1859.47;557.878;2.69
465;1876.56;583.514;2.69
466;1884.19;557.878;2.69
467;1864.36;561.785;2.69
468;1837.2;563.738;2.7
469;1827.43;579.608;2.7
470;1851.84;552.019;2.7
471;1864.36;561.785;2.7
472;1866.8;538.102;2.7
473;1859.47;577.654;2.7
474;1827.43;571.795;2.7
475;1795.08;546.159;2.71
476;1812.48;577.654;2.71
477;1834.75;569.842;2.71
478;1849.4;569.842;2.71
479;1851.84;552.019;2.71
480;1844.52;585.467;2.71
481;1822.24;567.888;2.71
482;1812.48;591.571;2.71
483;1849.4;553.972;2.72
484;1876.56;561.785;2.72
485;1891.52;585.467;2.72
486;1898.84;555.925;2.72
487;1881.75;565.935;2.72
488;1851.84;561.785;2.72
489;1842.08;581.561;2.72
490;1866.8;546.159;2.72
491;1876.56;565.935;2.73
492;1879.01;542.009;2.73
493;1869.24;589.618;2.73
494;1837.2;569.842;2.73
495;1805.15;552.019;2.73
496;1819.8;585.467;2.73
497;1846.96;571.795;2.73
498;1854.59;569.842;2.73
499;1861.92;553.972;2.74
500;1851.84;581.561;2.74
501;1829.87;567.888;2.74
502;1822.24;593.524;2.74
503;1859.47;561.785;2.74
504;1886.64;559.832;2.74
505;1903.73;585.467;2.74
506;1908.91;557.878;2.74
507;1891.52;567.888;2.75
508;1864.36;563.738;2.75
509;1857.03;585.467;2.75
510;1879.01;552.019;2.75
511;1889.08;563.738;2.75
512;1893.96;542.009;2.75
513;1884.19;583.514;2.75
514;1849.4;573.748;2.75
515;1822.24;553.972;2.76
516;1837.2;579.608;2.76
517;1864.36;571.795;2.76
518;1876.56;571.795;2.76
519;1879.01;553.972;2.76
520;1871.68;589.618;2.76
521;1846.96;569.842;2.76
522;1837.2;593.524;2.76
523;1876.56;553.972;2.76
524;1903.73;563.738;2.77
525;1921.12;585.467;2.77
526;1923.56;553.972;2.77
527;1903.73;569.842;2.77
528;1874.12;567.888;2.77
529;1866.8;581.561;2.77
530;1889.08;571.795;2.77
531;1898.84;561.785;2.77
532;1901.28;548.112;2.77
533;1891.52;571.795;2.78
534;1857.03;579.608;2.78
535;1827.43;552.019;2.78
536;1846.96;575.701;2.78
537;1874.12;577.654;2.78
538;1884.19;573.748;2.78
539;1886.64;555.925;2.78
540;1886.64;571.795;2.78
541;1864.36;571.795;2.78
542;1846.96;591.571;2.79
543;1871.68;569.842;2.79
544;1908.91;559.832;2.79
545;1926;585.467;2.79
546;1936.08;563.738;2.79
547;1923.56;565.935;2.79
548;1891.52;567.888;2.79
549;1871.68;581.561;2.79
550;1889.08;563.738;2.79
551;1903.73;565.935;2.79
552;1913.8;542.009;2.8
553;1906.17;579.608;2.8
554;1879.01;577.654;2.8
555;1839.64;552.019;2.8
556;1839.64;579.608;2.8
557;1871.68;575.701;2.8
558;1886.64;571.795;2.8
559;1891.52;553.972;2.8
560;1891.52;585.467;2.8
561;1874.12;571.795;2.81
562;1854.59;599.384;2.81
563;1879.01;563.738;2.81
564;1921.12;561.785;2.81
565;1938.52;589.618;2.81
566;1948.28;559.832;2.81
567;1936.08;567.888;2.81
568;1908.91;565.935;2.81
569;1886.64;583.514;2.81
570;1901.28;553.972;2.82
571;1916.24;567.888;2.82
572;1918.68;544.206;2.82
573;1913.8;583.514;2.82
574;1884.19;577.654;2.82
575;1846.96;552.019;2.82
576;1844.52;583.514;2.82
577;1879.01;571.795;2.82
578;1893.96;573.748;2.82
579;1901.28;555.925;2.82
580;1901.28;589.618;2.83
581;1881.75;571.795;2.83
582;1859.47;595.477;2.83
583;1889.08;557.878;2.83
584;1928.45;565.935;2.83
585;1945.84;587.42;2.83
586;1955.61;557.878;2.83
587;1943.4;567.888;2.83
588;1913.8;565.935;2.83
589;1893.96;585.467;2.83
590;1908.91;573.748;2.84
591;1923.56;563.738;2.84
592;1930.89;552.019;2.84
593;1923.56;571.795;2.84
594;1893.96;583.514;2.84
595;1857.03;557.878;2.84
596;1854.59;571.795;2.84
597;1891.52;579.608;2.84
598;1903.73;569.842;2.84
599;1911.36;557.878;2.84
600;1908.91;569.842;2.85
601;1891.52;577.654;2.85
602;1869.24;595.477;2.85
603;1901.28;571.795;2.85
604;1938.52;559.832;2.85
605;1955.61;589.618;2.85
606;1968.12;569.842;2.85
607;1955.61;565.935;2.85
608;1923.56;567.888;2.85
609;1903.73;585.467;2.85
610;1921.12;569.842;2.86
611;1933.33;565.935;2.86
612;1938.52;544.206;2.86
613;1930.89;577.654;2.86
614;1903.73;581.561;2.86
615;1864.36;552.019;2.86
616;1866.8;579.608;2.86
617;1903.73;577.654;2.86
618;1916.24;575.701;2.86
619;1926;557.878;2.86
620;1921.12;583.514;2.87
621;1898.84;577.654;2.87
622;1884.19;599.384;2.87
623;1908.91;567.888;2.87
624;1950.72;567.888;2.87
625;1970.56;591.571;2.87
626;1977.89;561.785;2.87
627;1963.24;569.842;2.87
628;1936.08;565.935;2.87
629;1913.8;585.467;2.87
630;1930.89;557.878;2.88
631;1945.84;569.842;2.88
632;1950.72;544.206;2.88
633;1940.96;583.514;2.88
634;1911.36;577.654;2.88
635;1874.12;553.972;2.88
636;1874.12;585.467;2.88
637;1908.91;573.748;2.88
638;1923.56;577.654;2.88
639;1933.33;557.878;2.88
640;1928.45;589.618;2.89
641;1906.17;575.701;2.89
642;1891.52;599.384;2.89
643;1923.56;559.832;2.89
644;1960.49;567.888;2.89
645;1980.33;589.618;2.89
646;1987.65;557.878;2.89
647;1973;571.795;2.89
648;1945.84;567.888;2.89
649;1926;585.467;2.89
650;1943.4;553.972;2.89
651;1958.05;573.748;2.9
652;1960.49;546.159;2.9
653;1950.72;581.561;2.9
654;1921.12;579.608;2.9
655;1884.19;555.925;2.9
656;1889.08;583.514;2.9
657;1921.12;577.654;2.9
658;1936.08;577.654;2.9
659;1945.84;555.925;2.9
660;1940.96;593.524;2.9
661;1921.12;575.701;2.9
662;1901.28;597.43;2.91
663;1933.33;565.935;2.91
664;1973;567.888;2.91
665;1987.65;589.618;2.91
666;1997.72;559.832;2.91
667;1985.21;569.842;2.91
668;1953.17;569.842;2.91
669;1933.33;589.618;2.91
670;1948.28;555.925;2.91
671;1965.68;571.795;2.91
672;1968.12;548.112;2.91
673;1958.05;591.571;2.91
674;1928.45;579.608;2.92
675;1891.52;555.925;2.92
676;1893.96;589.618;2.92
677;1928.45;575.701;2.92
678;1943.4;577.654;2.92
679;1953.17;559.832;2.92
680;1948.28;593.524;2.92
681;1926;573.748;2.92
682;1908.91;599.384;2.92
683;1940.96;579.608;2.92
684;1977.89;559.832;2.92
685;1997.72;587.42;2.93
686;2005.05;571.795;2.93
687;1987.65;565.935;2.93
688;1958.05;571.795;2.93
689;1938.52;583.514;2.93
690;1958.05;577.654;2.93
691;1970.56;569.842;2.93
692;1975.44;548.112;2.93
693;1965.68;573.748;2.93
694;1930.89;583.514;2.93
695;1893.96;559.832;2.93
696;1898.84;579.608;2.94
697;1933.33;577.654;2.94
698;1950.72;573.748;2.94
699;1958.05;557.878;2.94
700;1953.17;579.608;2.94
701;1930.89;575.701;2.94
702;1916.24;599.384;2.94
703;1950.72;569.842;2.94
704;1985.21;565.935;2.94
705;2005.05;591.571;2.94
706;2009.93;567.888;2.94
707;1995.28;571.795;2.94
708;1965.68;569.842;2.95
709;1945.84;585.467;2.95
710;1963.24;567.888;2.95
711;1977.89;569.842;2.95
712;1980.33;546.159;2.95
713;1970.56;581.561;2.95
714;1940.96;579.608;2.95
715;1901.28;555.925;2.95
716;1908.91;585.467;2.95
717;1945.84;577.654;2.95
718;1960.49;577.654;2.95
719;1968.12;557.878;2.95
720;1963.24;589.618;2.96
721;1940.96;575.701;2.96
722;1926;601.337;2.96
723;1963.24;565.935;2.96
724;1995.28;567.888;2.96
725;2012.37;593.524;2.96
726;2020;565.935;2.96
727;2005.05;571.795;2.96
728;1973;569.842;2.96
729;1953.17;585.467;2.96
730;1970.56;557.878;2.96
731;1982.77;571.795;2.96
732;1985.21;546.159;2.97
733;1977.89;589.618;2.97
734;1943.4;577.654;2.97
735;1901.28;553.972;2.97
736;1913.8;587.42;2.97
737;1950.72;577.654;2.97
738;1968.12;581.561;2.97
739;1975.44;559.832;2.97
740;1968.12;593.524;2.97
741;1950.72;575.701;2.97
742;1933.33;599.384;2.97
743;1970.56;557.878;2.97
744;2005.05;567.888;2.97
745;2024.88;587.42;2.98
746;2029.77;571.795;2.98
747;2012.37;565.935;2.98
748;1982.77;573.748;2.98
749;1958.05;583.514;2.98
750;1980.33;579.608;2.98
751;1992.84;567.888;2.98
752;1995.28;552.019;2.98
753;1982.77;575.701;2.98
754;1948.28;585.467;2.98
755;1913.8;555.925;2.98
756;1923.56;577.654;2.98
757;1958.05;581.561;2.98
758;1973;573.748;2.99
759;1982.77;559.832;2.99
760;1975.44;573.748;2.99
761;1953.17;575.701;2.99
762;1938.52;599.384;2.99
763;1975.44;571.795;2.99
764;2012.37;563.738;2.99
765;2029.77;589.618;2.99
766;2034.65;565.935;2.99
767;2020;569.842;2.99
768;1985.21;569.842;2.99
769;1968.12;587.42;2.99
770;1985.21;569.842;2.99
771;1997.72;571.795;2.99
772;1997.72;548.112;3
773;1987.65;579.608;3
774;1953.17;579.608;3
775;1916.24;553.972;3
776;1928.45;581.561;3
777;1965.68;577.654;3
778;1980.33;575.701;3
779;1987.65;559.832;3
780;1982.77;589.618;3
781;1958.05;575.701;3
782;1945.84;603.29;3
783;1980.33;567.888;3
784;2014.81;567.888;3
785;2037.09;595.477;3
786;2041.97;563.738;3
787;2020;571.795;3.01
788;1987.65;569.842;3.01
789;1970.56;587.42;3.01
790;1990.4;555.925;3.01
791;2000.16;571.795;3.01
792;2005.05;546.159;3.01
793;1990.4;589.618;3.01
794;1953.17;577.654;3.01
795;1918.68;557.878;3.01
796;1928.45;587.42;3.01
797;1965.68;577.654;3.01
798;1980.33;577.654;3.01
799;1987.65;557.878;3.01
800;1985.21;593.524;3.01
801;1960.49;575.701;3.01
802;1943.4;599.384;3.02
803;1982.77;561.785;3.02
804;2014.81;569.842;3.02
805;2034.65;593.524;3.02
806;2041.97;559.832;3.02
807;2020;571.795;3.02
808;1987.65;575.701;3.02
809;1973;587.42;3.02
810;1990.4;561.785;3.02
811;2002.61;571.795;3.02
812;2007.49;548.112;3.02
813;1995.28;583.514;3.02
814;1960.49;581.561;3.02
815;1928.45;553.972;3.02
816;1938.52;585.467;3.02
817;1973;577.654;3.03
818;1985.21;577.654;3.03
819;1992.84;557.878;3.03
820;1987.65;591.571;3.03
821;1965.68;575.701;3.03
822;1950.72;601.337;3.03
823;1985.21;563.738;3.03
824;2020;567.888;3.03
825;2037.09;591.571;3.03
826;2041.97;565.935;3.03
827;2022.44;571.795;3.03
828;1990.4;567.888;3.03
829;1975.44;587.42;3.03
830;1995.28;555.925;3.03
831;2007.49;573.748;3.03
832;2009.93;548.112;3.04
833;1997.72;591.571;3.04
834;1960.49;579.608;3.04
835;1930.89;557.878;3.04
836;1940.96;589.618;3.04
837;1977.89;575.701;3.04
838;1992.84;573.748;3.04
839;1995.28;557.878;3.04
840;1990.4;569.842;3.04
841;1965.68;577.654;3.04
842;1953.17;595.477;3.04
843;1992.84;575.701;3.04
844;2024.88;561.785;3.04
845;2041.97;587.42;3.04
846;2047.16;569.842;3.04
847;2027.33;567.888;3.05
848;1990.4;573.748;3.05
849;1977.89;587.42;3.05
850;1995.28;577.654;3.05
851;2007.49;569.842;3.05
852;2012.37;550.066;3.05
853;1997.72;575.701;3.05
854;1965.68;581.561;3.05
855;1928.45;555.925;3.05
856;1945.84;581.561;3.05
857;1977.89;579.608;3.05
858;1992.84;577.654;3.05
859;1997.72;555.925;3.05
860;1990.4;579.608;3.05
861;1965.68;577.654;3.05
862;1953.17;599.384;3.06
863;1990.4;571.795;3.06
864;2024.88;565.935;3.06
865;2044.72;591.571;3.06
866;2044.72;565.935;3.06
867;2024.88;571.795;3.06
868;1992.84;571.795;3.06
869;1977.89;589.618;3.06
870;2000.16;565.935;3.06
871;2009.93;569.842;3.06
872;2014.81;548.112;3.06
873;2000.16;585.467;3.06
874;1965.68;579.608;3.06
875;1928.45;553.972;3.06
876;1945.84;585.467;3.06
877;1980.33;577.654;3.06
878;1995.28;575.701;3.07
879;2000.16;559.832;3.07
880;1992.84;593.524;3.07
881;1965.68;575.701;3.07
882;1955.61;605.243;3.07
883;1995.28;565.935;3.07
884;2027.33;567.888;3.07
885;2044.72;591.571;3.07
886;2044.72;563.738;3.07
887;2024.88;571.795;3.07
888;1995.28;569.842;3.07
889;1980.33;589.618;3.07
890;2002.61;553.972;3.07
891;2009.93;571.795;3.07
892;2014.81;546.159;3.08
893;2000.16;589.618;3.08
894;1965.68;577.654;3.08
895;1930.89;555.925;3.08
896;1950.72;589.618;3.08
897;1982.77;575.701;3.08
898;1997.72;577.654;3.08
899;2005.05;559.832;3.08
900;1997.72;569.842;3.08
901;1970.56;577.654;3.08
902;1958.05;589.618;3.08
903;1997.72;577.654;3.08
904;2029.77;559.832;3.08
905;2044.72;587.42;3.08
906;2049.6;571.795;3.08
907;2024.88;565.935;3.08
908;1992.84;575.701;3.09
909;1982.77;585.467;3.09
910;2005.05;577.654;3.09
911;2014.81;571.795;3.09
912;2017.56;552.019;3.09
913;2002.61;573.748;3.09
914;1968.12;585.467;3.09
915;1933.33;557.878;3.09
916;1953.17;579.608;3.09
917;1985.21;583.514;3.09
918;1997.72;573.748;3.09
919;2005.05;559.832;3.09
920;1995.28;577.654;3.09
921;1970.56;575.701;3.09
922;1963.24;599.384;3.1
923;2000.16;571.795;3.1
924;2032.21;563.738;3.1
925;2049.6;591.571;3.1
926;2052.05;565.935;3.1
927;2027.33;569.842;3.1
928;1995.28;569.842;3.1
929;1982.77;589.618;3.1
930;2005.05;567.888;3.1
931;2014.81;569.842;3.1
932;2014.81;550.066;3.1
933;2002.61;581.561;3.1
934;1963.24;581.561;3.1
935;1936.08;553.972;3.1
936;1955.61;583.514;3.1
937;1985.21;577.654;3.1
938;2000.16;577.654;3.11
939;2007.49;557.878;3.11
940;1995.28;591.571;3.11
941;1970.56;575.701;3.11
942;1960.49;601.337;3.11
943;1992.84;565.935;3.11
944;2027.33;567.888;3.11
945;2047.16;595.477;3.11
946;2052.05;563.738;3.11
947;2037.09;567.888;3.11
948;2000.16;565.935;3.11
949;1985.21;589.618;3.11
950;2005.05;557.878;3.11
951;2014.81;569.842;3.11
952;2020;546.159;3.12
953;2007.49;591.571;3.12
954;1975.44;577.654;3.12
955;1940.96;557.878;3.12
956;1948.28;589.618;3.12
957;1985.21;575.701;3.12
958;1997.72;577.654;3.12
959;2005.05;557.878;3.12
960;1997.72;591.571;3.12
961;1975.44;575.701;3.12
962;1960.49;601.337;3.12
963;1995.28;569.842;3.12
964;2032.21;565.935;3.12
965;2049.6;593.524;3.12
966;2054.49;565.935;3.12
967;2034.65;571.795;3.13
968;2002.61;571.795;3.13
969;1987.65;587.42;3.13
970;2002.61;561.785;3.13
971;2014.81;567.888;3.13
972;2020;548.112;3.13
973;2007.49;587.42;3.13
974;1975.44;579.608;3.13
975;1938.52;555.925;3.13
976;1948.28;585.467;3.13
977;1987.65;577.654;3.13
978;2000.16;577.654;3.13
979;2007.49;559.832;3.13
980;2002.61;593.524;3.13
981;1977.89;577.654;3.13
982;1960.49;601.337;3.13
983;1995.28;561.785;3.14
984;2032.21;567.888;3.14
985;2049.6;591.571;3.14
986;2054.49;561.785;3.14
987;2037.09;571.795;3.14
988;2002.61;567.888;3.14
989;1985.21;589.618;3.14
990;2005.05;553.972;3.14
991;2014.81;573.748;3.14
992;2022.44;546.159;3.14
993;2009.93;593.524;3.14
994;1975.44;585.467;3.14
995;1940.96;561.785;3.14
996;1950.72;575.701;3.14
997;1987.65;583.514;3.14
998;2002.61;573.748;3.15
999;2007.49;557.878;3.15
1000;2000.16;573.748;3.15
1001;1977.89;579.608;3.15
1002;1960.49;595.477;3.15
1003;1997.72;577.654;3.15
1004;2032.21;561.785;3.15
1005;2049.6;591.571;3.15
1006;2056.93;569.842;3.15
1007;2037.09;567.888;3.15
1008;2002.61;571.795;3.15
1009;1985.21;585.467;3.15
1010;2009.93;575.701;3.15
1011;2020;571.795;3.15
1012;2024.88;550.066;3.15
1013;2012.37;579.608;3.15
1014;1977.89;581.561;3.16
1015;1943.4;555.925;3.16
1016;1955.61;581.561;3.16
1017;1990.4;579.608;3.16
1018;2007.49;577.654;3.16
1019;2014.81;557.878;3.16
1020;2005.05;581.561;3.16
1021;1982.77;577.654;3.16
1022;1965.68;599.384;3.16
1023;2002.61;571.795;3.16
1024;2037.09;565.935;3.16
1025;2054.49;591.571;3.16
1026;2059.37;565.935;3.16
1027;2039.53;569.842;3.16
1028;2005.05;571.795;3.16
1029;1987.65;585.467;3.17
1030;2009.93;565.935;3.17
1031;2024.88;569.842;3.17
1032;2029.77;548.112;3.17
1033;2014.81;583.514;3.17
1034;1982.77;581.561;3.17
1035;1948.28;555.925;3.17
1036;1960.49;585.467;3.17
1037;1995.28;577.654;3.17
1038;2009.93;577.654;3.17
1039;2017.56;555.925;3.17
1040;2009.93;593.524;3.17
1041;1982.77;577.654;3.17
1042;1968.12;603.29;3.17
1043;2005.05;563.738;3.17
1044;2039.53;567.888;3.17
1045;2054.49;593.524;3.18
1046;2059.37;561.785;3.18
1047;2034.65;571.795;3.18
1048;2002.61;567.888;3.18
1049;1985.21;589.618;3.18
1050;2007.49;553.972;3.18
1051;2020;571.795;3.18
1052;2027.33;546.159;3.18
1053;2014.81;591.571;3.18
1054;1980.33;579.608;3.18
1055;1943.4;553.972;3.18
1056;1963.24;577.654;3.18
1057;1997.72;583.514;3.18
1058;2007.49;573.748;3.18
1059;2020;555.925;3.18
1060;2009.93;571.795;3.18
1061;1982.77;579.608;3.19
1062;1970.56;591.571;3.19
1063;2005.05;575.701;3.19
1064;2037.09;557.878;3.19
1065;2052.05;589.618;3.19
1066;2056.93;569.842;3.19
1067;2037.09;565.935;3.19
1068;2000.16;573.748;3.19
1069;1987.65;585.467;3.19
1070;2007.49;577.654;3.19
1071;2022.44;565.935;3.19
1072;2024.88;552.019;3.19
1073;2014.81;577.654;3.19
1074;1977.89;583.514;3.19
1075;1945.84;555.925;3.19
1076;1963.24;579.608;3.19
1077;1997.72;577.654;3.2
1078;2014.81;573.748;3.2
1079;2022.44;557.878;3.2
1080;2009.93;579.608;3.2
1081;1985.21;577.654;3.2
1082;1973;599.384;3.2
1083;2007.49;571.795;3.2
1084;2037.09;561.785;3.2
1085;2054.49;593.524;3.2
1086;2059.37;565.935;3.2
1087;2037.09;569.842;3.2
1088;2002.61;569.842;3.2
1089;1987.65;587.42;3.2
1090;2007.49;565.935;3.2
1091;2022.44;569.842;3.2
1092;2024.88;546.159;3.2
1093;2012.37;583.514;3.21
1094;1977.89;579.608;3.21
1095;1948.28;553.972;3.21
1096;1965.68;585.467;3.21
1097;1997.72;575.701;3.21
1098;2014.81;577.654;3.21
1099;2017.56;557.878;3.21
1100;2012.37;589.618;3.21
1101;1985.21;575.701;3.21
1102;1970.56;599.384;3.21
1103;2009.93;563.738;3.21
1104;2041.97;567.888;3.21
1105;2054.49;593.524;3.21
1106;2059.37;561.785;3.21
1107;2039.53;571.795;3.21
1108;2002.61;565.935;3.21
1109;1987.65;589.618;3.22
1110;2012.37;553.972;3.22
1111;2024.88;571.795;3.22
1112;2027.33;546.159;3.22
1113;2014.81;585.467;3.22
1114;1980.33;577.654;3.22
1115;1948.28;555.925;3.22
1116;1965.68;591.571;3.22
1117;1995.28;573.748;3.22
1118;2012.37;575.701;3.22
1119;2020;555.925;3.22
1120;2009.93;583.514;3.22
1121;1985.21;579.608;3.22
1122;1970.56;599.384;3.22
1123;2009.93;569.842;3.22
1124;2041.97;565.935;3.22
1125;2054.49;593.524;3.22
1126;2059.37;563.738;3.23
1127;2034.65;567.888;3.23
1128;2000.16;567.888;3.23
1129;1987.65;585.467;3.23
1130;2009.93;559.832;3.23
1131;2022.44;569.842;3.23
1132;2024.88;544.206;3.23
1133;2012.37;583.514;3.23
1134;1975.44;579.608;3.23
1135;1945.84;553.972;3.23
1136;1963.24;583.514;3.23
1137;1997.72;577.654;3.23
1138;2012.37;575.701;3.23
1139;2017.56;557.878;3.23
1140;2009.93;593.524;3.23
1141;1982.77;575.701;3.23
1142;1973;597.43;3.23
1143;1990.4;561.785;3.24
1144;2032.21;567.888;3.24
1145;2049.6;587.42;3.24
1146;2061.81;559.832;3.24
1147;2044.72;573.748;3.24
1148;2012.37;565.935;3.24
1149;1987.65;585.467;3.24
1150;2002.61;577.654;3.24
1151;2020;565.935;3.24
1152;2027.33;553.972;3.24
1153;2020;571.795;3.24
1154;1992.84;587.42;3.24
1155;1955.61;555.925;3.24
1156;1953.17;575.701;3.24
1157;1990.4;581.561;3.24
1158;2009.93;575.701;3.24
1159;2020;555.925;3.24
1160;2017.56;571.795;3.24
1161;1995.28;577.654;3.25
1162;1970.56;595.477;3.25
1163;1992.84;575.701;3.25
1164;2032.21;561.785;3.25
1165;2052.05;589.618;3.25
1166;2059.37;565.935;3.25
1167;2047.16;565.935;3.25
1168;2012.37;571.795;3.25
1169;1987.65;587.42;3.25
1170;2002.61;575.701;3.25
1171;2020;565.935;3.25
1172;2027.33;550.066;3.25
1173;2022.44;577.654;3.25
1174;1990.4;581.561;3.25
1175;1953.17;553.972;3.25
1176;1948.28;579.608;3.25
1177;1990.4;577.654;3.25
1178;2007.49;575.701;3.26
1179;2017.56;555.925;3.26
1180;2017.56;581.561;3.26
1181;1992.84;575.701;3.26
1182;1970.56;599.384;3.26
1183;1992.84;567.888;3.26
1184;2034.65;565.935;3.26
1185;2052.05;593.524;3.26
1186;2059.37;563.738;3.26
1187;2044.72;567.888;3.26
1188;2012.37;567.888;3.26
1189;1985.21;587.42;3.26
1190;2005.05;561.785;3.26
1191;2020;567.888;3.26
1192;2027.33;546.159;3.26
1193;2020;585.467;3.26
1194;1992.84;579.608;3.26
1195;1953.17;552.019;3.26
1196;1953.17;585.467;3.27
1197;1992.84;573.748;3.27
1198;2007.49;575.701;3.27
1199;2017.56;555.925;3.27
1200;2014.81;591.571;3.27
1201;1992.84;571.795;3.27
1202;1973;597.43;3.27
1203;1995.28;563.738;3.27
1204;2032.21;565.935;3.27
1205;2049.6;589.618;3.27
1206;2056.93;559.832;3.27
1207;2044.72;571.795;3.27
1208;2009.93;569.842;3.27
1209;1985.21;587.42;3.27
1210;2002.61;553.972;3.27
1211;2020;565.935;3.27
1212;2024.88;553.972;3.27
1213;2017.56;569.842;3.27
1214;1987.65;585.467;3.28
1215;1950.72;555.925;3.28
1216;1953.17;577.654;3.28
1217;1990.4;581.561;3.28
1218;2007.49;573.748;3.28
1219;2014.81;555.925;3.28
1220;2014.81;571.795;3.28
1221;1990.4;577.654;3.28
1222;1968.12;591.571;3.28
1223;1995.28;573.748;3.28
1224;2032.21;559.832;3.28
1225;2049.6;589.618;3.28
1226;2061.81;567.888;3.28
1227;2041.97;565.935;3.28
1228;2009.93;569.842;3.28
1229;1987.65;585.467;3.28
1230;2002.61;575.701;3.29
1231;2017.56;565.935;3.29
1232;2027.33;550.066;3.29
1233;2017.56;575.701;3.29
1234;1985.21;581.561;3.29
1235;1950.72;555.925;3.29
1236;1950.72;579.608;3.29
1237;1987.65;579.608;3.29
1238;2007.49;573.748;3.29
1239;2017.56;555.925;3.29
1240;2009.93;577.654;3.29
1241;1987.65;575.701;3.29
1242;1968.12;597.43;3.29
1243;1987.65;569.842;3.29
1244;2029.77;561.785;3.29
1245;2047.16;591.571;3.29
1246;2054.49;565.935;3.29
1247;2037.09;567.888;3.3
1248;2005.05;569.842;3.3
1249;1982.77;587.42;3.3
1250;2000.16;563.738;3.3
1251;2017.56;563.738;3.3
1252;2022.44;544.206;3.3
1253;2014.81;581.561;3.3
1254;1985.21;577.654;3.3
1255;1945.84;552.019;3.3
1256;1948.28;581.561;3.3
1257;1987.65;573.748;3.3
1258;2005.05;575.701;3.3
1259;2014.81;553.972;3.3
1260;2009.93;589.618;3.3
1261;1985.21;573.748;3.3
1262;1965.68;601.337;3.3
1263;1990.4;561.785;3.31
1264;2029.77;565.935;3.31
1265;2047.16;593.524;3.31
1266;2054.49;557.878;3.31
1267;2039.53;569.842;3.31
1268;2005.05;565.935;3.31
1269;1982.77;587.42;3.31
1270;2000.16;553.972;3.31
1271;2014.81;567.888;3.31
1272;2020;548.112;3.31
1273;2012.37;575.701;3.31
1274;1982.77;579.608;3.31
1275;1948.28;553.972;3.31
1276;1950.72;579.608;3.31
1277;1985.21;575.701;3.31
1278;2002.61;575.701;3.31
1279;2012.37;555.925;3.31
1280;2007.49;583.514;3.32
1281;1985.21;575.701;3.32
1282;1963.24;599.384;3.32
1283;1990.4;567.888;3.32
1284;2029.77;563.738;3.32
1285;2044.72;591.571;3.32
1286;2052.05;561.785;3.32
1287;2034.65;569.842;3.32
1288;2002.61;567.888;3.32
1289;1980.33;585.467;3.32
1290;1997.72;557.878;3.32
1291;2014.81;567.888;3.32
1292;2020;546.159;3.32
1293;2009.93;585.467;3.32
1294;1980.33;577.654;3.32
1295;1945.84;552.019;3.32
1296;1948.28;583.514;3.33
1297;1985.21;573.748;3.33
1298;2002.61;575.701;3.33
1299;2007.49;557.878;3.33
1300;2002.61;593.524;3.33
1301;1980.33;571.795;3.33
1302;1960.49;597.43;3.33
1303;1992.84;561.785;3.33
1304;2027.33;555.925;3.33
1305;2047.16;585.467;3.33
1306;2054.49;569.842;3.33
1307;2037.09;561.785;3.33
1308;2005.05;569.842;3.33
1309;1982.77;585.467;3.33
1310;2000.16;577.654;3.33
1311;2014.81;567.888;3.33
1312;2020;550.066;3.33
1313;2009.93;569.842;3.34
1314;1977.89;583.514;3.34
1315;1943.4;557.878;3.34
1316;1943.4;573.748;3.34
1317;1980.33;579.608;3.34
1318;1995.28;569.842;3.34
1319;2005.05;557.878;3.34
1320;2000.16;569.842;3.34
1321;1977.89;575.701;3.34
1322;1955.61;593.524;3.34
1323;1987.65;571.795;3.34
1324;2027.33;559.832;3.34
1325;2041.97;587.42;3.34
1326;2049.6;567.888;3.34
1327;2029.77;565.935;3.34
1328;2000.16;569.842;3.34
1329;1980.33;585.467;3.35
1330;1997.72;571.795;3.35
1331;2012.37;567.888;3.35
1332;2014.81;542.009;3.35
1333;2005.05;579.608;3.35
1334;1975.44;579.608;3.35
1335;1936.08;553.972;3.35
1336;1943.4;579.608;3.35
1337;1980.33;575.701;3.35
1338;1995.28;573.748;3.35
1339;2005.05;557.878;3.35
1340;2000.16;581.561;3.35
1341;1977.89;575.701;3.35
1342;1955.61;599.384;3.35
1343;1985.21;563.738;3.35
1344;2022.44;565.935;3.35
1345;2041.97;589.618;3.36
1346;2047.16;561.785;3.36
1347;2032.21;567.888;3.36
1348;1995.28;567.888;3.36
1349;1977.89;585.467;3.36
1350;1997.72;557.878;3.36
1351;2007.49;569.842;3.36
1352;2009.93;544.206;3.36
1353;2000.16;581.561;3.36
1354;1970.56;577.654;3.36
1355;1933.33;553.972;3.36
1356;1940.96;585.467;3.36
1357;1975.44;573.748;3.36
1358;1990.4;575.701;3.36
1359;2000.16;555.925;3.36
1360;1995.28;591.571;3.36
1361;1970.56;571.795;3.37
1362;1950.72;601.337;3.37
1363;1985.21;559.832;3.37
1364;2022.44;567.888;3.37
1365;2037.09;589.618;3.37
1366;2047.16;569.842;3.37
1367;2027.33;559.832;3.37
1368;1995.28;569.842;3.37
1369;1977.89;583.514;3.37
1370;1995.28;575.701;3.37
1371;2007.49;563.738;3.37
1372;2009.93;552.019;3.37
1373;2002.61;569.842;3.37
1374;1970.56;585.467;3.37
1375;1936.08;557.878;3.37
1376;1940.96;571.795;3.37
1377;1977.89;581.561;3.37
1378;1990.4;571.795;3.38
1379;2000.16;555.925;3.38
1380;1997.72;567.888;3.38
1381;1973;575.701;3.38
1382;1953.17;593.524;3.38
1383;1985.21;573.748;3.38
1384;2022.44;559.832;3.38
1385;2037.09;585.467;3.38
1386;2044.72;565.935;3.38
1387;2024.88;565.935;3.38
1388;1992.84;569.842;3.38
1389;1975.44;585.467;3.38
1390;1992.84;571.795;3.38
1391;2007.49;567.888;3.38
1392;2012.37;546.159;3.38
1393;2002.61;575.701;3.38
1394;1968.12;581.561;3.39
1395;1930.89;555.925;3.39
1396;1940.96;579.608;3.39
1397;1977.89;575.701;3.39
1398;1992.84;571.795;3.39
1399;2000.16;555.925;3.39
1400;1992.84;579.608;3.39
1401;1970.56;571.795;3.39
1402;1950.72;595.477;3.39
1403;1987.65;565.935;3.39
1404;2020;561.785;3.39
1405;2037.09;589.618;3.39
1406;2041.97;561.785;3.39
1407;2024.88;569.842;3.39
1408;1987.65;565.935;3.39
1409;1975.44;585.467;3.39
1410;1995.28;561.785;3.39
1411;2005.05;567.888;3.4
1412;2007.49;542.009;3.4
1413;1997.72;579.608;3.4
1414;1965.68;577.654;3.4
1415;1928.45;552.019;3.4
1416;1938.52;583.514;3.4
1417;1973;573.748;3.4
1418;1987.65;573.748;3.4
1419;1995.28;553.972;3.4
1420;1987.65;589.618;3.4
1421;1965.68;573.748;3.4
1422;1948.28;599.384;3.4
1423;1982.77;561.785;3.4
1424;2014.81;567.888;3.4
1425;2034.65;589.618;3.4
1426;2039.53;557.878;3.4
1427;2022.44;567.888;3.4
1428;1987.65;567.888;3.41
1429;1970.56;585.467;3.41
1430;1987.65;569.842;3.41
1431;2002.61;565.935;3.41
1432;2005.05;544.206;3.41
1433;1997.72;577.654;3.41
1434;1963.24;579.608;3.41
1435;1926;552.019;3.41
1436;1938.52;579.608;3.41
1437;1975.44;573.748;3.41
1438;1985.21;573.748;3.41
1439;1992.84;553.972;3.41
1440;1985.21;583.514;3.41
1441;1963.24;573.748;3.41
1442;1945.84;599.384;3.41
1443;1985.21;563.738;3.41
1444;2020;563.738;3.42
1445;2029.77;589.618;3.42
1446;2037.09;561.785;3.42
1447;2020;567.888;3.42
1448;1985.21;563.738;3.42
1449;1973;583.514;3.42
1450;1990.4;555.925;3.42
1451;2000.16;565.935;3.42
1452;2002.61;542.009;3.42
1453;1992.84;587.42;3.42
1454;1958.05;573.748;3.42
1455;1921.12;550.066;3.42
1456;1933.33;583.514;3.42
1457;1968.12;573.748;3.42
1458;1982.77;575.701;3.42
1459;1987.65;555.925;3.42
1460;1977.89;565.935;3.43
1461;1955.61;575.701;3.43
1462;1943.4;587.42;3.43
1463;1980.33;577.654;3.43
1464;2012.37;553.972;3.43
1465;2029.77;583.514;3.43
1466;2037.09;567.888;3.43
1467;2017.56;561.785;3.43
1468;1985.21;567.888;3.43
1469;1968.12;579.608;3.43
1470;1990.4;575.701;3.43
1471;2000.16;563.738;3.43
1472;2002.61;552.019;3.43
1473;1992.84;569.842;3.43
1474;1955.61;581.561;3.43
1475;1921.12;553.972;3.43
1476;1930.89;573.748;3.43
1477;1965.68;579.608;3.44
1478;1977.89;569.842;3.44
1479;1985.21;553.972;3.44
1480;1980.33;571.795;3.44
1481;1953.17;571.795;3.44
1482;1938.52;595.477;3.44
1483;1977.89;569.842;3.44
1484;2012.37;559.832;3.44
1485;2029.77;585.467;3.44
1486;2034.65;565.935;3.44
1487;2012.37;565.935;3.44
1488;1982.77;569.842;3.44
1489;1968.12;583.514;3.44
1490;1985.21;569.842;3.44
1491;1997.72;563.738;3.44
1492;2000.16;546.159;3.44
1493;1987.65;577.654;3.45
1494;1953.17;579.608;3.45
1495;1918.68;550.066;3.45
1496;1930.89;577.654;3.45
1497;1965.68;573.748;3.45
1498;1980.33;573.748;3.45
1499;1987.65;553.972;3.45
1500;1977.89;581.561;3.45
1501;1953.17;571.795;3.45
1502;1940.96;597.43;3.45
1503;1977.89;565.935;3.45
1504;2009.93;561.785;3.45
1505;2024.88;589.618;3.45
1506;2027.33;561.785;3.45
1507;2009.93;565.935;3.45
1508;1975.44;567.888;3.45
1509;1960.49;583.514;3.45
1510;1982.77;555.925;3.46
1511;1992.84;565.935;3.46
1512;1992.84;540.056;3.46
1513;1985.21;581.561;3.46
1514;1948.28;575.701;3.46
1515;1911.36;553.972;3.46
1516;1926;583.514;3.46
1517;1960.49;571.795;3.46
1518;1973;573.748;3.46
1519;1982.77;555.925;3.46
1520;1975.44;587.42;3.46
1521;1948.28;569.842;3.46
1522;1936.08;585.467;3.46
1523;1977.89;577.654;3.46
1524;2007.49;555.925;3.46
1525;2024.88;579.608;3.46
1526;2029.77;567.888;3.46
1527;2007.49;559.832;3.47
1528;1975.44;567.888;3.47
1529;1960.49;581.561;3.47
1530;1980.33;575.701;3.47
1531;1987.65;561.785;3.47
1532;1992.84;550.066;3.47
1533;1977.89;567.888;3.47
1534;1940.96;583.514;3.47
1535;1908.91;553.972;3.47
1536;1923.56;573.748;3.47
1537;1958.05;579.608;3.47
1538;1970.56;569.842;3.47
1539;1977.89;553.972;3.47
1540;1970.56;569.842;3.47
1541;1945.84;571.795;3.47
1542;1933.33;589.618;3.47
1543;1955.61;571.795;3.47
1544;2000.16;559.832;3.48
1545;2020;587.42;3.48
1546;2027.33;563.738;3.48
1547;2014.81;563.738;3.48
1548;1987.65;567.888;3.48
1549;1960.49;581.561;3.48
1550;1970.56;571.795;3.48
1551;1985.21;565.935;3.48
1552;1992.84;544.206;3.48
1553;1985.21;573.748;3.48
1554;1955.61;579.608;3.48
1555;1918.68;550.066;3.48
1556;1908.91;577.654;3.48
1557;1948.28;575.701;3.48
1558;1965.68;571.795;3.48
1559;1975.44;553.972;3.48
1560;1975.44;581.561;3.49
1561;1955.61;571.795;3.49
1562;1933.33;597.43;3.49
1563;1953.17;563.738;3.49
1564;1995.28;563.738;3.49
1565;2014.81;589.618;3.49
1566;2027.33;561.785;3.49
1567;2014.81;565.935;3.49
1568;1982.77;565.935;3.49
1569;1958.05;583.514;3.49
1570;1970.56;555.925;3.49
1571;1985.21;565.935;3.49
1572;1987.65;544.206;3.49
1573;1982.77;581.561;3.49
1574;1953.17;575.701;3.49
1575;1916.24;552.019;3.49
1576;1908.91;581.561;3.49
1577;1943.4;575.701;3.49
1578;1963.24;573.748;3.5
1579;1973;555.925;3.5
1580;1970.56;589.618;3.5
1581;1948.28;573.748;3.5
1582;1928.45;597.43;3.5
1583;1953.17;557.878;3.5
1584;1995.28;561.785;3.5
1585;2012.37;589.618;3.5
1586;2024.88;565.935;3.5
1587;2014.81;565.935;3.5
1588;1982.77;567.888;3.5
1589;1958.05;585.467;3.5
1590;1968.12;565.935;3.5
1591;1982.77;565.935;3.5
1592;1985.21;542.009;3.5
1593;1980.33;577.654;3.5
1594;1950.72;577.654;3.5
1595;1908.91;548.112;3.51
1596;1906.17;579.608;3.51
1597;1940.96;573.748;3.51
1598;1960.49;571.795;3.51
1599;1968.12;553.972;3.51
1600;1965.68;583.514;3.51
1601;1945.84;571.795;3.51
1602;1926;595.477;3.51
1603;1953.17;561.785;3.51
1604;1992.84;561.785;3.51
1605;2009.93;589.618;3.51
1606;2022.44;557.878;3.51
1607;2007.49;565.935;3.51
1608;1977.89;563.738;3.51
1609;1953.17;581.561;3.51
1610;1968.12;553.972;3.51
1611;1980.33;563.738;3.51
1612;1985.21;540.056;3.52
1613;1975.44;585.467;3.52
1614;1945.84;571.795;3.52
1615;1906.17;557.878;3.52
1616;1903.73;569.842;3.52
1617;1940.96;583.514;3.52
1618;1958.05;569.842;3.52
1619;1965.68;555.925;3.52
1620;1965.68;563.738;3.52
1621;1945.84;573.748;3.52
1622;1926;585.467;3.52
1623;1950.72;573.748;3.52
1624;1990.4;553.972;3.52
1625;2009.93;581.561;3.52
1626;2017.56;565.935;3.52
1627;2005.05;561.785;3.52
1628;1973;569.842;3.52
1629;1948.28;579.608;3.53
1630;1960.49;573.748;3.53
1631;1975.44;563.738;3.53
1632;1980.33;548.112;3.53
1633;1970.56;569.842;3.53
1634;1940.96;581.561;3.53
1635;1906.17;555.925;3.53
1636;1903.73;573.748;3.53
1637;1938.52;575.701;3.53
1638;1955.61;567.888;3.53
1639;1963.24;555.925;3.53
1640;1965.68;569.842;3.53
1641;1940.96;571.795;3.53
1642;1923.56;593.524;3.53
1643;1948.28;567.888;3.53
1644;1987.65;559.832;3.53
1645;2009.93;583.514;3.53
1646;2017.56;563.738;3.53
1647;2005.05;565.935;3.54
1648;1970.56;569.842;3.54
1649;1948.28;577.654;3.54
1650;1963.24;565.935;3.54
1651;1977.89;563.738;3.54
1652;1980.33;542.009;3.54
1653;1968.12;577.654;3.54
1654;1940.96;577.654;3.54
1655;1901.28;548.112;3.54
1656;1898.84;579.608;3.54
1657;1936.08;573.748;3.54
1658;1953.17;571.795;3.54
1659;1960.49;555.925;3.54
1660;1960.49;581.561;3.54
1661;1938.52;571.795;3.54
1662;1918.68;595.477;3.54
1663;1948.28;561.785;3.54
1664;1985.21;561.785;3.54
1665;2002.61;587.42;3.55
1666;2014.81;557.878;3.55
1667;1997.72;565.935;3.55
1668;1968.12;563.738;3.55
1669;1943.4;581.561;3.55
1670;1958.05;552.019;3.55
1671;1973;567.888;3.55
1672;1975.44;542.009;3.55
1673;1968.12;581.561;3.55
1674;1938.52;571.795;3.55
1675;1898.84;550.066;3.55
1676;1898.84;583.514;3.55
1677;1936.08;583.514;3.55
1678;1950.72;567.888;3.55
1679;1960.49;555.925;3.55
1680;1955.61;565.935;3.55
1681;1938.52;575.701;3.55
1682;1916.24;585.467;3.56
1683;1945.84;575.701;3.56
1684;1982.77;553.972;3.56
1685;2000.16;579.608;3.56
1686;2009.93;565.935;3.56
1687;1992.84;559.832;3.56
1688;1963.24;567.888;3.56
1689;1940.96;579.608;3.56
1690;1955.61;573.748;3.56
1691;1970.56;563.738;3.56
1692;1970.56;548.112;3.56
1693;1963.24;567.888;3.56
1694;1930.89;581.561;3.56
1695;1891.52;552.019;3.56
1696;1891.52;573.748;3.56
1697;1930.89;575.701;3.56
1698;1945.84;567.888;3.56
1699;1955.61;553.972;3.56
1700;1950.72;567.888;3.57
1701;1928.45;571.795;3.57
1702;1911.36;591.571;3.57
1703;1940.96;571.795;3.57
1704;1980.33;557.878;3.57
1705;1995.28;585.467;3.57
1706;2002.61;561.785;3.57
1707;1990.4;565.935;3.57
1708;1958.05;565.935;3.57
1709;1938.52;581.561;3.57
1710;1950.72;565.935;3.57
1711;1963.24;561.785;3.57
1712;1968.12;544.206;3.57
1713;1958.05;575.701;3.57
1714;1926;575.701;3.57
1715;1889.08;550.066;3.57
1716;1893.96;577.654;3.57
1717;1928.45;573.748;3.57
1718;1943.4;571.795;3.57
1719;1953.17;553.972;3.58
1720;1948.28;581.561;3.58
1721;1926;569.842;3.58
1722;1908.91;595.477;3.58
1723;1940.96;563.738;3.58
1724;1977.89;561.785;3.58
1725;1995.28;587.42;3.58
1726;2002.61;557.878;3.58
1727;1985.21;565.935;3.58
1728;1955.61;563.738;3.58
1729;1933.33;583.514;3.58
1730;1948.28;555.925;3.58
1731;1958.05;563.738;3.58
1732;1965.68;542.009;3.58
1733;1955.61;581.561;3.58
1734;1923.56;575.701;3.58
1735;1884.19;548.112;3.58
1736;1891.52;583.514;3.58
1737;1928.45;571.795;3.58
1738;1938.52;565.935;3.59
1739;1948.28;553.972;3.59
1740;1948.28;571.795;3.59
1741;1926;569.842;3.59
1742;1906.17;591.571;3.59
1743;1938.52;563.738;3.59
1744;1975.44;557.878;3.59
1745;1992.84;585.467;3.59
1746;2000.16;559.832;3.59
1747;1985.21;565.935;3.59
1748;1955.61;565.935;3.59
1749;1933.33;581.561;3.59
1750;1948.28;559.832;3.59
1751;1960.49;563.738;3.59
1752;1963.24;542.009;3.59
1753;1953.17;579.608;3.59
1754;1921.12;573.748;3.59
1755;1884.19;548.112;3.59
1756;1891.52;577.654;3.59
1757;1926;571.795;3.6
1758;1943.4;569.842;3.6
1759;1948.28;552.019;3.6
1760;1945.84;585.467;3.6
1761;1921.12;569.842;3.6
1762;1906.17;595.477;3.6
1763;1938.52;561.785;3.6
1764;1970.56;561.785;3.6
1765;1987.65;587.42;3.6
1766;1992.84;555.925;3.6
1767;1977.89;565.935;3.6
1768;1945.84;561.785;3.6
1769;1926;577.654;3.6
1770;1943.4;575.701;3.6
1771;1955.61;561.785;3.6
1772;1960.49;552.019;3.6
1773;1950.72;563.738;3.6
1774;1918.68;585.467;3.6
1775;1886.64;553.972;3.6
1776;1891.52;569.842;3.61
1777;1926;579.608;3.61
1778;1940.96;567.888;3.61
1779;1945.84;555.925;3.61
1780;1943.4;567.888;3.61
1781;1921.12;575.701;3.61
1782;1903.73;587.42;3.61
1783;1936.08;571.795;3.61
1784;1968.12;555.925;3.61
1785;1985.21;583.514;3.61
1786;1990.4;565.935;3.61
1787;1973;561.785;3.61
1788;1943.4;567.888;3.61
1789;1923.56;581.561;3.61
1790;1943.4;571.795;3.61
1791;1953.17;561.785;3.61
1792;1958.05;546.159;3.61
1793;1948.28;569.842;3.61
1794;1918.68;579.608;3.61
1795;1881.75;552.019;3.62
1796;1889.08;571.795;3.62
1797;1926;573.748;3.62
1798;1936.08;569.842;3.62
1799;1945.84;553.972;3.62
1800;1940.96;571.795;3.62
1801;1918.68;571.795;3.62
1802;1901.28;593.524;3.62
1803;1930.89;567.888;3.62
1804;1968.12;557.878;3.62
1805;1985.21;585.467;3.62
1806;1987.65;561.785;3.62
1807;1973;563.738;3.62
1808;1938.52;565.935;3.62
1809;1923.56;581.561;3.62
1810;1940.96;561.785;3.62
1811;1950.72;563.738;3.62
1812;1955.61;542.009;3.62
1813;1945.84;575.701;3.62
1814;1913.8;575.701;3.63
1815;1876.56;548.112;3.63
1816;1884.19;577.654;3.63
1817;1923.56;571.795;3.63
1818;1936.08;571.795;3.63
1819;1943.4;552.019;3.63
1820;1938.52;583.514;3.63
1821;1916.24;569.842;3.63
1822;1896.4;595.477;3.63
1823;1930.89;559.832;3.63
1824;1965.68;559.832;3.63
1825;1980.33;585.467;3.63
1826;1985.21;555.925;3.63
1827;1968.12;563.738;3.63
1828;1938.52;561.785;3.63
1829;1918.68;581.561;3.63
1830;1938.52;553.972;3.63
1831;1948.28;559.832;3.63
1832;1950.72;552.019;3.63
1833;1940.96;561.785;3.64
1834;1908.91;585.467;3.64
1835;1874.12;553.972;3.64
1836;1884.19;567.888;3.64
1837;1916.24;579.608;3.64
1838;1928.45;567.888;3.64
1839;1938.52;553.972;3.64
1840;1933.33;563.738;3.64
1841;1908.91;573.748;3.64
1842;1891.52;583.514;3.64
1843;1926;573.748;3.64
1844;1958.05;553.972;3.64
1845;1975.44;583.514;3.64
1846;1980.33;565.935;3.64
1847;1965.68;561.785;3.64
1848;1930.89;565.935;3.64
1849;1913.8;579.608;3.64
1850;1933.33;571.795;3.64
1851;1945.84;561.785;3.64
1852;1948.28;548.112;3.64
1853;1938.52;569.842;3.65
1854;1906.17;577.654;3.65
