<WeldAnalyseData xmlns:i="http:www.w3.org/2001/XMLSchema-instance">
<WeldParameter>
<TimeStamp>DT#2023-12-05-14:23:15</TimeStamp>
<Generator>SG-22-10000</Generator>
<GenFreq>20</GenFreq>
<MaxForce>8000</MaxForce>
<MaxPower>10000</MaxPower>
<RunupPressure>1.5</RunupPressure>
<RunupDist>10</RunupDist>
<RunPress>0.8</RunPress>
<ShakeDelay>0.03</ShakeDelay>
<ShakeTime>0.3</ShakeTime>
<RunBackPress1>6</RunBackPress1>
<RunBackPress2>2</RunBackPress2>
<RunBackDist>1</RunBackDist>
<TrigValue>500</TrigValue>
<TrigModeUnit>W</TrigModeUnit>
<WeldModeUnit>Ws</WeldModeUnit>
<PressNr>0</PressNr>
<MaxLoss>1500</MaxLoss>
</WeldParameter>
<WeldSets>
<WeldSet>
<PressRiseTime>0</PressRiseTime>
<RunPressure>1</RunPressure>
<Amplitude>86</Amplitude>
<WeldMode>3270</WeldMode>
</WeldSet>
</WeldSets>
<WeldValue>
<WeldNr>2411</WeldNr>
<RecipeName>RickStyle</RecipeName>
<WeldTime>1828</WeldTime>
<DistDiff>3.79</DistDiff>
<DistAbs>78.3</DistAbs>
<Energy>3270.69</Energy>
<MaxPower>2044.84</MaxPower>
<CycleTime>6110</CycleTime>
<TrigForce>502.701</TrigForce>
<TrigDist>74.51</TrigDist>
<RunSpeed>68.2951</RunSpeed>
<MaxForce>605.243</MaxForce>
<LossPower>248.936</LossPower>
</WeldValue>
</WeldAnalyseData>
#CSV-START#
ms;Power[W];Force[N];Distance[mm]
1;0;0;0
2;0;500.748;0
3;0;500.748;0
4;0;502.701;0
5;0;500.748;0
6;0;502.701;0
7;0;500.748;0
8;0;490.738;0
9;0;470.962;0.00999451
10;2.84203;453.383;0.0199966
11;25.1205;435.56;0.0299988
12;39.7694;437.513;0.0499954
13;59.6064;427.503;0.0699997
14;81.885;415.784;0.0799942
15;116.371;423.597;0.0999985
16;150.857;417.737;0.110001
17;185.343;407.971;0.129997
18;215.251;401.868;0.150002
19;239.666;407.971;0.159996
20;264.386;401.868;0.18
21;291.547;415.784;0.189995
22;328.78;399.915;0.209999
23;360.824;399.915;0.220001
24;392.869;413.831;0.229996
25;412.706;397.961;0.25
26;437.426;399.915;0.259995
27;449.633;401.868;0.279999
28;467.029;407.971;0.290001
29;484.119;397.961;0.299995
30;499.073;405.774;0.32
31;511.28;396.008;0.329994
32;521.352;421.644;0.339996
33;523.793;413.831;0.349998
34;521.352;399.915;0.369995
35;533.559;417.737;0.379997
36;548.513;409.925;0.389999
37;555.837;409.925;0.409996
38;560.72;401.868;0.419998
39;563.162;417.737;0.43
40;563.162;411.878;0.439995
41;568.045;427.503;0.459999
42;585.44;403.821;0.470001
43;592.765;415.784;0.479996
44;600.394;429.456;0.489998
45;600.394;411.878;0.5
46;592.765;419.691;0.509995
47;582.999;423.597;0.519997
48;578.116;431.654;0.529999
49;578.116;419.691;0.540001
50;578.116;423.597;0.549995
51;578.116;411.878;0.57
52;575.674;445.326;0.579994
53;570.792;431.654;0.589996
54;563.162;419.691;0.599998
55;570.792;443.373;0.610001
56;585.44;433.607;0.619995
57;592.765;435.56;0.629997
58;595.206;425.55;0.639999
59;595.206;441.42;0.650002
60;600.394;435.56;0.669998
61;605.277;455.336;0.68
62;625.114;421.644;0.689995
63;639.763;439.467;0.699997
64;647.088;451.186;0.709999
65;652.276;427.503;0.720001
66;652.276;445.326;0.729996
67;647.088;441.42;0.739998
68;642.205;455.336;0.75
69;644.646;439.467;0.759995
70;647.088;445.326;0.769997
71;644.646;435.56;0.779999
72;642.205;469.008;0.790001
73;632.439;453.383;0.790001
74;625.114;445.326;0.799995
75;632.439;470.962;0.809998
76;644.646;457.289;0.82
77;652.276;459.243;0.829994
78;652.276;451.186;0.839996
79;654.717;467.055;0.849998
80;654.717;461.196;0.860001
81;657.159;477.065;0.869995
82;676.691;459.243;0.869995
83;689.203;457.289;0.879997
84;696.528;475.112;0.889999
85;698.969;455.336;0.900002
86;696.528;463.149;0.909996
87;689.203;465.102;0.919998
88;689.203;472.915;0.919998
89;691.645;459.243;0.93
90;696.528;467.055;0.939995
91;696.528;453.383;0.949997
92;696.528;477.065;0.959999
93;686.762;472.915;0.959999
94;679.437;457.289;0.970001
95;689.203;479.019;0.979996
96;701.411;472.915;0.989998
97;709.04;475.112;1
98;713.923;465.102;1
99;713.923;484.878;1.00999
100;711.482;475.112;1.02
101;713.923;494.644;1.03
102;733.76;465.102;1.04
103;743.526;475.112;1.04
104;750.851;490.738;1.05
105;750.851;470.962;1.06
106;745.968;477.065;1.07
107;733.76;479.019;1.07
108;723.689;486.831;1.07999
109;726.131;470.962;1.09
110;726.131;480.972;1.1
111;726.131;465.102;1.1
112;721.248;498.795;1.11
113;711.482;486.831;1.12
114;703.852;472.915;1.12
115;716.365;494.644;1.13
116;726.131;484.878;1.14
117;731.014;484.878;1.15
118;736.202;475.112;1.15
119;736.202;494.644;1.16
120;731.014;484.878;1.17
121;738.643;502.701;1.18
122;755.734;467.055;1.18
123;770.688;484.878;1.18999
124;778.012;494.644;1.2
125;780.454;469.008;1.2
126;773.129;484.878;1.21
127;768.246;479.019;1.22
128;763.363;494.644;1.23
129;768.246;479.019;1.23
130;773.129;486.831;1.24
131;775.571;467.055;1.25
132;775.571;502.701;1.25999
133;768.246;486.831;1.25999
134;758.175;475.112;1.27
135;758.175;498.795;1.28
136;775.571;482.925;1.29
137;782.895;486.831;1.3
138;785.337;470.962;1.31
139;790.525;490.738;1.31
140;790.525;484.878;1.32
141;785.337;498.795;1.32999
142;805.174;472.915;1.34
143;822.569;479.019;1.35
144;829.894;492.691;1.36
145;834.777;470.962;1.37
146;837.218;482.925;1.38
147;825.011;480.972;1.38
148;817.686;490.738;1.39
149;825.011;470.962;1.4
150;827.452;479.019;1.41
151;834.777;463.149;1.42
152;834.777;498.795;1.43
153;825.011;482.925;1.43
154;810.057;470.962;1.43999
155;815.245;494.644;1.45
156;834.777;479.019;1.46
157;842.406;480.972;1.47
158;847.289;469.008;1.48
159;849.731;486.831;1.49
160;847.289;479.019;1.5
161;839.66;494.644;1.50999
162;859.497;459.243;1.52
163;874.451;477.065;1.53
164;879.334;486.831;1.54
165;884.217;461.196;1.55
166;879.334;477.065;1.56
167;872.009;472.915;1.57
168;861.938;484.878;1.57999
169;866.821;467.055;1.59
170;874.451;475.112;1.6
171;876.892;461.196;1.61
172;876.892;477.065;1.62
173;866.821;480.972;1.63
174;849.731;463.149;1.64
175;852.172;480.972;1.65
176;869.568;477.065;1.66
177;876.892;475.112;1.67
178;879.334;469.008;1.67
179;881.775;484.878;1.68
180;876.892;477.065;1.68999
181;872.009;490.738;1.7
182;886.658;472.915;1.71
183;901.612;472.915;1.72
184;911.378;488.784;1.73
185;913.82;467.055;1.74
186;908.937;475.112;1.75
187;896.729;472.915;1.75999
188;889.099;480.972;1.77
189;896.729;465.102;1.78
190;901.612;472.915;1.79
191;901.612;457.289;1.79
192;901.612;484.878;1.8
193;891.541;477.065;1.81
194;881.775;459.243;1.82
195;889.099;482.925;1.82999
196;906.495;475.112;1.84
197;918.703;477.065;1.85
198;926.332;465.102;1.86
199;931.215;486.831;1.87
200;928.774;475.112;1.88
201;928.774;490.738;1.89
202;953.494;463.149;1.89
203;973.025;470.962;1.9
204;987.979;484.878;1.91
205;995.304;459.243;1.92
206;997.745;470.962;1.93
207;992.862;467.055;1.93999
208;990.421;479.019;1.95
209;1002.63;461.196;1.96
210;1015.14;467.055;1.97
211;1024.91;451.186;1.98
212;1027.35;490.738;1.99
213;1022.47;475.112;2
214;1015.14;461.196;2.00999
215;1029.79;484.878;2.02
216;1059.7;472.915;2.02
217;1074.35;477.065;2.03
218;1091.74;461.196;2.04
219;1106.39;486.831;2.05
220;1108.83;475.112;2.06
221;1116.46;492.691;2.07
222;1148.51;457.289;2.07999
223;1175.67;475.112;2.09
224;1197.95;488.784;2.09
225;1215.04;461.196;2.1
226;1219.92;475.112;2.11
227;1212.6;475.112;2.12
228;1215.04;488.784;2.13
229;1237.32;467.055;2.14
230;1254.71;479.019;2.14
231;1271.8;463.149;2.15
232;1279.43;504.654;2.16
233;1274.24;488.784;2.17
234;1264.48;469.008;2.17
235;1284.31;490.738;2.18
236;1318.8;488.784;2.18999
237;1336.2;488.784;2.18999
238;1350.84;479.019;2.2
239;1368.24;500.748;2.21
240;1363.36;492.691;2.21
241;1363.36;514.42;2.22
242;1397.84;488.784;2.22
243;1427.45;488.784;2.23
244;1449.72;512.467;2.24
245;1461.93;486.831;2.24
246;1459.49;494.644;2.25
247;1442.4;496.597;2.25
248;1437.21;510.514;2.25999
249;1459.49;484.878;2.25999
250;1474.44;498.795;2.27
251;1484.21;479.019;2.28
252;1489.09;514.42;2.28
253;1474.44;512.467;2.29
254;1454.61;486.831;2.29
255;1472;516.373;2.3
256;1504.05;508.56;2.3
257;1518.7;510.514;2.31
258;1533.65;496.597;2.31
259;1540.97;524.43;2.32
260;1528.77;512.467;2.32
261;1526.33;532.243;2.32
262;1555.93;502.701;2.32999
263;1583.09;508.56;2.32999
264;1597.74;530.29;2.34
265;1607.81;500.748;2.34
266;1600.18;516.373;2.35
267;1573.02;510.514;2.35
268;1568.14;526.383;2.36
269;1592.86;496.597;2.36
270;1605.37;516.373;2.36
271;1610.25;492.691;2.37
272;1612.69;538.102;2.37
273;1590.41;522.477;2.38
274;1565.69;502.701;2.38
275;1590.41;532.243;2.39
276;1620.02;518.326;2.39
277;1634.97;524.43;2.39
278;1647.18;510.514;2.4
279;1649.62;540.056;2.4
280;1637.41;522.477;2.4
281;1627.34;546.159;2.41
282;1664.57;506.607;2.41
283;1689.29;522.477;2.41
284;1706.39;536.149;2.42
285;1716.46;508.56;2.42
286;1703.94;524.43;2.43
287;1676.78;524.43;2.43
288;1669.46;536.149;2.43
289;1689.29;510.514;2.43999
290;1701.5;524.43;2.43999
291;1708.83;508.56;2.43999
292;1703.94;552.019;2.43999
293;1679.22;530.29;2.45
294;1654.5;512.467;2.45
295;1669.46;542.009;2.45
296;1703.94;532.243;2.46
297;1716.46;536.149;2.46
298;1723.78;516.373;2.46
299;1723.78;550.066;2.47
300;1706.39;532.243;2.47
301;1696.62;557.878;2.47
302;1733.55;514.42;2.48
303;1758.27;528.336;2.48
304;1775.66;548.112;2.48
305;1778.1;516.373;2.49
306;1765.59;534.196;2.49
307;1735.99;528.336;2.49
308;1726.22;548.112;2.49
309;1746.06;518.326;2.5
310;1755.83;530.29;2.5
311;1763.15;514.42;2.5
312;1753.38;557.878;2.50999
313;1726.22;536.149;2.50999
314;1701.5;522.477;2.50999
315;1716.46;552.019;2.52
316;1750.94;538.102;2.52
317;1760.71;536.149;2.52
318;1770.78;524.43;2.52
319;1770.78;553.972;2.53
320;1750.94;538.102;2.53
321;1743.62;559.832;2.53
322;1780.55;514.42;2.54
323;1805.27;536.149;2.54
324;1819.91;550.066;2.54
325;1825.1;532.243;2.54
326;1810.15;532.243;2.55
327;1782.99;536.149;2.55
328;1770.78;552.019;2.55
329;1795.19;534.196;2.55
330;1810.15;534.196;2.56
331;1815.03;514.42;2.56
332;1805.27;546.159;2.56
333;1778.1;546.159;2.56
334;1750.94;522.477;2.57
335;1770.78;552.019;2.57
336;1802.82;544.206;2.57
337;1817.47;544.206;2.57999
338;1827.54;526.383;2.57999
339;1819.91;555.925;2.57999
340;1805.27;544.206;2.57999
341;1792.75;567.888;2.59
342;1829.99;532.243;2.59
343;1857.15;536.149;2.59
344;1874.24;559.832;2.59
345;1876.68;530.29;2.6
346;1859.59;540.056;2.6
347;1829.99;538.102;2.6
348;1817.47;555.925;2.6
349;1842.19;526.383;2.61
350;1852.26;540.056;2.61
351;1859.59;516.373;2.61
352;1852.26;557.878;2.61
353;1817.47;548.112;2.62
354;1790.31;524.43;2.62
355;1810.15;557.878;2.62
356;1844.63;544.206;2.62
357;1857.15;550.066;2.62
358;1864.47;530.29;2.63
359;1862.03;563.738;2.63
360;1837.31;546.159;2.63
361;1829.99;569.842;2.63
362;1866.91;530.29;2.64
363;1894.07;540.056;2.64
364;1909.03;561.785;2.64
365;1911.47;530.29;2.64
366;1891.63;544.206;2.64
367;1862.03;540.056;2.65
368;1852.26;559.832;2.65
369;1874.24;528.336;2.65
370;1884.31;546.159;2.65
371;1891.63;522.477;2.66
372;1876.68;567.888;2.66
373;1847.08;552.019;2.66
374;1817.47;534.196;2.66
375;1839.75;565.935;2.66
376;1871.8;548.112;2.67
377;1886.75;550.066;2.67
378;1896.52;536.149;2.67
379;1886.75;567.888;2.67
380;1862.03;548.112;2.67
381;1854.71;573.748;2.68
382;1894.07;524.43;2.68
383;1926.12;544.206;2.68
384;1943.51;561.785;2.68
385;1943.51;530.29;2.68999
386;1923.68;550.066;2.68999
387;1891.63;548.112;2.68999
388;1881.87;561.785;2.68999
389;1903.84;548.112;2.68999
390;1913.91;546.159;2.7
391;1916.35;526.383;2.7
392;1906.59;555.925;2.7
393;1869.35;559.832;2.7
394;1839.75;530.29;2.7
395;1862.03;561.785;2.7
396;1894.07;555.925;2.71
397;1909.03;555.925;2.71
398;1916.35;534.196;2.71
399;1906.59;565.935;2.71
400;1884.31;552.019;2.71
401;1879.43;579.608;2.72
402;1918.79;548.112;2.72
403;1948.4;546.159;2.72
404;1963.35;571.795;2.72
405;1968.23;542.009;2.72
406;1945.96;552.019;2.72
407;1913.91;550.066;2.73
408;1903.84;565.935;2.73
409;1928.56;538.102;2.73
410;1938.63;550.066;2.73
411;1938.63;526.383;2.73
412;1926.12;567.888;2.74
413;1891.63;557.878;2.74
414;1859.59;534.196;2.74
415;1886.75;569.842;2.74
416;1916.35;557.878;2.74
417;1933.75;559.832;2.74
418;1941.07;542.009;2.75
419;1931;577.654;2.75
420;1906.59;555.925;2.75
421;1901.4;583.514;2.75
422;1945.96;542.009;2.75
423;1975.56;552.019;2.75
424;1988.07;573.748;2.75999
425;1990.51;542.009;2.75999
426;1968.23;555.925;2.75999
427;1936.19;550.066;2.75999
428;1921.24;569.842;2.75999
429;1943.51;540.056;2.75999
430;1953.28;555.925;2.77
431;1953.28;536.149;2.77
432;1938.63;579.608;2.77
433;1903.84;561.785;2.77
434;1874.24;544.206;2.77
435;1901.4;575.701;2.77
436;1938.63;559.832;2.77
437;1953.28;563.738;2.78
438;1960.91;546.159;2.78
439;1953.28;579.608;2.78
440;1933.75;561.785;2.78
441;1928.56;585.467;2.78
442;1970.68;536.149;2.78
443;1997.84;557.878;2.79
444;2012.49;575.701;2.79
445;2012.49;540.056;2.79
446;1985.32;561.785;2.79
447;1950.84;553.972;2.79
448;1936.19;573.748;2.79
449;1958.16;542.009;2.79
450;1965.79;557.878;2.8
451;1968.23;534.196;2.8
452;1950.84;575.701;2.8
453;1916.35;567.888;2.8
454;1884.31;542.009;2.8
455;1913.91;579.608;2.8
456;1950.84;563.738;2.81
457;1965.79;567.888;2.81
458;1975.56;548.112;2.81
459;1968.23;583.514;2.81
460;1943.51;561.785;2.81
461;1938.63;587.42;2.81
462;1982.88;548.112;2.81
463;2007.6;557.878;2.82
464;2022.56;575.701;2.82
465;2022.56;548.112;2.82
466;1992.95;561.785;2.82
467;1958.16;557.878;2.82
468;1948.4;577.654;2.82
469;1968.23;548.112;2.82
470;1973.12;561.785;2.82999
471;1975.56;540.056;2.82999
472;1958.16;591.571;2.82999
473;1921.24;567.888;2.82999
474;1894.07;552.019;2.82999
475;1923.68;583.514;2.82999
476;1958.16;563.738;2.82999
477;1975.56;567.888;2.84
478;1980.44;552.019;2.84
479;1973.12;567.888;2.84
480;1950.84;567.888;2.84
481;1943.51;587.42;2.84
482;1985.32;563.738;2.84
483;2015.23;555.925;2.84
484;2027.44;585.467;2.85
485;2025;553.972;2.85
486;1995.4;559.832;2.85
487;1963.35;561.785;2.85
488;1950.84;577.654;2.85
489;1970.68;561.785;2.85
490;1978;561.785;2.85
491;1978;542.009;2.85
492;1958.16;573.748;2.86
493;1923.68;571.795;2.86
494;1894.07;546.159;2.86
495;1923.68;577.654;2.86
496;1958.16;571.795;2.86
497;1975.56;569.842;2.86
498;1982.88;552.019;2.86
499;1973.12;577.654;2.87
500;1948.4;571.795;2.87
501;1945.96;593.524;2.87
502;1988.07;561.785;2.87
503;2015.23;561.785;2.87
504;2027.44;587.42;2.87
505;2027.44;553.972;2.87
506;1995.4;565.935;2.87
507;1970.68;561.785;2.88
508;1953.28;581.561;2.88
509;1968.23;550.066;2.88
510;1978;563.738;2.88
511;1978;540.056;2.88
512;1965.79;581.561;2.88
513;1928.56;571.795;2.88
514;1896.52;548.112;2.88
515;1913.91;583.514;2.89
516;1950.84;567.888;2.89
517;1968.23;571.795;2.89
518;1978;553.972;2.89
519;1970.68;585.467;2.89
520;1950.84;567.888;2.89
521;1936.19;595.477;2.89
522;1975.56;553.972;2.89
523;2005.16;561.785;2.9
524;2022.56;583.514;2.9
525;2022.56;550.066;2.9
526;2000.28;567.888;2.9
527;1965.79;563.738;2.9
528;1945.96;579.608;2.9
529;1963.35;550.066;2.9
530;1973.12;565.935;2.9
531;1975.56;546.159;2.9
532;1960.91;589.618;2.91
533;1926.12;575.701;2.91
534;1894.07;553.972;2.91
535;1913.91;589.618;2.91
536;1953.28;567.888;2.91
537;1970.68;573.748;2.91
538;1982.88;555.925;2.91
539;1975.56;585.467;2.91
540;1953.28;571.795;2.91
541;1941.07;591.571;2.92
542;1978;569.842;2.92
543;2010.04;559.832;2.92
544;2020.12;585.467;2.92
545;2022.56;559.832;2.92
546;2000.28;565.935;2.92
547;1965.79;567.888;2.92
548;1943.51;581.561;2.92
549;1965.79;569.842;2.92
550;1975.56;563.738;2.93
551;1975.56;546.159;2.93
552;1960.91;577.654;2.93
553;1923.68;577.654;2.93
554;1894.07;550.066;2.93
555;1916.35;581.561;2.93
556;1953.28;573.748;2.93
557;1968.23;571.795;2.93
558;1980.44;553.972;2.93
559;1973.12;581.561;2.93999
560;1950.84;573.748;2.93999
561;1941.07;593.524;2.93999
562;1978;561.785;2.93999
563;2005.16;563.738;2.93999
564;2022.56;587.42;2.93999
565;2022.56;557.878;2.93999
566;1997.84;565.935;2.93999
567;1963.35;565.935;2.93999
568;1943.51;581.561;2.93999
569;1963.35;557.878;2.95
570;1973.12;565.935;2.95
571;1973.12;542.009;2.95
572;1958.16;583.514;2.95
573;1923.68;575.701;2.95
574;1891.63;552.019;2.95
575;1913.91;583.514;2.95
576;1953.28;573.748;2.95
577;1965.79;573.748;2.95
578;1975.56;555.925;2.95
579;1968.23;589.618;2.96
580;1948.4;569.842;2.96
581;1938.63;597.43;2.96
582;1975.56;557.878;2.96
583;2005.16;567.888;2.96
584;2020.12;587.42;2.96
585;2017.67;553.972;2.96
586;1995.4;569.842;2.96
587;1955.72;563.738;2.96
588;1943.51;583.514;2.96
589;1958.16;550.066;2.97
590;1968.23;569.842;2.97
591;1970.68;544.206;2.97
592;1953.28;591.571;2.97
593;1918.79;573.748;2.97
594;1886.75;552.019;2.97
595;1911.47;591.571;2.97
596;1948.4;571.795;2.97
597;1963.35;575.701;2.97
598;1973.12;555.925;2.98
599;1965.79;591.571;2.98
600;1945.96;571.795;2.98
601;1936.19;593.524;2.98
602;1973.12;563.738;2.98
603;2000.28;567.888;2.98
604;2015.23;589.618;2.98
605;2015.23;559.832;2.98
606;1992.95;569.842;2.98
607;1953.28;565.935;2.98
608;1938.63;583.514;2.99
609;1955.72;553.972;2.99
610;1963.35;567.888;2.99
611;1960.91;544.206;2.99
612;1943.51;585.467;2.99
613;1909.03;575.701;2.99
614;1874.24;552.019;2.99
615;1896.52;587.42;2.99
616;1936.19;573.748;2.99
617;1950.84;575.701;2.99
618;1960.91;557.878;3
619;1953.28;589.618;3
620;1933.75;571.795;3
621;1926.12;599.384;3
622;1968.23;555.925;3
623;1997.84;567.888;3
624;2012.49;587.42;3
625;2015.23;553.972;3
626;1988.07;569.842;3
627;1953.28;565.935;3
628;1938.63;585.467;3
629;1950.84;553.972;3.00999
630;1955.72;569.842;3.00999
631;1958.16;548.112;3.00999
632;1941.07;595.477;3.00999
633;1901.4;581.561;3.00999
634;1869.35;552.019;3.00999
635;1894.07;577.654;3.00999
636;1931;579.608;3.00999
637;1948.4;569.842;3.00999
638;1955.72;559.832;3.00999
639;1948.4;571.795;3.02
640;1926.12;577.654;3.02
641;1918.79;595.477;3.02
642;1960.91;569.842;3.02
643;1992.95;561.785;3.02
644;2005.16;589.618;3.02
645;2005.16;563.738;3.02
646;1980.44;565.935;3.02
647;1945.96;569.842;3.02
648;1928.56;583.514;3.02
649;1948.4;571.795;3.02
650;1953.28;569.842;3.03
651;1950.84;544.206;3.03
652;1933.75;581.561;3.03
653;1896.52;577.654;3.03
654;1866.91;552.019;3.03
655;1891.63;583.514;3.03
656;1926.12;573.748;3.03
657;1943.51;575.701;3.03
658;1948.4;559.832;3.03
659;1943.51;583.514;3.03
660;1921.24;577.654;3.04
661;1916.35;597.43;3.04
662;1963.35;567.888;3.04
663;1988.07;563.738;3.04
664;2005.16;589.618;3.04
665;2002.72;561.785;3.04
666;1975.56;569.842;3.04
667;1945.96;569.842;3.04
668;1928.56;585.467;3.04
669;1945.96;559.832;3.04
670;1950.84;569.842;3.04
671;1948.4;544.206;3.05
672;1931;585.467;3.05
673;1894.07;575.701;3.05
674;1864.47;553.972;3.05
675;1886.75;585.467;3.05
676;1926.12;573.748;3.05
677;1941.07;575.701;3.05
678;1948.4;557.878;3.05
679;1943.51;591.571;3.05
680;1921.24;573.748;3.05
681;1916.35;601.337;3.05
682;1960.91;555.925;3.06
683;1985.32;569.842;3.06
684;2002.72;589.618;3.06
685;2000.28;555.925;3.06
686;1978;571.795;3.06
687;1941.07;565.935;3.06
688;1928.56;587.42;3.06
689;1943.51;553.972;3.06
690;1950.84;571.795;3.06
691;1950.84;548.112;3.06
692;1931;597.43;3.06
693;1894.07;577.654;3.07
694;1862.03;557.878;3.07
695;1891.63;577.654;3.07
696;1926.12;581.561;3.07
697;1938.63;573.748;3.07
698;1950.84;559.832;3.07
699;1945.96;571.795;3.07
700;1931;577.654;3.07
701;1916.35;593.524;3.07
702;1943.51;571.795;3.07
703;1982.88;561.785;3.07
704;2000.28;591.571;3.07999
705;2010.04;563.738;3.07999
706;1992.95;567.888;3.07999
707;1963.35;573.748;3.07999
708;1933.75;585.467;3.07999
709;1941.07;571.795;3.07999
710;1950.84;567.888;3.07999
711;1953.28;546.159;3.07999
712;1943.51;579.608;3.07999
713;1911.47;579.608;3.07999
714;1874.24;552.019;3.07999
715;1876.68;583.514;3.09
716;1918.79;579.608;3.09
717;1938.63;573.748;3.09
718;1953.28;557.878;3.09
719;1953.28;581.561;3.09
720;1936.19;577.654;3.09
721;1918.79;597.43;3.09
722;1945.96;567.888;3.09
723;1985.32;567.888;3.09
724;2005.16;593.524;3.09
725;2012.49;561.785;3.09
726;1995.4;571.795;3.09
727;1960.91;571.795;3.1
728;1933.75;585.467;3.1
729;1943.51;561.785;3.1
730;1955.72;567.888;3.1
731;1958.16;548.112;3.1
732;1948.4;585.467;3.1
733;1913.91;577.654;3.1
734;1876.68;553.972;3.1
735;1884.31;589.618;3.1
736;1923.68;573.748;3.1
737;1941.07;577.654;3.1
738;1955.72;557.878;3.11
739;1955.72;591.571;3.11
740;1938.63;571.795;3.11
741;1921.24;601.337;3.11
742;1950.84;559.832;3.11
743;1988.07;569.842;3.11
744;2007.6;591.571;3.11
745;2017.67;555.925;3.11
746;2000.28;571.795;3.11
747;1965.79;565.935;3.11
748;1938.63;583.514;3.11
749;1950.84;553.972;3.11
750;1960.91;569.842;3.12
751;1960.91;548.112;3.12
752;1953.28;593.524;3.12
753;1918.79;575.701;3.12
754;1881.87;555.925;3.12
755;1889.19;591.571;3.12
756;1931;573.748;3.12
757;1950.84;575.701;3.12
758;1963.35;557.878;3.12
759;1965.79;587.42;3.12
760;1943.51;575.701;3.12
761;1923.68;605.243;3.12
762;1958.16;563.738;3.13
763;1997.84;567.888;3.13
764;2015.23;593.524;3.13
765;2025;561.785;3.13
766;2002.72;571.795;3.13
767;1973.12;567.888;3.13
768;1945.96;585.467;3.13
769;1955.72;557.878;3.13
770;1965.79;569.842;3.13
771;1965.79;548.112;3.13
772;1955.72;587.42;3.13
773;1918.79;577.654;3.13
774;1884.31;555.925;3.14
775;1889.19;589.618;3.14
776;1931;575.701;3.14
777;1950.84;575.701;3.14
778;1963.35;557.878;3.14
779;1960.91;593.524;3.14
780;1945.96;573.748;3.14
781;1928.56;597.43;3.14
782;1960.91;557.878;3.14
783;1997.84;567.888;3.14
784;2015.23;589.618;3.14
785;2022.56;559.832;3.14
786;2005.16;573.748;3.14
787;1973.12;571.795;3.15
788;1945.96;585.467;3.15
789;1960.91;577.654;3.15
790;1968.23;569.842;3.15
791;1968.23;550.066;3.15
792;1958.16;577.654;3.15
793;1928.56;583.514;3.15
794;1886.75;555.925;3.15
795;1896.52;579.608;3.15
796;1938.63;581.561;3.15
797;1958.16;573.748;3.15
798;1968.23;561.785;3.15
799;1970.68;571.795;3.15
800;1950.84;577.654;3.16
801;1933.75;599.384;3.16
802;1965.79;571.795;3.16
803;2005.16;563.738;3.16
804;2022.56;593.524;3.16
805;2032.32;563.738;3.16
806;2012.49;567.888;3.16
807;1975.56;571.795;3.16
808;1953.28;585.467;3.16
809;1965.79;573.748;3.16
810;1973.12;567.888;3.16
811;1973.12;548.112;3.16
812;1960.91;583.514;3.16
813;1928.56;581.561;3.17
814;1891.63;553.972;3.17
815;1901.4;581.561;3.17
816;1943.51;579.608;3.17
817;1963.35;575.701;3.17
818;1975.56;559.832;3.17
819;1973.12;585.467;3.17
820;1953.28;575.701;3.17
821;1938.63;601.337;3.17
822;1970.68;565.935;3.17
823;2007.6;565.935;3.17
824;2027.44;593.524;3.17
825;2032.32;561.785;3.17
826;2012.49;571.795;3.17
827;1980.44;569.842;3.17
828;1953.28;585.467;3.18
829;1965.79;559.832;3.18
830;1978;567.888;3.18
831;1978;548.112;3.18
832;1965.79;585.467;3.18
833;1931;577.654;3.18
834;1894.07;553.972;3.18
835;1906.59;589.618;3.18
836;1945.96;577.654;3.18
837;1965.79;577.654;3.18
838;1978;557.878;3.18
839;1975.56;593.524;3.18
840;1953.28;573.748;3.18
841;1938.63;601.337;3.18
842;1973.12;559.832;3.18999
843;2010.04;567.888;3.18999
844;2029.88;591.571;3.18999
845;2032.32;559.832;3.18999
846;2015.23;573.748;3.18999
847;1978;565.935;3.18999
848;1953.28;587.42;3.18999
849;1965.79;579.608;3.18999
850;1978;567.888;3.18999
851;1980.44;552.019;3.18999
852;1968.23;573.748;3.18999
853;1936.19;583.514;3.18999
854;1896.52;553.972;3.18999
855;1911.47;579.608;3.18999
856;1953.28;581.561;3.2
857;1973.12;573.748;3.2
858;1985.32;557.878;3.2
859;1982.88;571.795;3.2
860;1960.91;577.654;3.2
861;1945.96;595.477;3.2
862;1980.44;573.748;3.2
863;2015.23;563.738;3.2
864;2029.88;591.571;3.2
865;2034.76;565.935;3.2
866;2012.49;567.888;3.2
867;1978;571.795;3.2
868;1958.16;585.467;3.2
869;1975.56;575.701;3.2
870;1982.88;565.935;3.21
871;1985.32;548.112;3.21
872;1975.56;579.608;3.21
873;1943.51;581.561;3.21
874;1906.59;553.972;3.21
875;1921.24;581.561;3.21
876;1960.91;579.608;3.21
877;1980.44;575.701;3.21
878;1988.07;557.878;3.21
879;1988.07;583.514;3.21
880;1965.79;577.654;3.21
881;1950.84;601.337;3.21
882;1982.88;567.888;3.21
883;2017.67;567.888;3.21
884;2034.76;595.477;3.21
885;2039.65;561.785;3.22
886;2017.67;569.842;3.22
887;1982.88;569.842;3.22
888;1960.91;587.42;3.22
889;1975.56;561.785;3.22
890;1985.32;569.842;3.22
891;1988.07;546.159;3.22
892;1973.12;585.467;3.22
893;1943.51;577.654;3.22
894;1906.59;553.972;3.22
895;1918.79;589.618;3.22
896;1960.91;573.748;3.22
897;1982.88;577.654;3.22
898;1990.51;557.878;3.22
899;1985.32;595.477;3.22
900;1963.35;577.654;3.23
901;1948.4;601.337;3.23
902;1982.88;561.785;3.23
903;2017.67;571.795;3.23
904;2034.76;591.571;3.23
905;2039.65;559.832;3.23
906;2015.23;571.795;3.23
907;1982.88;567.888;3.23
908;1960.91;585.467;3.23
909;1975.56;555.925;3.23
910;1985.32;567.888;3.23
911;1985.32;546.159;3.23
912;1975.56;585.467;3.23
913;1943.51;579.608;3.23
914;1906.59;552.019;3.23
915;1921.24;585.467;3.24
916;1963.35;577.654;3.24
917;1978;579.608;3.24
918;1988.07;559.832;3.24
919;1985.32;587.42;3.24
920;1965.79;577.654;3.24
921;1950.84;597.43;3.24
922;1982.88;565.935;3.24
923;2020.12;567.888;3.24
924;2037.21;591.571;3.24
925;2039.65;561.785;3.24
926;2020.12;569.842;3.24
927;1982.88;567.888;3.24
928;1960.91;589.618;3.24
929;1980.44;559.832;3.25
930;1988.07;569.842;3.25
931;1990.51;546.159;3.25
932;1978;587.42;3.25
933;1943.51;577.654;3.25
934;1909.03;553.972;3.25
935;1926.12;587.42;3.25
936;1965.79;575.701;3.25
937;1982.88;581.561;3.25
938;1992.95;559.832;3.25
939;1988.07;593.524;3.25
940;1965.79;571.795;3.25
941;1953.28;589.618;3.25
942;1985.32;575.701;3.25
943;2022.56;559.832;3.25
944;2037.21;589.618;3.25999
945;2042.39;569.842;3.25999
946;2017.67;565.935;3.25999
947;1982.88;573.748;3.25999
948;1963.35;585.467;3.25999
949;1980.44;579.608;3.25999
950;1988.07;567.888;3.25999
951;1988.07;550.066;3.25999
952;1975.56;575.701;3.25999
953;1941.07;583.514;3.25999
954;1906.59;555.925;3.25999
955;1926.12;579.608;3.25999
956;1963.35;581.561;3.25999
957;1982.88;571.795;3.25999
958;1992.95;559.832;3.27
959;1988.07;573.748;3.27
960;1965.79;577.654;3.27
961;1953.28;595.477;3.27
962;1990.51;575.701;3.27
963;2025;561.785;3.27
964;2042.39;593.524;3.27
965;2042.39;565.935;3.27
966;2020.12;569.842;3.27
967;1982.88;571.795;3.27
968;1965.79;587.42;3.27
969;1982.88;573.748;3.27
970;1990.51;569.842;3.27
971;1992.95;548.112;3.27
972;1975.56;581.561;3.27
973;1943.51;579.608;3.28
974;1909.03;552.019;3.28
975;1926.12;581.561;3.28
976;1965.79;577.654;3.28
977;1980.44;577.654;3.28
978;1992.95;559.832;3.28
979;1985.32;583.514;3.28
980;1963.35;575.701;3.28
981;1953.28;601.337;3.28
982;1990.51;569.842;3.28
983;2022.56;567.888;3.28
984;2037.21;593.524;3.28
985;2039.65;561.785;3.28
986;2017.67;569.842;3.28
987;1982.88;567.888;3.29
988;1965.79;585.467;3.29
989;1978;559.832;3.29
990;1990.51;569.842;3.29
991;1988.07;546.159;3.29
992;1975.56;585.467;3.29
993;1941.07;577.654;3.29
994;1906.59;552.019;3.29
995;1928.56;587.42;3.29
996;1968.23;575.701;3.29
997;1985.32;579.608;3.29
998;1992.95;557.878;3.29
999;1988.07;591.571;3.29
1000;1965.79;573.748;3.29
1001;1953.28;601.337;3.29
1002;1990.51;581.561;3.3
1003;2022.56;557.878;3.3
1004;2039.65;587.42;3.3
1005;2042.39;571.795;3.3
1006;2017.67;565.935;3.3
1007;1985.32;573.748;3.3
1008;1965.79;581.561;3.3
1009;1982.88;577.654;3.3
1010;1985.32;567.888;3.3
1011;1988.07;550.066;3.3
1012;1975.56;573.748;3.3
1013;1941.07;587.42;3.3
1014;1909.03;557.878;3.3
1015;1928.56;577.654;3.3
1016;1965.79;583.514;3.3
1017;1982.88;573.748;3.31
1018;1992.95;555.925;3.31
1019;1985.32;571.795;3.31
1020;1963.35;577.654;3.31
1021;1950.84;595.477;3.31
1022;1990.51;573.748;3.31
1023;2022.56;561.785;3.31
1024;2039.65;593.524;3.31
1025;2039.65;567.888;3.31
1026;2015.23;569.842;3.31
1027;1980.44;571.795;3.31
1028;1963.35;585.467;3.31
1029;1980.44;575.701;3.31
1030;1988.07;567.888;3.31
1031;1990.51;550.066;3.31
1032;1975.56;579.608;3.32
1033;1941.07;581.561;3.32
1034;1906.59;553.972;3.32
1035;1928.56;583.514;3.32
1036;1965.79;579.608;3.32
1037;1982.88;575.701;3.32
1038;1992.95;557.878;3.32
1039;1985.32;583.514;3.32
1040;1963.35;573.748;3.32
1041;1953.28;599.384;3.32
1042;1992.95;565.935;3.32
1043;2020.12;565.935;3.32
1044;2037.21;593.524;3.32
1045;2042.39;563.738;3.32
1046;2015.23;569.842;3.32
1047;1980.44;567.888;3.32999
1048;1963.35;585.467;3.32999
1049;1980.44;559.832;3.32999
1050;1988.07;567.888;3.32999
1051;1990.51;546.159;3.32999
1052;1975.56;585.467;3.32999
1053;1941.07;579.608;3.32999
1054;1906.59;552.019;3.32999
1055;1931;585.467;3.32999
1056;1968.23;575.701;3.32999
1057;1980.44;575.701;3.32999
1058;1990.51;557.878;3.32999
1059;1982.88;591.571;3.32999
1060;1960.91;573.748;3.32999
1061;1953.28;599.384;3.32999
1062;1992.95;561.785;3.34
1063;2022.56;567.888;3.34
1064;2037.21;591.571;3.34
1065;2039.65;563.738;3.34
1066;2015.23;567.888;3.34
1067;1980.44;569.842;3.34
1068;1963.35;585.467;3.34
1069;1982.88;569.842;3.34
1070;1985.32;567.888;3.34
1071;1990.51;548.112;3.34
1072;1982.88;579.608;3.34
1073;1953.28;579.608;3.34
1074;1913.91;553.972;3.34
1075;1911.47;583.514;3.34
1076;1955.72;577.654;3.34
1077;1978;575.701;3.35
1078;1990.51;559.832;3.35
1079;1988.07;585.467;3.35
1080;1973.12;575.701;3.35
1081;1953.28;599.384;3.35
1082;1970.68;567.888;3.35
1083;2010.04;563.738;3.35
1084;2032.32;591.571;3.35
1085;2034.76;559.832;3.35
1086;2020.12;569.842;3.35
1087;1985.32;567.888;3.35
1088;1958.16;587.42;3.35
1089;1968.23;559.832;3.35
1090;1982.88;569.842;3.35
1091;1985.32;548.112;3.35
1092;1980.44;587.42;3.36
1093;1950.84;579.608;3.36
1094;1911.47;553.972;3.36
1095;1913.91;571.795;3.36
1096;1958.16;583.514;3.36
1097;1980.44;569.842;3.36
1098;1988.07;561.785;3.36
1099;1990.51;567.888;3.36
1100;1973.12;579.608;3.36
1101;1953.28;589.618;3.36
1102;1975.56;579.608;3.36
1103;2015.23;559.832;3.36
1104;2032.32;589.618;3.36
1105;2042.39;569.842;3.36
1106;2025;565.935;3.36
1107;1990.51;573.748;3.36
1108;1960.91;585.467;3.37
1109;1973.12;577.654;3.37
1110;1985.32;567.888;3.37
1111;1988.07;552.019;3.37
1112;1982.88;577.654;3.37
1113;1953.28;583.514;3.37
1114;1913.91;552.019;3.37
1115;1921.24;577.654;3.37
1116;1963.35;579.608;3.37
1117;1982.88;571.795;3.37
1118;1992.95;557.878;3.37
1119;1992.95;571.795;3.37
1120;1975.56;573.748;3.37
1121;1953.28;595.477;3.37
1122;1975.56;573.748;3.37
1123;2015.23;561.785;3.37
1124;2029.88;591.571;3.38
1125;2037.21;565.935;3.38
1126;2020.12;569.842;3.38
1127;1985.32;569.842;3.38
1128;1955.72;585.467;3.38
1129;1968.23;573.748;3.38
1130;1982.88;567.888;3.38
1131;1988.07;550.066;3.38
1132;1982.88;579.608;3.38
1133;1953.28;581.561;3.38
1134;1918.79;553.972;3.38
1135;1918.79;581.561;3.38
1136;1963.35;575.701;3.38
1137;1980.44;575.701;3.38
1138;1992.95;557.878;3.38
1139;1992.95;585.467;3.38
1140;1975.56;575.701;3.39
1141;1953.28;601.337;3.39
1142;1975.56;567.888;3.39
1143;2010.04;565.935;3.39
1144;2029.88;593.524;3.39
1145;2037.21;561.785;3.39
1146;2022.56;571.795;3.39
1147;1985.32;567.888;3.39
1148;1955.72;585.467;3.39
1149;1965.79;559.832;3.39
1150;1982.88;571.795;3.39
1151;1982.88;550.066;3.39
1152;1978;585.467;3.39
1153;1950.84;577.654;3.39
1154;1913.91;553.972;3.39
1155;1916.35;587.42;3.39
1156;1963.35;585.467;3.4
1157;1982.88;571.795;3.4
1158;1995.4;559.832;3.4
1159;1995.4;571.795;3.4
1160;1975.56;579.608;3.4
1161;1958.16;587.42;3.4
1162;1978;579.608;3.4
1163;2015.23;557.878;3.4
1164;2032.32;587.42;3.4
1165;2037.21;569.842;3.4
1166;2020.12;563.738;3.4
1167;1982.88;573.748;3.4
1168;1958.16;585.467;3.4
1169;1973.12;577.654;3.4
1170;1985.32;565.935;3.4
1171;1990.51;553.972;3.4
1172;1982.88;569.842;3.4
1173;1950.84;585.467;3.41
1174;1916.35;553.972;3.41
1175;1921.24;577.654;3.41
1176;1965.79;579.608;3.41
1177;1982.88;573.748;3.41
1178;1995.4;559.832;3.41
1179;1995.4;569.842;3.41
1180;1975.56;577.654;3.41
1181;1955.72;593.524;3.41
1182;1980.44;573.748;3.41
1183;2015.23;561.785;3.41
1184;2032.32;591.571;3.41
1185;2039.65;563.738;3.41
1186;2022.56;567.888;3.41
1187;1985.32;571.795;3.41
1188;1958.16;585.467;3.41
1189;1973.12;573.748;3.41
1190;1982.88;569.842;3.42
1191;1985.32;548.112;3.42
1192;1978;579.608;3.42
1193;1948.4;579.608;3.42
1194;1911.47;550.066;3.42
1195;1916.35;583.514;3.42
1196;1960.91;577.654;3.42
1197;1982.88;573.748;3.42
1198;1992.95;557.878;3.42
1199;1992.95;583.514;3.42
1200;1973.12;573.748;3.42
1201;1953.28;599.384;3.42
1202;1978;569.842;3.42
1203;2015.23;567.888;3.42
1204;2032.32;589.618;3.42
1205;2037.21;563.738;3.42
1206;2017.67;569.842;3.42
1207;1982.88;569.842;3.43
1208;1953.28;585.467;3.43
1209;1970.68;561.785;3.43
1210;1982.88;567.888;3.43
1211;1982.88;548.112;3.43
1212;1978;581.561;3.43
1213;1948.4;577.654;3.43
1214;1911.47;553.972;3.43
1215;1916.35;585.467;3.43
1216;1963.35;573.748;3.43
1217;1982.88;575.701;3.43
1218;1992.95;557.878;3.43
1219;1992.95;571.795;3.43
1220;1970.68;575.701;3.43
1221;1953.28;593.524;3.43
1222;1978;571.795;3.43
1223;2015.23;561.785;3.43
1224;2029.88;593.524;3.43
1225;2034.76;563.738;3.43999
1226;2017.67;567.888;3.43999
1227;1982.88;569.842;3.43999
1228;1958.16;583.514;3.43999
1229;1973.12;565.935;3.43999
1230;1982.88;567.888;3.43999
1231;1985.32;546.159;3.43999
1232;1980.44;577.654;3.43999
1233;1948.4;579.608;3.43999
1234;1911.47;553.972;3.43999
1235;1918.79;581.561;3.43999
1236;1963.35;573.748;3.43999
1237;1980.44;575.701;3.43999
1238;1990.51;557.878;3.43999
1239;1990.51;585.467;3.43999
1240;1973.12;575.701;3.43999
1241;1953.28;601.337;3.43999
1242;1978;565.935;3.45
1243;2015.23;567.888;3.45
1244;2029.88;591.571;3.45
1245;2034.76;559.832;3.45
1246;2017.67;571.795;3.45
1247;1982.88;567.888;3.45
1248;1955.72;581.561;3.45
1249;1968.23;579.608;3.45
1250;1982.88;563.738;3.45
1251;1982.88;555.925;3.45
1252;1975.56;567.888;3.45
1253;1945.96;585.467;3.45
1254;1909.03;555.925;3.45
1255;1916.35;571.795;3.45
1256;1958.16;583.514;3.45
1257;1980.44;569.842;3.45
1258;1990.51;557.878;3.46
1259;1988.07;569.842;3.46
1260;1968.23;575.701;3.46
1261;1948.4;589.618;3.46
1262;1975.56;577.654;3.46
1263;2012.49;559.832;3.46
1264;2029.88;587.42;3.46
1265;2032.32;569.842;3.46
1266;2012.49;565.935;3.46
1267;1978;571.795;3.46
1268;1953.28;583.514;3.46
1269;1965.79;577.654;3.46
1270;1982.88;565.935;3.46
1271;1982.88;550.066;3.46
1272;1978;571.795;3.46
1273;1945.96;583.514;3.46
1274;1906.59;553.972;3.46
1275;1916.35;577.654;3.47
1276;1960.91;579.608;3.47
1277;1982.88;571.795;3.47
1278;1990.51;555.925;3.47
1279;1990.51;573.748;3.47
1280;1968.23;577.654;3.47
1281;1950.84;595.477;3.47
1282;1980.44;571.795;3.47
1283;2012.49;561.785;3.47
1284;2027.44;589.618;3.47
1285;2034.76;563.738;3.47
1286;2015.23;569.842;3.47
1287;1978;569.842;3.47
1288;1955.72;587.42;3.47
1289;1970.68;571.795;3.47
1290;1982.88;565.935;3.47
1291;1985.32;548.112;3.47
1292;1975.56;577.654;3.48
1293;1943.51;579.608;3.48
1294;1909.03;553.972;3.48
1295;1921.24;583.514;3.48
1296;1963.35;575.701;3.48
1297;1980.44;573.748;3.48
1298;1992.95;555.925;3.48
1299;1988.07;585.467;3.48
1300;1965.79;573.748;3.48
1301;1948.4;599.384;3.48
1302;1978;565.935;3.48
1303;2010.04;565.935;3.48
1304;2027.44;591.571;3.48
1305;2034.76;559.832;3.48
1306;2012.49;567.888;3.48
1307;1978;569.842;3.48
1308;1953.28;585.467;3.49
1309;1965.79;559.832;3.49
1310;1982.88;565.935;3.49
1311;1982.88;559.832;3.49
1312;1975.56;561.785;3.49
1313;1943.51;589.618;3.49
1314;1906.59;557.878;3.49
1315;1918.79;573.748;3.49
1316;1960.91;585.467;3.49
1317;1978;569.842;3.49
1318;1990.51;559.832;3.49
1319;1988.07;567.888;3.49
1320;1968.23;579.608;3.49
1321;1948.4;585.467;3.49
1322;1982.88;579.608;3.49
1323;2012.49;557.878;3.49
1324;2027.44;587.42;3.49
1325;2034.76;567.888;3.5
1326;2010.04;565.935;3.5
1327;1975.56;571.795;3.5
1328;1950.84;581.561;3.5
1329;1968.23;577.654;3.5
1330;1978;563.738;3.5
1331;1980.44;552.019;3.5
1332;1973.12;571.795;3.5
1333;1941.07;581.561;3.5
1334;1903.84;552.019;3.5
1335;1918.79;577.654;3.5
1336;1958.16;579.608;3.5
1337;1978;571.795;3.5
1338;1988.07;559.832;3.5
1339;1985.32;569.842;3.5
1340;1963.35;575.701;3.5
1341;1943.51;593.524;3.50999
1342;1980.44;571.795;3.50999
1343;2017.67;561.785;3.50999
1344;2032.32;589.618;3.50999
1345;2037.21;563.738;3.50999
1346;2015.23;565.935;3.50999
1347;1982.88;567.888;3.50999
1348;1960.91;583.514;3.50999
1349;1975.56;571.795;3.50999
1350;1985.32;565.935;3.50999
1351;1985.32;548.112;3.50999
1352;1975.56;575.701;3.50999
1353;1941.07;579.608;3.50999
1354;1906.59;552.019;3.50999
1355;1918.79;583.514;3.50999
1356;1960.91;575.701;3.50999
1357;1978;573.748;3.50999
1358;1988.07;555.925;3.52
1359;1985.32;581.561;3.52
1360;1965.79;575.701;3.52
1361;1950.84;597.43;3.52
1362;1982.88;565.935;3.52
1363;2015.23;563.738;3.52
1364;2032.32;591.571;3.52
1365;2037.21;561.785;3.52
1366;2015.23;569.842;3.52
1367;1980.44;567.888;3.52
1368;1955.72;585.467;3.52
1369;1973.12;559.832;3.52
1370;1982.88;567.888;3.52
1371;1982.88;550.066;3.52
1372;1973.12;575.701;3.52
1373;1941.07;581.561;3.52
1374;1903.84;552.019;3.53
1375;1916.35;577.654;3.53
1376;1958.16;579.608;3.53
1377;1975.56;571.795;3.53
1378;1985.32;553.972;3.53
1379;1982.88;571.795;3.53
1380;1960.91;575.701;3.53
1381;1948.4;597.43;3.53
1382;1980.44;569.842;3.53
1383;2012.49;561.785;3.53
1384;2029.88;589.618;3.53
1385;2037.21;561.785;3.53
1386;2012.49;565.935;3.53
1387;1978;567.888;3.53
1388;1958.16;585.467;3.53
1389;1973.12;569.842;3.53
1390;1982.88;565.935;3.53
1391;1982.88;546.159;3.54
1392;1975.56;579.608;3.54
1393;1941.07;577.654;3.54
1394;1901.4;548.112;3.54
1395;1918.79;583.514;3.54
1396;1958.16;575.701;3.54
1397;1975.56;571.795;3.54
1398;1985.32;555.925;3.54
1399;1982.88;585.467;3.54
1400;1963.35;571.795;3.54
1401;1945.96;599.384;3.54
1402;1982.88;581.561;3.54
1403;2017.67;552.019;3.54
1404;2032.32;583.514;3.54
1405;2034.76;571.795;3.54
1406;2015.23;557.878;3.54
1407;1980.44;569.842;3.55
1408;1958.16;579.608;3.55
1409;1975.56;581.561;3.55
1410;1988.07;561.785;3.55
1411;1982.88;553.972;3.55
1412;1973.12;563.738;3.55
1413;1938.63;585.467;3.55
1414;1906.59;555.925;3.55
1415;1921.24;571.795;3.55
1416;1960.91;583.514;3.55
1417;1978;569.842;3.55
1418;1988.07;555.925;3.55
1419;1982.88;567.888;3.55
1420;1960.91;575.701;3.55
1421;1945.96;587.42;3.55
1422;1982.88;575.701;3.55
1423;2015.23;559.832;3.55
1424;2032.32;585.467;3.56
1425;2034.76;567.888;3.56
1426;2012.49;563.738;3.56
1427;1978;571.795;3.56
1428;1955.72;581.561;3.56
1429;1978;577.654;3.56
1430;1980.44;563.738;3.56
1431;1982.88;552.019;3.56
1432;1973.12;569.842;3.56
1433;1938.63;583.514;3.56
1434;1903.84;552.019;3.56
1435;1918.79;575.701;3.56
1436;1958.16;579.608;3.56
1437;1978;571.795;3.56
1438;1988.07;557.878;3.56
1439;1982.88;569.842;3.56
1440;1960.91;573.748;3.56
1441;1945.96;595.477;3.56
1442;1982.88;573.748;3.57
1443;2010.04;561.785;3.57
1444;2027.44;591.571;3.57
1445;2034.76;563.738;3.57
1446;2017.67;565.935;3.57
1447;1980.44;567.888;3.57
1448;1955.72;583.514;3.57
1449;1968.23;571.795;3.57
1450;1982.88;567.888;3.57
1451;1982.88;544.206;3.57
1452;1975.56;577.654;3.57
1453;1948.4;575.701;3.57
1454;1909.03;548.112;3.57
1455;1913.91;581.561;3.57
1456;1955.72;573.748;3.57
1457;1978;571.795;3.57
1458;1988.07;557.878;3.57
1459;1985.32;583.514;3.57999
1460;1968.23;573.748;3.57999
1461;1948.4;597.43;3.57999
1462;1978;565.935;3.57999
1463;2012.49;553.972;3.57999
1464;2027.44;581.561;3.57999
1465;2034.76;571.795;3.57999
1466;2017.67;555.925;3.57999
1467;1985.32;571.795;3.57999
1468;1958.16;581.561;3.57999
1469;1973.12;577.654;3.57999
1470;1982.88;561.785;3.57999
1471;1985.32;555.925;3.57999
1472;1978;563.738;3.57999
1473;1948.4;585.467;3.57999
1474;1909.03;555.925;3.57999
1475;1918.79;573.748;3.57999
1476;1958.16;585.467;3.59
1477;1978;569.842;3.59
1478;1988.07;557.878;3.59
1479;1990.51;567.888;3.59
1480;1968.23;575.701;3.59
1481;1950.84;587.42;3.59
1482;1978;577.654;3.59
1483;2017.67;555.925;3.59
1484;2032.32;585.467;3.59
1485;2039.65;567.888;3.59
1486;2022.56;561.785;3.59
1487;1985.32;569.842;3.59
1488;1960.91;581.561;3.59
1489;1975.56;577.654;3.59
1490;1985.32;565.935;3.59
1491;1988.07;548.112;3.59
1492;1978;569.842;3.59
1493;1945.96;583.514;3.6
1494;1909.03;552.019;3.6
1495;1918.79;575.701;3.6
1496;1955.72;579.608;3.6
1497;1975.56;569.842;3.6
1498;1985.32;555.925;3.6
1499;1982.88;567.888;3.6
1500;1965.79;573.748;3.6
1501;1945.96;593.524;3.6
1502;1975.56;571.795;3.6
1503;2012.49;561.785;3.6
1504;2027.44;589.618;3.6
1505;2037.21;563.738;3.6
1506;2017.67;563.738;3.6
1507;1982.88;567.888;3.6
1508;1955.72;581.561;3.6
1509;1973.12;571.795;3.6
1510;1982.88;565.935;3.61
1511;1982.88;542.009;3.61
1512;1980.44;575.701;3.61
1513;1943.51;579.608;3.61
1514;1906.59;552.019;3.61
1515;1916.35;579.608;3.61
1516;1958.16;575.701;3.61
1517;1975.56;571.795;3.61
1518;1985.32;555.925;3.61
1519;1985.32;579.608;3.61
1520;1963.35;573.748;3.61
1521;1950.84;597.43;3.61
1522;1980.44;567.888;3.61
1523;2015.23;561.785;3.61
1524;2029.88;589.618;3.61
1525;2037.21;563.738;3.61
1526;2015.23;563.738;3.61
1527;1982.88;569.842;3.61
1528;1960.91;583.514;3.62
1529;1975.56;571.795;3.62
1530;1985.32;565.935;3.62
1531;1988.07;550.066;3.62
1532;1978;573.748;3.62
1533;1943.51;579.608;3.62
1534;1906.59;552.019;3.62
1535;1918.79;579.608;3.62
1536;1960.91;577.654;3.62
1537;1978;571.795;3.62
1538;1985.32;553.972;3.62
1539;1985.32;569.842;3.62
1540;1965.79;573.748;3.62
1541;1945.96;593.524;3.62
1542;1980.44;569.842;3.62
1543;2017.67;563.738;3.62
1544;2032.32;591.571;3.62
1545;2039.65;563.738;3.63
1546;2017.67;565.935;3.63
1547;1982.88;569.842;3.63
1548;1960.91;581.561;3.63
1549;1973.12;565.935;3.63
1550;1982.88;563.738;3.63
1551;1985.32;546.159;3.63
1552;1975.56;579.608;3.63
1553;1943.51;577.654;3.63
1554;1906.59;552.019;3.63
1555;1918.79;579.608;3.63
1556;1958.16;589.618;3.63
1557;1978;569.842;3.63
1558;1985.32;557.878;3.63
1559;1988.07;563.738;3.63
1560;1968.23;579.608;3.63
1561;1948.4;579.608;3.63
1562;1982.88;579.608;3.64
1563;2020.12;553.972;3.64
1564;2032.32;579.608;3.64
1565;2039.65;569.842;3.64
1566;2022.56;557.878;3.64
1567;1982.88;567.888;3.64
1568;1958.16;579.608;3.64
1569;1973.12;577.654;3.64
1570;1982.88;561.785;3.64
1571;1985.32;552.019;3.64
1572;1975.56;567.888;3.64
1573;1941.07;585.467;3.64
1574;1903.84;553.972;3.64
1575;1913.91;571.795;3.64
1576;1953.28;581.561;3.64
1577;1973.12;569.842;3.64
1578;1982.88;557.878;3.64
1579;1982.88;565.935;3.64
1580;1963.35;577.654;3.64
1581;1948.4;587.42;3.65
1582;1982.88;575.701;3.65
1583;2020.12;555.925;3.65
1584;2034.76;583.514;3.65
1585;2042.39;567.888;3.65
1586;2022.56;559.832;3.65
1587;1985.32;569.842;3.65
1588;1965.79;579.608;3.65
1589;1975.56;573.748;3.65
1590;1982.88;565.935;3.65
1591;1985.32;548.112;3.65
1592;1975.56;573.748;3.65
1593;1941.07;579.608;3.65
1594;1901.4;552.019;3.65
1595;1916.35;573.748;3.65
1596;1958.16;577.654;3.65
1597;1975.56;571.795;3.66
1598;1982.88;555.925;3.66
1599;1982.88;569.842;3.66
1600;1963.35;571.795;3.66
1601;1948.4;593.524;3.66
1602;1985.32;567.888;3.66
1603;2020.12;561.785;3.66
1604;2037.21;587.42;3.66
1605;2044.84;563.738;3.66
1606;2022.56;565.935;3.66
1607;1985.32;567.888;3.66
1608;1965.79;579.608;3.66
1609;1975.56;569.842;3.66
1610;1985.32;565.935;3.66
1611;1985.32;544.206;3.66
1612;1973.12;575.701;3.66
1613;1941.07;577.654;3.66
1614;1903.84;546.159;3.66
1615;1916.35;581.561;3.67
1616;1955.72;573.748;3.67
1617;1978;571.795;3.67
1618;1985.32;557.878;3.67
1619;1982.88;563.738;3.67
1620;1963.35;577.654;3.67
1621;1948.4;581.561;3.67
1622;1982.88;579.608;3.67
1623;2020.12;548.112;3.67
1624;2037.21;581.561;3.67
1625;2042.39;569.842;3.67
1626;2017.67;555.925;3.67
1627;1982.88;567.888;3.67
1628;1960.91;577.654;3.67
1629;1975.56;575.701;3.67
1630;1980.44;559.832;3.67
1631;1982.88;552.019;3.67
1632;1980.44;565.935;3.68
1633;1953.28;583.514;3.68
1634;1911.47;555.925;3.68
1635;1901.4;569.842;3.68
1636;1943.51;583.514;3.68
1637;1970.68;569.842;3.68
1638;1980.44;555.925;3.68
1639;1982.88;563.738;3.68
1640;1970.68;575.701;3.68
1641;1950.84;583.514;3.68
1642;1963.35;573.748;3.68
1643;2007.6;552.019;3.68
1644;2032.32;583.514;3.68
1645;2039.65;567.888;3.68
1646;2029.88;557.878;3.68
1647;1997.84;569.842;3.68
1648;1965.79;579.608;3.68
1649;1968.23;575.701;3.68999
1650;1982.88;561.785;3.68999
1651;1985.32;550.066;3.68999
1652;1982.88;569.842;3.68999
1653;1955.72;579.608;3.68999
1654;1913.91;552.019;3.68999
1655;1903.84;573.748;3.68999
1656;1943.51;575.701;3.68999
1657;1970.68;567.888;3.68999
1658;1982.88;553.972;3.68999
1659;1985.32;563.738;3.68999
1660;1970.68;571.795;3.68999
1661;1945.96;593.524;3.68999
1662;1963.35;567.888;3.68999
1663;2010.04;561.785;3.68999
1664;2027.44;589.618;3.68999
1665;2042.39;563.738;3.68999
1666;2029.88;561.785;3.68999
1667;1995.4;565.935;3.7
1668;1965.79;581.561;3.7
1669;1968.23;571.795;3.7
1670;1982.88;565.935;3.7
1671;1985.32;544.206;3.7
1672;1982.88;573.748;3.7
1673;1953.28;579.608;3.7
1674;1909.03;548.112;3.7
1675;1901.4;575.701;3.7
1676;1943.51;573.748;3.7
1677;1968.23;571.795;3.7
1678;1982.88;555.925;3.7
1679;1985.32;565.935;3.7
1680;1970.68;571.795;3.7
1681;1945.96;589.618;3.7
1682;1963.35;571.795;3.7
1683;2007.6;555.925;3.7
1684;2027.44;583.514;3.7
1685;2039.65;565.935;3.71
1686;2027.44;561.785;3.71
1687;1992.95;569.842;3.71
1688;1963.35;579.608;3.71
1689;1965.79;573.748;3.71
1690;1980.44;563.738;3.71
1691;1982.88;546.159;3.71
1692;1980.44;573.748;3.71
1693;1950.84;579.608;3.71
1694;1911.47;550.066;3.71
1695;1901.4;571.795;3.71
1696;1943.51;575.701;3.71
1697;1968.23;569.842;3.71
1698;1980.44;555.925;3.71
1699;1982.88;567.888;3.71
1700;1970.68;571.795;3.71
1701;1945.96;593.524;3.71
1702;1968.23;567.888;3.72
1703;2007.6;559.832;3.72
1704;2027.44;585.467;3.72
1705;2039.65;561.785;3.72
1706;2027.44;565.935;3.72
1707;1995.4;565.935;3.72
1708;1963.35;579.608;3.72
1709;1968.23;565.935;3.72
1710;1982.88;559.832;3.72
1711;1982.88;557.878;3.72
1712;1978;559.832;3.72
1713;1953.28;589.618;3.72
1714;1911.47;557.878;3.72
1715;1903.84;565.935;3.72
1716;1945.96;589.618;3.72
1717;1970.68;567.888;3.72
1718;1980.44;557.878;3.72
1719;1988.07;559.832;3.73
1720;1973.12;573.748;3.73
1721;1948.4;579.608;3.73
1722;1968.23;579.608;3.73
1723;2010.04;550.066;3.73
1724;2027.44;579.608;3.73
1725;2037.21;571.795;3.73
1726;2025;553.972;3.73
1727;1990.51;569.842;3.73
1728;1963.35;577.654;3.73
1729;1968.23;573.748;3.73
1730;1980.44;559.832;3.73
1731;1982.88;552.019;3.73
1732;1980.44;561.785;3.73
1733;1950.84;583.514;3.73
1734;1909.03;555.925;3.73
1735;1903.84;567.888;3.73
1736;1945.96;581.561;3.73
1737;1973.12;565.935;3.74
1738;1982.88;553.972;3.74
1739;1985.32;561.785;3.74
1740;1970.68;573.748;3.74
1741;1948.4;587.42;3.74
1742;1965.79;573.748;3.74
1743;2007.6;553.972;3.74
1744;2025;583.514;3.74
1745;2037.21;565.935;3.74
1746;2025;557.878;3.74
1747;1990.51;567.888;3.74
1748;1960.91;577.654;3.74
1749;1968.23;575.701;3.74
1750;1980.44;559.832;3.74
1751;1980.44;546.159;3.74
1752;1975.56;567.888;3.74
1753;1948.4;579.608;3.74
1754;1909.03;550.066;3.74
1755;1903.84;571.795;3.74
1756;1945.96;577.654;3.75
1757;1973.12;567.888;3.75
1758;1982.88;555.925;3.75
1759;1985.32;567.888;3.75
1760;1968.23;571.795;3.75
1761;1948.4;589.618;3.75
1762;1968.23;569.842;3.75
1763;2007.6;557.878;3.75
1764;2027.44;585.467;3.75
1765;2037.21;557.878;3.75
1766;2025;563.738;3.75
1767;1990.51;567.888;3.75
1768;1963.35;579.608;3.75
1769;1968.23;569.842;3.75
1770;1982.88;563.738;3.75
1771;1982.88;557.878;3.75
1772;1975.56;555.925;3.75
1773;1948.4;591.571;3.75
1774;1909.03;557.878;3.75999
1775;1903.84;561.785;3.75999
1776;1950.84;589.618;3.75999
1777;1970.68;565.935;3.75999
1778;1982.88;557.878;3.75999
1779;1985.32;559.832;3.75999
1780;1970.68;577.654;3.75999
1781;1948.4;577.654;3.75999
1782;1968.23;579.608;3.75999
1783;2007.6;548.112;3.75999
1784;2027.44;577.654;3.75999
1785;2037.21;571.795;3.75999
1786;2022.56;552.019;3.75999
1787;1985.32;567.888;3.75999
1788;1955.72;573.748;3.75999
1789;1965.79;575.701;3.75999
1790;1978;561.785;3.75999
1791;1980.44;552.019;3.77
1792;1975.56;561.785;3.77
1793;1945.96;585.467;3.77
1794;1906.59;553.972;3.77
1795;1903.84;569.842;3.77
1796;1945.96;581.561;3.77
1797;1965.79;567.888;3.77
1798;1980.44;555.925;3.77
1799;1982.88;563.738;3.77
1800;1965.79;571.795;3.77
1801;1945.96;585.467;3.77
1802;1965.79;573.748;3.77
1803;2012.49;552.019;3.77
1804;2027.44;581.561;3.77
1805;2037.21;565.935;3.77
1806;2025;559.832;3.77
1807;1988.07;565.935;3.77
1808;1960.91;575.701;3.77
1809;1965.79;575.701;3.78
1810;1980.44;561.785;3.78
1811;1978;546.159;3.78
1812;1973.12;567.888;3.78
1813;1941.07;579.608;3.78
1814;1903.84;550.066;3.78
1815;1901.4;571.795;3.78
1816;1948.4;575.701;3.78
1817;1970.68;567.888;3.78
1818;1982.88;552.019;3.78
1819;1985.32;565.935;3.78
1820;1968.23;571.795;3.78
1821;1945.96;589.618;3.78
1822;1968.23;569.842;3.78
1823;2005.16;557.878;3.78
1824;2022.56;583.514;3.78
1825;2032.32;559.832;3.78
1826;2017.67;563.738;3.79
1827;1982.88;565.935;3.79
1828;1953.28;581.561;3.79
