<WeldAnalyseData xmlns:i="http:www.w3.org/2001/XMLSchema-instance">
<WeldParameter>
<TimeStamp>DT#2023-12-06-09:58:50</TimeStamp>
<Generator>SG-22-10000</Generator>
<GenFreq>20</GenFreq>
<MaxForce>8000</MaxForce>
<MaxPower>10000</MaxPower>
<RunupPressure>1.5</RunupPressure>
<RunupDist>10</RunupDist>
<RunPress>0.8</RunPress>
<ShakeDelay>0.03</ShakeDelay>
<ShakeTime>0.3</ShakeTime>
<RunBackPress1>6</RunBackPress1>
<RunBackPress2>2</RunBackPress2>
<RunBackDist>1</RunBackDist>
<TrigValue>500</TrigValue>
<TrigModeUnit>W</TrigModeUnit>
<WeldModeUnit>Ws</WeldModeUnit>
<PressNr>0</PressNr>
<MaxLoss>1500</MaxLoss>
</WeldParameter>
<WeldSets>
<WeldSet>
<PressRiseTime>0</PressRiseTime>
<RunPressure>1</RunPressure>
<Amplitude>86</Amplitude>
<WeldMode>3270</WeldMode>
</WeldSet>
</WeldSets>
<WeldValue>
<WeldNr>2455</WeldNr>
<RecipeName>RickStyle</RecipeName>
<WeldTime>1849</WeldTime>
<DistDiff>3.78</DistDiff>
<DistAbs>78.31</DistAbs>
<Energy>3271.83</Energy>
<MaxPower>2019.56</MaxPower>
<CycleTime>6170</CycleTime>
<TrigForce>500.748</TrigForce>
<TrigDist>74.53</TrigDist>
<RunSpeed>67.2047</RunSpeed>
<MaxForce>599.384</MaxForce>
<LossPower>254.372</LossPower>
</WeldValue>
</WeldAnalyseData>
#CSV-START#
ms;Power[W];Force[N];Distance[mm]
1;0;0;0
2;0;500.748;0
3;0;500.748;0
4;0;502.701;0
5;0;502.701;0
6;0;504.654;0
7;0;502.701;0
8;0;488.784;0
9;0;467.055;0.0100021
10;0;447.279;0.0200043
11;16.9378;435.56;0.0400009
12;27.0089;427.503;0.0500031
13;41.6578;413.831;0.0699997
14;66.3778;417.737;0.090004
15;93.5392;411.878;0.110001
16;123.142;399.915;0.120003
17;155.492;401.868;0.139999
18;187.536;396.008;0.160004
19;217.139;396.008;0.169998
20;236.976;390.149;0.190002
21;261.391;396.008;0.209999
22;283.67;394.055;0.220001
23;308.39;394.055;0.239998
24;335.551;397.961;0.260002
25;367.595;388.195;0.279999
26;392.315;396.008;0.290001
27;414.594;392.102;0.309998
28;431.99;390.149;0.330002
29;444.197;396.008;0.340004
30;453.963;397.961;0.360001
31;468.917;396.008;0.370003
32;478.683;399.915;0.380005
33;486.312;394.055;0.400002
34;491.195;401.868;0.410004
35;491.195;405.774;0.419998
36;483.871;397.961;0.440002
37;486.312;399.915;0.450005
38;496.078;405.774;0.470001
39;498.52;403.821;0.480003
40;498.52;399.915;0.489998
41;500.961;413.831;0.510002
42;493.637;411.878;0.520004
43;496.078;417.737;0.529999
44;508.286;413.831;0.550003
45;518.357;407.971;0.559998
46;525.681;419.691;0.57
47;530.564;413.831;0.580002
48;528.123;417.737;0.599998
49;520.798;415.784;0.610001
50;515.915;421.644;0.620003
51;513.474;411.878;0.630005
52;515.915;419.691;0.639999
53;515.915;411.878;0.660004
54;513.474;425.55;0.669998
55;511.032;427.503;0.68
56;500.961;417.737;0.690002
57;500.961;429.456;0.700005
58;508.286;429.456;0.709999
59;513.474;429.456;0.720001
60;515.915;427.503;0.730003
61;515.915;441.42;0.739998
62;518.357;435.56;0.760002
63;518.357;445.326;0.770004
64;530.564;433.607;0.779999
65;545.518;431.654;0.790001
66;555.284;447.279;0.800003
67;560.167;435.56;0.809998
68;555.284;435.56;0.82
69;550.401;437.513;0.830002
70;547.96;435.56;0.840004
71;550.401;447.279;0.849998
72;552.843;441.42;0.860001
73;552.843;441.42;0.870003
74;552.843;431.654;0.880005
75;547.96;453.383;0.889999
76;538.194;445.326;0.900002
77;540.635;441.42;0.910004
78;550.401;453.383;0.919998
79;555.284;447.279;0.93
80;557.726;447.279;0.940002
81;560.167;443.373;0.950005
82;560.167;453.383;0.959999
83;560.167;455.336;0.970001
84;575.121;461.196;0.980003
85;592.517;443.373;0.989998
86;599.841;455.336;1
87;607.166;459.243;1.01
88;604.724;449.232;1.02
89;604.724;455.336;1.03
90;599.841;453.383;1.04
91;607.166;459.243;1.05
92;612.049;455.336;1.06
93;616.932;453.383;1.07
94;619.678;451.186;1.08
95;614.49;467.055;1.09
96;607.166;459.243;1.1
97;612.049;457.289;1.11
98;624.561;467.055;1.12
99;629.444;461.196;1.13
100;631.886;461.196;1.14
101;634.327;461.196;1.15
102;629.444;465.102;1.16
103;627.003;469.008;1.16
104;639.21;472.915;1.17
105;656.606;457.289;1.18
106;663.93;467.055;1.19
107;668.813;467.055;1.2
108;666.372;461.196;1.21
109;661.489;465.102;1.22
110;654.164;467.055;1.23
111;656.606;463.149;1.24
112;659.047;461.196;1.25
113;659.047;457.289;1.26
114;656.606;461.196;1.27
115;651.723;470.962;1.29
116;636.769;459.243;1.3
117;641.652;467.055;1.31
118;654.164;467.055;1.32
119;663.93;463.149;1.33
120;666.372;463.149;1.34
121;668.813;470.962;1.35
122;666.372;467.055;1.36
123;668.813;472.915;1.37
124;683.767;469.008;1.38
125;698.416;459.243;1.39
126;708.487;472.915;1.4
127;710.929;465.102;1.41
128;708.487;463.149;1.42
129;703.604;467.055;1.43
130;695.975;469.008;1.44
131;701.163;455.336;1.45
132;706.046;461.196;1.46
133;713.37;451.186;1.48
134;710.929;463.149;1.49
135;706.046;467.055;1.5
136;698.416;455.336;1.51
137;701.163;463.149;1.52
138;715.812;463.149;1.54
139;728.324;461.196;1.55
140;730.766;453.383;1.56
141;735.649;470.962;1.57
142;733.207;463.149;1.58
143;733.207;470.962;1.6
144;752.739;459.243;1.61
145;772.576;455.336;1.62
146;785.089;467.055;1.63
147;792.413;453.383;1.64
148;794.855;457.289;1.66
149;789.972;457.289;1.67
150;782.647;461.196;1.68
151;792.413;445.326;1.69
152;799.737;455.336;1.7
153;804.621;443.373;1.72
154;807.062;463.149;1.73
155;802.179;459.243;1.74
156;797.296;445.326;1.75
157;802.179;461.196;1.76
158;826.899;457.289;1.77
159;839.412;453.383;1.78
160;851.619;445.326;1.79
161;858.943;467.055;1.81
162;864.132;457.289;1.82
163;864.132;472.915;1.83
164;888.546;449.232;1.84
165;918.455;453.383;1.85
166;930.662;469.008;1.86
167;945.616;463.149;1.87
168;948.058;451.186;1.88
169;948.058;457.289;1.89
170;942.869;455.336;1.9
171;955.382;465.102;1.9
172;967.589;457.289;1.91
173;980.102;451.186;1.92
174;987.426;453.383;1.93
175;980.102;472.915;1.94
176;970.031;459.243;1.95
177;977.66;459.243;1.96
178;999.939;472.915;1.96
179;1017.03;467.055;1.97
180;1024.35;461.196;1.98
181;1029.54;461.196;1.99
182;1029.54;470.962;1.99
183;1029.54;479.019;2
184;1056.7;479.019;2.01
185;1081.42;459.243;2.02
186;1096.07;477.065;2.02
187;1108.28;470.962;2.03
188;1113.47;463.149;2.04
189;1105.84;470.962;2.05
190;1100.96;477.065;2.05
191;1118.35;479.019;2.06
192;1133;470.962;2.07
193;1143.07;463.149;2.08
194;1150.4;469.008;2.08
195;1143.07;484.878;2.09
196;1128.12;469.008;2.1
197;1138.19;477.065;2.1
198;1167.79;484.878;2.11
199;1182.44;477.065;2.12
200;1192.51;469.008;2.12
201;1204.72;479.019;2.13
202;1204.72;482.925;2.14
203;1199.84;496.597;2.14
204;1227;488.784;2.15
205;1256.6;475.112;2.15
206;1274;494.644;2.16
207;1286.2;484.878;2.17
208;1293.53;484.878;2.17
209;1278.88;486.831;2.18
210;1276.44;494.644;2.18
211;1293.53;488.784;2.19
212;1310.92;484.878;2.19
213;1318.25;475.112;2.2
214;1325.57;490.738;2.21
215;1313.36;498.795;2.21
216;1295.97;482.925;2.22
217;1306.04;498.795;2.22
218;1335.64;498.795;2.23
219;1352.73;494.644;2.23
220;1360.36;484.878;2.24
221;1370.13;502.701;2.25
222;1362.8;496.597;2.25
223;1360.36;514.42;2.26
224;1387.52;496.597;2.26
225;1414.69;490.738;2.27
226;1431.78;510.514;2.27
227;1444.29;494.644;2.28
228;1439.41;494.644;2.28
229;1426.89;500.748;2.29
230;1417.13;512.467;2.3
231;1434.22;492.691;2.3
232;1449.17;498.795;2.31
233;1454.05;480.972;2.31
234;1458.94;508.56;2.32
235;1444.29;510.514;2.32
236;1422.01;490.738;2.33
237;1429.33;510.514;2.33
238;1458.94;508.56;2.34
239;1471.45;506.607;2.34
240;1481.22;492.691;2.35
241;1486.1;520.524;2.35
242;1476.33;508.56;2.35
243;1469.01;530.29;2.36
244;1498.61;506.607;2.36
245;1523.33;504.654;2.37
246;1540.42;526.383;2.37
247;1555.38;502.701;2.38
248;1550.49;506.607;2.38
249;1530.66;510.514;2.39
250;1520.89;522.477;2.39
251;1540.42;498.795;2.39
252;1550.49;510.514;2.4
253;1560.26;490.738;2.4
254;1560.26;526.383;2.41
255;1540.42;520.524;2.41
256;1515.7;498.795;2.41
257;1520.89;526.383;2.42
258;1548.05;518.326;2.42
259;1562.7;518.326;2.42
260;1572.77;504.654;2.43
261;1580.1;534.196;2.43
262;1562.7;520.524;2.43
263;1555.38;544.206;2.44
264;1582.54;510.514;2.44
265;1614.58;512.467;2.45
266;1624.35;534.196;2.45
267;1636.86;516.373;2.45
268;1631.98;518.326;2.46
269;1612.14;520.524;2.46
270;1594.74;534.196;2.46
271;1612.14;518.326;2.47
272;1624.35;518.326;2.47
273;1627.09;500.748;2.47
274;1627.09;528.336;2.48
275;1604.82;532.243;2.48
276;1575.21;510.514;2.48
277;1580.1;532.243;2.49
278;1609.7;530.29;2.49
279;1621.91;528.336;2.49
280;1631.98;512.467;2.5
281;1631.98;538.102;2.5
282;1619.46;528.336;2.5
283;1607.26;550.066;2.51
284;1634.42;522.477;2.51
285;1666.46;522.477;2.51
286;1681.42;548.112;2.51
287;1691.18;520.524;2.52
288;1686.3;526.383;2.52
289;1661.58;526.383;2.52
290;1644.18;542.009;2.53
291;1661.58;516.373;2.53
292;1676.23;528.336;2.53
293;1681.42;508.56;2.53
294;1678.67;542.009;2.54
295;1656.7;538.102;2.54
296;1627.09;516.373;2.54
297;1627.09;542.009;2.55
298;1659.14;538.102;2.55
299;1671.35;536.149;2.55
300;1681.42;520.524;2.55
301;1681.42;553.972;2.56
302;1664.02;536.149;2.56
303;1656.7;559.832;2.56
304;1688.74;526.383;2.56
305;1718.34;530.29;2.57
306;1730.55;553.972;2.57
307;1738.18;526.383;2.57
308;1725.67;532.243;2.57
309;1698.51;530.29;2.58
310;1688.74;550.066;2.58
311;1708.58;522.477;2.58
312;1718.34;534.196;2.58
313;1720.79;512.467;2.59
314;1715.9;530.29;2.59
315;1688.74;552.019;2.59
316;1659.14;530.29;2.59
317;1671.35;536.149;2.6
318;1698.51;550.066;2.6
319;1713.46;538.102;2.6
320;1720.79;526.383;2.6
321;1718.34;536.149;2.6
322;1698.51;544.206;2.61
323;1691.18;553.972;2.61
324;1725.67;548.112;2.61
325;1755.27;528.336;2.61
326;1770.23;552.019;2.62
327;1777.55;542.009;2.62
328;1762.9;532.243;2.62
329;1738.18;542.009;2.62
330;1725.67;553.972;2.62
331;1745.51;544.206;2.63
332;1757.71;536.149;2.63
333;1762.9;526.383;2.63
334;1752.83;542.009;2.63
335;1728.11;555.925;2.63
336;1693.62;532.243;2.64
337;1711.02;546.159;2.64
338;1738.18;553.972;2.64
339;1750.39;542.009;2.64
340;1757.71;532.243;2.64
341;1755.27;546.159;2.65
342;1735.74;550.066;2.65
343;1725.67;561.785;2.65
344;1762.9;550.066;2.65
345;1789.76;536.149;2.65
346;1804.71;559.832;2.66
347;1814.48;544.206;2.66
348;1797.39;540.056;2.66
349;1770.23;546.159;2.66
350;1755.27;559.832;2.66
351;1779.99;548.112;2.67
352;1789.76;544.206;2.67
353;1794.95;526.383;2.67
354;1789.76;548.112;2.67
355;1760.16;557.878;2.67
356;1728.11;532.243;2.67
357;1740.62;553.972;2.68
358;1772.67;557.878;2.68
359;1787.32;552.019;2.68
360;1794.95;534.196;2.68
361;1789.76;553.972;2.68
362;1767.78;552.019;2.69
363;1760.16;569.842;2.69
364;1794.95;550.066;2.69
365;1826.99;542.009;2.69
366;1841.64;565.935;2.69
367;1849.27;546.159;2.69
368;1836.76;546.159;2.7
369;1807.15;550.066;2.7
370;1797.39;565.935;2.7
371;1814.48;540.056;2.7
372;1826.99;548.112;2.7
373;1829.43;528.336;2.7
374;1822.11;557.878;2.71
375;1792.5;557.878;2.71
376;1762.9;536.149;2.71
377;1770.23;561.785;2.71
378;1804.71;555.925;2.71
379;1816.92;557.878;2.71
380;1822.11;538.102;2.72
381;1819.67;569.842;2.72
382;1799.83;557.878;2.72
383;1784.88;577.654;2.72
384;1822.11;550.066;2.72
385;1849.27;546.159;2.72
386;1868.8;571.795;2.73
387;1876.43;546.159;2.73
388;1859.03;552.019;2.73
389;1834.31;553.972;2.73
390;1819.67;567.888;2.73
391;1839.2;538.102;2.73
392;1851.71;552.019;2.73
393;1856.59;530.29;2.74
394;1846.83;567.888;2.74
395;1814.48;561.785;2.74
396;1782.43;540.056;2.74
397;1797.39;565.935;2.74
398;1824.55;559.832;2.74
399;1841.64;561.785;2.74
400;1849.27;542.009;2.75
401;1844.08;577.654;2.75
402;1822.11;559.832;2.75
403;1812.04;581.561;2.75
404;1844.08;548.112;2.75
405;1878.87;552.019;2.75
406;1895.96;575.701;2.76
407;1901.15;544.206;2.76
408;1883.75;559.832;2.76
409;1854.15;557.878;2.76
410;1841.64;573.748;2.76
411;1861.48;563.738;2.76
412;1876.43;552.019;2.76
413;1878.87;542.009;2.77
414;1871.24;553.972;2.77
415;1836.76;571.795;2.77
416;1807.15;548.112;2.77
417;1819.67;559.832;2.77
418;1849.27;569.842;2.77
419;1863.92;557.878;2.77
420;1868.8;548.112;2.78
421;1866.36;559.832;2.78
422;1841.64;565.935;2.78
423;1829.43;577.654;2.78
424;1863.92;565.935;2.78
425;1901.15;548.112;2.78
426;1913.36;573.748;2.78
427;1920.68;557.878;2.79
428;1906.03;553.972;2.79
429;1873.99;561.785;2.79
430;1859.03;571.795;2.79
431;1881.31;563.738;2.79
432;1891.08;555.925;2.79
433;1895.96;542.009;2.79
434;1886.2;559.832;2.79
435;1851.71;569.842;2.8
436;1819.67;546.159;2.8
437;1831.87;565.935;2.8
438;1861.48;571.795;2.8
439;1876.43;561.785;2.8
440;1883.75;548.112;2.8
441;1878.87;563.738;2.8
442;1854.15;565.935;2.81
443;1839.2;583.514;2.81
444;1876.43;563.738;2.81
445;1910.92;552.019;2.81
446;1925.57;577.654;2.81
447;1933.19;559.832;2.81
448;1915.8;555.925;2.81
449;1886.2;561.785;2.82
450;1868.8;577.654;2.82
451;1888.64;561.785;2.82
452;1901.15;557.878;2.82
453;1906.03;540.056;2.82
454;1893.52;569.842;2.82
455;1863.92;573.748;2.82
456;1829.43;546.159;2.82
457;1839.2;569.842;2.83
458;1871.24;571.795;2.83
459;1886.2;565.935;2.83
460;1895.96;550.066;2.83
461;1886.2;575.701;2.83
462;1868.8;567.888;2.83
463;1849.27;589.618;2.83
464;1886.2;559.832;2.84
465;1920.68;555.925;2.84
466;1935.64;583.514;2.84
467;1942.96;559.832;2.84
468;1925.57;561.785;2.84
469;1895.96;559.832;2.84
470;1878.87;581.561;2.84
471;1898.4;552.019;2.84
472;1913.36;561.785;2.85
473;1915.8;540.056;2.85
474;1908.47;573.748;2.85
475;1876.43;571.795;2.85
476;1839.2;548.112;2.85
477;1846.83;577.654;2.85
478;1881.31;567.888;2.85
479;1895.96;569.842;2.85
480;1901.15;552.019;2.86
481;1898.4;585.467;2.86
482;1873.99;569.842;2.86
483;1854.15;589.618;2.86
484;1893.52;557.878;2.86
485;1928.31;561.785;2.86
486;1942.96;585.467;2.86
487;1950.29;555.925;2.86
488;1935.64;565.935;2.87
489;1903.59;561.785;2.87
490;1886.2;579.608;2.87
491;1906.03;550.066;2.87
492;1918.24;561.785;2.87
493;1923.12;542.009;2.87
494;1913.36;581.561;2.87
495;1881.31;573.748;2.87
496;1846.83;548.112;2.88
497;1856.59;579.608;2.88
498;1888.64;571.795;2.88
499;1903.59;571.795;2.88
500;1908.47;553.972;2.88
501;1903.59;585.467;2.88
502;1878.87;567.888;2.88
503;1861.48;593.524;2.88
504;1898.4;553.972;2.88
505;1933.19;561.785;2.89
506;1947.84;587.42;2.89
507;1955.47;552.019;2.89
508;1935.64;563.738;2.89
509;1906.03;563.738;2.89
510;1886.2;583.514;2.89
511;1908.47;557.878;2.89
512;1918.24;561.785;2.89
513;1925.57;542.009;2.9
514;1915.8;575.701;2.9
515;1883.75;575.701;2.9
516;1846.83;550.066;2.9
517;1854.15;575.701;2.9
518;1891.08;569.842;2.9
519;1906.03;571.795;2.9
520;1910.92;552.019;2.9
521;1906.03;583.514;2.9
522;1881.31;569.842;2.91
523;1868.8;593.524;2.91
524;1901.15;561.785;2.91
525;1935.64;561.785;2.91
526;1950.29;585.467;2.91
527;1960.36;557.878;2.91
528;1942.96;565.935;2.91
529;1910.92;561.785;2.91
530;1893.52;581.561;2.91
531;1915.8;550.066;2.91
532;1925.57;565.935;2.92
533;1930.75;544.206;2.92
534;1925.57;581.561;2.92
535;1888.64;575.701;2.92
536;1854.15;553.972;2.92
537;1863.92;579.608;2.92
538;1898.4;571.795;2.92
539;1910.92;571.795;2.92
540;1920.68;552.019;2.92
541;1915.8;589.618;2.93
542;1891.08;569.842;2.93
543;1876.43;595.477;2.93
544;1908.47;557.878;2.93
545;1945.4;561.785;2.93
546;1960.36;587.42;2.93
547;1970.12;553.972;2.93
548;1950.29;567.888;2.93
549;1918.24;565.935;2.93
550;1903.59;583.514;2.94
551;1923.12;550.066;2.94
552;1935.64;565.935;2.94
553;1940.52;544.206;2.94
554;1930.75;589.618;2.94
555;1898.4;573.748;2.94
556;1859.03;548.112;2.94
557;1866.36;585.467;2.94
558;1901.15;579.608;2.94
559;1915.8;565.935;2.95
560;1920.68;553.972;2.95
561;1915.8;565.935;2.95
562;1893.52;573.748;2.95
563;1876.43;587.42;2.95
564;1910.92;573.748;2.95
565;1950.29;553.972;2.95
566;1962.8;583.514;2.95
567;1972.56;565.935;2.95
568;1955.47;561.785;2.95
569;1923.12;565.935;2.96
570;1903.59;581.561;2.96
571;1920.68;573.748;2.96
572;1935.64;561.785;2.96
573;1940.52;550.066;2.96
574;1930.75;571.795;2.96
575;1898.4;583.514;2.96
576;1861.48;553.972;2.96
577;1866.36;573.748;2.96
578;1903.59;579.608;2.96
579;1915.8;567.888;2.97
580;1923.12;553.972;2.97
581;1915.8;571.795;2.97
582;1895.96;575.701;2.97
583;1876.43;589.618;2.97
584;1910.92;569.842;2.97
585;1947.84;559.832;2.97
586;1967.68;585.467;2.97
587;1972.56;565.935;2.97
588;1957.91;563.738;2.97
589;1923.12;569.842;2.98
590;1906.03;583.514;2.98
591;1925.57;565.935;2.98
592;1938.08;565.935;2.98
593;1945.4;546.159;2.98
594;1935.64;575.701;2.98
595;1906.03;577.654;2.98
596;1868.8;552.019;2.98
597;1871.24;577.654;2.98
598;1908.47;577.654;2.98
599;1920.68;573.748;2.99
600;1930.75;553.972;2.99
601;1923.12;579.608;2.99
602;1901.15;571.795;2.99
603;1883.75;595.477;2.99
604;1918.24;565.935;2.99
605;1955.47;563.738;2.99
606;1972.56;589.618;2.99
607;1977.45;563.738;2.99
608;1962.8;565.935;2.99
609;1928.31;565.935;2.99
610;1910.92;585.467;3
611;1928.31;557.878;3
612;1942.96;565.935;3
613;1947.84;546.159;3
614;1940.52;579.608;3
615;1908.47;579.608;3
616;1871.24;552.019;3
617;1876.43;579.608;3
618;1910.92;575.701;3
619;1925.57;575.701;3
620;1933.19;553.972;3.01
621;1928.31;589.618;3.01
622;1906.03;571.795;3.01
623;1886.2;595.477;3.01
624;1920.68;563.738;3.01
625;1957.91;565.935;3.01
626;1972.56;591.571;3.01
627;1977.45;559.832;3.01
628;1962.8;567.888;3.01
629;1930.75;567.888;3.01
630;1910.92;581.561;3.01
631;1928.31;553.972;3.02
632;1942.96;569.842;3.02
633;1947.84;544.206;3.02
634;1938.08;587.42;3.02
635;1906.03;577.654;3.02
636;1871.24;552.019;3.02
637;1871.24;583.514;3.02
638;1908.47;573.748;3.02
639;1923.12;573.748;3.02
640;1933.19;555.925;3.02
641;1928.31;593.524;3.02
642;1903.59;575.701;3.03
643;1883.75;599.384;3.03
644;1915.8;557.878;3.03
645;1952.73;565.935;3.03
646;1967.68;589.618;3.03
647;1977.45;557.878;3.03
648;1962.8;569.842;3.03
649;1928.31;567.888;3.03
650;1906.03;585.467;3.03
651;1928.31;552.019;3.03
652;1940.52;571.795;3.03
653;1947.84;546.159;3.04
654;1938.08;593.524;3.04
655;1903.59;581.561;3.04
656;1868.8;555.925;3.04
657;1868.8;571.795;3.04
658;1903.59;579.608;3.04
659;1918.24;571.795;3.04
660;1928.31;555.925;3.04
661;1923.12;569.842;3.04
662;1898.4;575.701;3.04
663;1878.87;591.571;3.04
664;1910.92;575.701;3.05
665;1945.4;559.832;3.05
666;1962.8;583.514;3.05
667;1970.12;569.842;3.05
668;1955.47;563.738;3.05
669;1923.12;569.842;3.05
670;1901.15;583.514;3.05
671;1923.12;575.701;3.05
672;1935.64;565.935;3.05
673;1938.08;548.112;3.05
674;1933.19;571.795;3.05
675;1898.4;583.514;3.06
676;1861.48;555.925;3.06
677;1863.92;573.748;3.06
678;1898.4;577.654;3.06
679;1913.36;571.795;3.06
680;1923.12;555.925;3.06
681;1918.24;577.654;3.06
682;1893.52;573.748;3.06
683;1873.99;593.524;3.06
684;1908.47;569.842;3.06
685;1942.96;559.832;3.06
686;1960.36;587.42;3.07
687;1967.68;563.738;3.07
688;1952.73;563.738;3.07
689;1923.12;569.842;3.07
690;1901.15;585.467;3.07
691;1918.24;565.935;3.07
692;1933.19;565.935;3.07
693;1938.08;546.159;3.07
694;1930.75;577.654;3.07
695;1898.4;579.608;3.07
696;1861.48;553.972;3.07
697;1863.92;581.561;3.07
698;1898.4;577.654;3.08
699;1915.8;573.748;3.08
700;1923.12;555.925;3.08
701;1918.24;585.467;3.08
702;1895.96;573.748;3.08
703;1876.43;597.43;3.08
704;1903.59;567.888;3.08
705;1942.96;565.935;3.08
706;1962.8;589.618;3.08
707;1967.68;561.785;3.08
708;1952.73;569.842;3.08
709;1920.68;567.888;3.08
710;1898.4;585.467;3.09
711;1918.24;555.925;3.09
712;1933.19;567.888;3.09
713;1938.08;546.159;3.09
714;1933.19;583.514;3.09
715;1898.4;577.654;3.09
716;1863.92;553.972;3.09
717;1866.36;583.514;3.09
718;1898.4;573.748;3.09
719;1913.36;577.654;3.09
720;1920.68;553.972;3.09
721;1918.24;593.524;3.09
722;1895.96;573.748;3.1
723;1871.24;597.43;3.1
724;1906.03;563.738;3.1
725;1942.96;565.935;3.1
726;1960.36;589.618;3.1
727;1967.68;561.785;3.1
728;1955.47;569.842;3.1
729;1923.12;567.888;3.1
730;1901.15;585.467;3.1
731;1918.24;552.019;3.1
732;1933.19;567.888;3.1
733;1940.52;546.159;3.1
734;1930.75;589.618;3.1
735;1898.4;575.701;3.11
736;1863.92;553.972;3.11
737;1863.92;585.467;3.11
738;1898.4;573.748;3.11
739;1915.8;575.701;3.11
740;1923.12;555.925;3.11
741;1920.68;589.618;3.11
742;1898.4;571.795;3.11
743;1878.87;597.43;3.11
744;1908.47;555.925;3.11
745;1942.96;565.935;3.11
746;1960.36;589.618;3.11
747;1970.12;557.878;3.12
748;1957.91;569.842;3.12
749;1925.57;565.935;3.12
750;1906.03;585.467;3.12
751;1923.12;553.972;3.12
752;1938.08;569.842;3.12
753;1940.52;546.159;3.12
754;1933.19;581.561;3.12
755;1901.15;579.608;3.12
756;1866.36;552.019;3.12
757;1866.36;579.608;3.12
758;1898.4;575.701;3.12
759;1915.8;575.701;3.12
760;1923.12;555.925;3.13
761;1918.24;589.618;3.13
762;1898.4;573.748;3.13
763;1878.87;595.477;3.13
764;1908.47;563.738;3.13
765;1942.96;565.935;3.13
766;1962.8;589.618;3.13
767;1970.12;557.878;3.13
768;1957.91;567.888;3.13
769;1925.57;565.935;3.13
770;1903.59;583.514;3.13
771;1920.68;553.972;3.13
772;1935.64;569.842;3.13
773;1942.96;544.206;3.13
774;1935.64;587.42;3.14
775;1903.59;577.654;3.14
776;1866.36;553.972;3.14
777;1863.92;585.467;3.14
778;1898.4;573.748;3.14
779;1915.8;575.701;3.14
780;1928.31;555.925;3.14
781;1923.12;591.571;3.14
782;1901.15;571.795;3.14
783;1878.87;597.43;3.14
784;1908.47;557.878;3.14
785;1947.84;567.888;3.14
786;1965.24;589.618;3.14
787;1975.01;555.925;3.14
788;1960.36;571.795;3.15
789;1930.75;567.888;3.15
790;1908.47;585.467;3.15
791;1925.57;552.019;3.15
792;1940.52;569.842;3.15
793;1945.4;546.159;3.15
794;1940.52;593.524;3.15
795;1908.47;575.701;3.15
796;1868.8;555.925;3.15
797;1868.8;585.467;3.15
798;1903.59;571.795;3.15
799;1920.68;575.701;3.15
800;1933.19;555.925;3.15
801;1930.75;591.571;3.15
802;1906.03;571.795;3.16
803;1881.31;593.524;3.16
804;1915.8;575.701;3.16
805;1947.84;559.832;3.16
806;1967.68;587.42;3.16
807;1977.45;569.842;3.16
808;1965.24;563.738;3.16
809;1935.64;569.842;3.16
810;1908.47;583.514;3.16
811;1928.31;573.748;3.16
812;1945.4;563.738;3.16
813;1947.84;548.112;3.16
814;1940.52;573.748;3.16
815;1910.92;581.561;3.16
816;1868.8;555.925;3.16
817;1868.8;575.701;3.17
818;1906.03;579.608;3.17
819;1920.68;571.795;3.17
820;1928.31;555.925;3.17
821;1928.31;575.701;3.17
822;1903.59;573.748;3.17
823;1881.31;593.524;3.17
824;1910.92;569.842;3.17
825;1950.29;561.785;3.17
826;1970.12;585.467;3.17
827;1977.45;567.888;3.17
828;1962.8;565.935;3.17
829;1933.19;569.842;3.17
830;1910.92;585.467;3.17
831;1925.57;565.935;3.18
832;1940.52;565.935;3.18
833;1945.4;546.159;3.18
834;1938.08;577.654;3.18
835;1910.92;577.654;3.18
836;1871.24;552.019;3.18
837;1868.8;575.701;3.18
838;1906.03;575.701;3.18
839;1925.57;573.748;3.18
840;1930.75;553.972;3.18
841;1928.31;585.467;3.18
842;1908.47;571.795;3.18
843;1886.2;597.43;3.18
844;1915.8;563.738;3.18
845;1955.47;563.738;3.19
846;1972.56;589.618;3.19
847;1979.89;563.738;3.19
848;1970.12;567.888;3.19
849;1938.08;567.888;3.19
850;1915.8;587.42;3.19
851;1940.52;557.878;3.19
852;1952.73;567.888;3.19
853;1952.73;546.159;3.19
854;1940.52;581.561;3.19
855;1903.59;575.701;3.19
856;1868.8;553.972;3.19
857;1891.08;581.561;3.19
858;1923.12;573.748;3.19
859;1935.64;573.748;3.2
860;1942.96;555.925;3.2
861;1928.31;591.571;3.2
862;1903.59;573.748;3.2
863;1895.96;597.43;3.2
864;1942.96;563.738;3.2
865;1970.12;563.738;3.2
866;1982.64;589.618;3.2
867;1987.52;559.832;3.2
868;1965.24;569.842;3.2
869;1930.75;567.888;3.2
870;1925.57;585.467;3.2
871;1945.4;552.019;3.2
872;1957.91;569.842;3.2
873;1955.47;542.009;3.21
874;1940.52;589.618;3.21
875;1906.03;575.701;3.21
876;1868.8;553.972;3.21
877;1893.52;585.467;3.21
878;1923.12;573.748;3.21
879;1938.08;573.748;3.21
880;1942.96;555.925;3.21
881;1933.19;591.571;3.21
882;1906.03;571.795;3.21
883;1898.4;597.43;3.21
884;1938.08;553.972;3.21
885;1970.12;565.935;3.21
886;1985.08;589.618;3.21
887;1987.52;555.925;3.22
888;1965.24;569.842;3.22
889;1933.19;565.935;3.22
890;1925.57;585.467;3.22
891;1945.4;550.066;3.22
892;1957.91;567.888;3.22
893;1962.8;546.159;3.22
894;1945.4;593.524;3.22
895;1908.47;575.701;3.22
896;1873.99;553.972;3.22
897;1895.96;589.618;3.22
898;1928.31;571.795;3.22
899;1940.52;573.748;3.22
900;1947.84;555.925;3.22
901;1938.08;571.795;3.22
902;1910.92;575.701;3.23
903;1901.15;591.571;3.23
904;1942.96;571.795;3.23
905;1975.01;559.832;3.23
906;1987.52;583.514;3.23
907;1992.4;567.888;3.23
908;1970.12;563.738;3.23
909;1938.08;569.842;3.23
910;1930.75;583.514;3.23
911;1950.29;567.888;3.23
912;1962.8;563.738;3.23
913;1965.24;548.112;3.23
914;1950.29;573.748;3.23
915;1915.8;581.561;3.23
916;1881.31;553.972;3.24
917;1898.4;573.748;3.24
918;1933.19;573.748;3.24
919;1942.96;573.748;3.24
920;1952.73;553.972;3.24
921;1942.96;579.608;3.24
922;1915.8;575.701;3.24
923;1906.03;593.524;3.24
924;1950.29;569.842;3.24
925;1977.45;561.785;3.24
926;1994.84;585.467;3.24
927;1997.28;563.738;3.24
928;1975.01;567.888;3.24
929;1942.96;567.888;3.24
930;1933.19;585.467;3.25
931;1955.47;563.738;3.25
932;1962.8;565.935;3.25
933;1967.68;546.159;3.25
934;1952.73;577.654;3.25
935;1913.36;581.561;3.25
936;1881.31;552.019;3.25
937;1903.59;579.608;3.25
938;1935.64;575.701;3.25
939;1945.4;571.795;3.25
940;1952.73;555.925;3.25
941;1942.96;589.618;3.25
942;1918.24;571.795;3.25
943;1906.03;595.477;3.25
944;1947.84;565.935;3.26
945;1977.45;565.935;3.26
946;1994.84;589.618;3.26
947;1994.84;559.832;3.26
948;1975.01;567.888;3.26
949;1942.96;565.935;3.26
950;1933.19;583.514;3.26
951;1952.73;552.019;3.26
952;1965.24;571.795;3.26
953;1965.24;544.206;3.26
954;1950.29;585.467;3.26
955;1918.24;577.654;3.26
956;1883.75;552.019;3.26
957;1901.15;581.561;3.26
958;1933.19;571.795;3.27
959;1945.4;573.748;3.27
960;1952.73;555.925;3.27
961;1942.96;593.524;3.27
962;1918.24;571.795;3.27
963;1906.03;595.477;3.27
964;1950.29;559.832;3.27
965;1979.89;567.888;3.27
966;1997.28;587.42;3.27
967;1999.73;557.878;3.27
968;1977.45;567.888;3.27
969;1945.4;567.888;3.27
970;1935.64;585.467;3.27
971;1957.91;553.972;3.27
972;1967.68;567.888;3.27
973;1970.12;546.159;3.28
974;1957.91;591.571;3.28
975;1920.68;575.701;3.28
976;1888.64;553.972;3.28
977;1906.03;585.467;3.28
978;1940.52;573.748;3.28
979;1952.73;573.748;3.28
980;1957.91;555.925;3.28
981;1947.84;591.571;3.28
982;1920.68;571.795;3.28
983;1910.92;597.43;3.28
984;1955.47;553.972;3.28
985;1985.08;567.888;3.28
986;1997.28;587.42;3.28
987;2002.17;555.925;3.28
988;1979.89;571.795;3.29
989;1950.29;565.935;3.29
990;1935.64;583.514;3.29
991;1960.36;552.019;3.29
992;1970.12;569.842;3.29
993;1970.12;548.112;3.29
994;1960.36;595.477;3.29
995;1923.12;573.748;3.29
996;1888.64;553.972;3.29
997;1903.59;589.618;3.29
998;1940.52;573.748;3.29
999;1952.73;573.748;3.29
1000;1960.36;555.925;3.29
1001;1950.29;589.618;3.29
1002;1923.12;569.842;3.29
1003;1913.36;595.477;3.3
1004;1952.73;559.832;3.3
1005;1985.08;565.935;3.3
1006;2002.17;587.42;3.3
1007;2004.61;557.878;3.3
1008;1982.64;569.842;3.3
1009;1950.29;567.888;3.3
1010;1938.08;585.467;3.3
1011;1960.36;552.019;3.3
1012;1970.12;567.888;3.3
1013;1972.56;544.206;3.3
1014;1960.36;589.618;3.3
1015;1925.57;577.654;3.3
1016;1888.64;553.972;3.3
1017;1908.47;587.42;3.3
1018;1942.96;571.795;3.31
1019;1955.47;575.701;3.31
1020;1962.8;555.925;3.31
1021;1950.29;591.571;3.31
1022;1928.31;571.795;3.31
1023;1915.8;597.43;3.31
1024;1957.91;555.925;3.31
1025;1987.52;567.888;3.31
1026;2002.17;589.618;3.31
1027;2007.05;555.925;3.31
1028;1985.08;569.842;3.31
1029;1955.47;565.935;3.31
1030;1940.52;585.467;3.31
1031;1965.24;550.066;3.31
1032;1975.01;569.842;3.31
1033;1977.45;546.159;3.31
1034;1967.68;593.524;3.32
1035;1930.75;577.654;3.32
1036;1895.96;552.019;3.32
1037;1910.92;589.618;3.32
1038;1945.4;571.795;3.32
1039;1957.91;573.748;3.32
1040;1965.24;553.972;3.32
1041;1955.47;589.618;3.32
1042;1930.75;571.795;3.32
1043;1918.24;595.477;3.32
1044;1962.8;548.112;3.32
1045;1989.96;567.888;3.32
1046;2004.61;585.467;3.32
1047;2012.24;565.935;3.32
1048;1989.96;563.738;3.32
1049;1960.36;571.795;3.32
1050;1942.96;583.514;3.33
1051;1967.68;571.795;3.33
1052;1977.45;563.738;3.33
1053;1979.89;548.112;3.33
1054;1967.68;573.748;3.33
1055;1935.64;579.608;3.33
1056;1895.96;553.972;3.33
1057;1910.92;575.701;3.33
1058;1945.4;577.654;3.33
1059;1960.36;571.795;3.33
1060;1965.24;553.972;3.33
1061;1957.91;579.608;3.33
1062;1930.75;575.701;3.33
1063;1915.8;593.524;3.33
1064;1960.36;567.888;3.33
1065;1989.96;561.785;3.34
1066;2007.05;587.42;3.34
1067;2009.8;563.738;3.34
1068;1989.96;565.935;3.34
1069;1957.91;565.935;3.34
1070;1942.96;585.467;3.34
1071;1965.24;559.832;3.34
1072;1977.45;565.935;3.34
1073;1977.45;546.159;3.34
1074;1967.68;579.608;3.34
1075;1933.19;579.608;3.34
1076;1895.96;553.972;3.34
1077;1913.36;579.608;3.34
1078;1947.84;573.748;3.34
1079;1960.36;571.795;3.34
1080;1970.12;555.925;3.34
1081;1957.91;587.42;3.35
1082;1933.19;571.795;3.35
1083;1923.12;595.477;3.35
1084;1962.8;561.785;3.35
1085;1994.84;565.935;3.35
1086;2009.8;587.42;3.35
1087;2014.68;559.832;3.35
1088;1992.4;565.935;3.35
1089;1960.36;565.935;3.35
1090;1947.84;583.514;3.35
1091;1970.12;553.972;3.35
1092;1977.45;565.935;3.35
1093;1979.89;546.159;3.35
1094;1970.12;585.467;3.35
1095;1935.64;575.701;3.35
1096;1901.15;552.019;3.35
1097;1915.8;583.514;3.35
1098;1947.84;571.795;3.36
1099;1962.8;575.701;3.36
1100;1970.12;555.925;3.36
1101;1960.36;591.571;3.36
1102;1938.08;573.748;3.36
1103;1923.12;595.477;3.36
1104;1965.24;559.832;3.36
1105;1994.84;567.888;3.36
1106;2009.8;589.618;3.36
1107;2014.68;557.878;3.36
1108;1992.4;567.888;3.36
1109;1960.36;563.738;3.36
1110;1945.4;585.467;3.36
1111;1967.68;548.112;3.36
1112;1979.89;565.935;3.36
1113;1982.64;546.159;3.36
1114;1970.12;591.571;3.37
1115;1933.19;573.748;3.37
1116;1898.4;550.066;3.37
1117;1910.92;587.42;3.37
1118;1947.84;571.795;3.37
1119;1962.8;573.748;3.37
1120;1967.68;553.972;3.37
1121;1960.36;589.618;3.37
1122;1935.64;569.842;3.37
1123;1920.68;595.477;3.37
1124;1960.36;552.019;3.37
1125;1992.4;563.738;3.37
1126;2009.8;587.42;3.37
1127;2014.68;553.972;3.37
1128;1992.4;569.842;3.37
1129;1962.8;565.935;3.37
1130;1947.84;583.514;3.37
1131;1970.12;550.066;3.38
1132;1982.64;569.842;3.38
1133;1982.64;546.159;3.38
1134;1972.56;595.477;3.38
1135;1938.08;573.748;3.38
1136;1903.59;553.972;3.38
1137;1915.8;591.571;3.38
1138;1950.29;571.795;3.38
1139;1962.8;571.795;3.38
1140;1972.56;555.925;3.38
1141;1962.8;589.618;3.38
1142;1938.08;571.795;3.38
1143;1923.12;595.477;3.38
1144;1962.8;546.159;3.38
1145;1994.84;561.785;3.38
1146;2009.8;585.467;3.38
1147;2014.68;563.738;3.38
1148;1997.28;565.935;3.39
1149;1962.8;569.842;3.39
1150;1947.84;583.514;3.39
1151;1970.12;567.888;3.39
1152;1982.64;567.888;3.39
1153;1982.64;546.159;3.39
1154;1975.01;575.701;3.39
1155;1938.08;581.561;3.39
1156;1901.15;553.972;3.39
1157;1915.8;577.654;3.39
1158;1950.29;575.701;3.39
1159;1960.36;571.795;3.39
1160;1970.12;553.972;3.39
1161;1962.8;583.514;3.39
1162;1933.19;573.748;3.39
1163;1923.12;593.524;3.39
1164;1960.36;567.888;3.39
1165;1994.84;561.785;3.4
1166;2012.24;587.42;3.4
1167;2017.12;559.832;3.4
1168;1997.28;569.842;3.4
1169;1962.8;565.935;3.4
1170;1950.29;585.467;3.4
1171;1970.12;557.878;3.4
1172;1977.45;569.842;3.4
1173;1982.64;546.159;3.4
1174;1972.56;579.608;3.4
1175;1938.08;575.701;3.4
1176;1901.15;553.972;3.4
1177;1913.36;579.608;3.4
1178;1947.84;573.748;3.4
1179;1962.8;571.795;3.4
1180;1970.12;553.972;3.4
1181;1960.36;589.618;3.4
1182;1938.08;571.795;3.4
1183;1920.68;597.43;3.41
1184;1962.8;561.785;3.41
1185;1992.4;563.738;3.41
1186;2009.8;589.618;3.41
1187;2014.68;555.925;3.41
1188;1994.84;567.888;3.41
1189;1965.24;565.935;3.41
1190;1945.4;585.467;3.41
1191;1970.12;550.066;3.41
1192;1979.89;565.935;3.41
1193;1982.64;546.159;3.41
1194;1972.56;585.467;3.41
1195;1938.08;573.748;3.41
1196;1901.15;550.066;3.41
1197;1913.36;583.514;3.41
1198;1945.4;571.795;3.41
1199;1962.8;573.748;3.41
1200;1970.12;555.925;3.41
1201;1962.8;589.618;3.42
1202;1938.08;571.795;3.42
1203;1920.68;597.43;3.42
1204;1960.36;553.972;3.42
1205;1994.84;563.738;3.42
1206;2014.68;589.618;3.42
1207;2017.12;553.972;3.42
1208;1997.28;567.888;3.42
1209;1967.68;565.935;3.42
1210;1947.84;585.467;3.42
1211;1970.12;548.112;3.42
1212;1982.64;569.842;3.42
1213;1982.64;546.159;3.42
1214;1972.56;593.524;3.42
1215;1938.08;573.748;3.42
1216;1901.15;553.972;3.42
1217;1913.36;587.42;3.42
1218;1945.4;571.795;3.43
1219;1960.36;573.748;3.43
1220;1970.12;555.925;3.43
1221;1962.8;589.618;3.43
1222;1935.64;571.795;3.43
1223;1920.68;595.477;3.43
1224;1960.36;550.066;3.43
1225;1992.4;567.888;3.43
1226;2007.05;589.618;3.43
1227;2017.12;553.972;3.43
1228;1997.28;571.795;3.43
1229;1965.24;565.935;3.43
1230;1947.84;583.514;3.43
1231;1970.12;550.066;3.43
1232;1979.89;567.888;3.43
1233;1982.64;548.112;3.43
1234;1972.56;599.384;3.43
1235;1940.52;573.748;3.44
1236;1901.15;553.972;3.44
1237;1910.92;591.571;3.44
1238;1945.4;571.795;3.44
1239;1962.8;571.795;3.44
1240;1967.68;557.878;3.44
1241;1962.8;587.42;3.44
1242;1938.08;571.795;3.44
1243;1920.68;595.477;3.44
1244;1957.91;557.878;3.44
1245;1992.4;563.738;3.44
1246;2009.8;587.42;3.44
1247;2017.12;557.878;3.44
1248;1994.84;569.842;3.44
1249;1962.8;563.738;3.44
1250;1947.84;583.514;3.44
1251;1967.68;546.159;3.44
1252;1979.89;567.888;3.45
1253;1982.64;542.009;3.45
1254;1975.01;591.571;3.45
1255;1938.08;573.748;3.45
1256;1903.59;553.972;3.45
1257;1910.92;585.467;3.45
1258;1947.84;569.842;3.45
1259;1962.8;573.748;3.45
1260;1970.12;553.972;3.45
1261;1962.8;591.571;3.45
1262;1940.52;567.888;3.45
1263;1920.68;595.477;3.45
1264;1960.36;550.066;3.45
1265;1992.4;565.935;3.45
1266;2009.8;585.467;3.45
1267;2019.56;552.019;3.45
1268;1997.28;569.842;3.45
1269;1965.24;565.935;3.46
1270;1947.84;585.467;3.46
1271;1970.12;550.066;3.46
1272;1979.89;567.888;3.46
1273;1982.64;544.206;3.46
1274;1975.01;595.477;3.46
1275;1940.52;573.748;3.46
1276;1898.4;552.019;3.46
1277;1910.92;589.618;3.46
1278;1947.84;571.795;3.46
1279;1960.36;569.842;3.46
1280;1965.24;555.925;3.46
1281;1962.8;589.618;3.46
1282;1935.64;569.842;3.46
1283;1918.24;593.524;3.46
1284;1957.91;546.159;3.46
1285;1989.96;565.935;3.46
1286;2007.05;583.514;3.47
1287;2012.24;552.019;3.47
1288;1994.84;569.842;3.47
1289;1962.8;567.888;3.47
1290;1942.96;583.514;3.47
1291;1967.68;565.935;3.47
1292;1977.45;565.935;3.47
1293;1985.08;546.159;3.47
1294;1972.56;573.748;3.47
1295;1938.08;577.654;3.47
1296;1903.59;552.019;3.47
1297;1910.92;575.701;3.47
1298;1945.4;573.748;3.47
1299;1960.36;571.795;3.47
1300;1967.68;552.019;3.47
1301;1962.8;581.561;3.47
1302;1938.08;573.748;3.47
1303;1920.68;595.477;3.47
1304;1957.91;565.935;3.48
1305;1992.4;561.785;3.48
1306;2009.8;587.42;3.48
1307;2012.24;559.832;3.48
1308;1999.73;567.888;3.48
1309;1962.8;565.935;3.48
1310;1947.84;585.467;3.48
1311;1967.68;555.925;3.48
1312;1982.64;565.935;3.48
1313;1982.64;544.206;3.48
1314;1975.01;579.608;3.48
1315;1940.52;577.654;3.48
1316;1901.15;550.066;3.48
1317;1910.92;581.561;3.48
1318;1945.4;573.748;3.48
1319;1960.36;571.795;3.48
1320;1970.12;552.019;3.48
1321;1962.8;589.618;3.49
1322;1940.52;571.795;3.49
1323;1920.68;593.524;3.49
1324;1955.47;557.878;3.49
1325;1994.84;563.738;3.49
1326;2009.8;589.618;3.49
1327;2017.12;557.878;3.49
1328;1997.28;567.888;3.49
1329;1967.68;565.935;3.49
1330;1947.84;583.514;3.49
1331;1967.68;550.066;3.49
1332;1979.89;567.888;3.49
1333;1985.08;542.009;3.49
1334;1977.45;583.514;3.49
1335;1940.52;577.654;3.49
1336;1903.59;550.066;3.49
1337;1910.92;583.514;3.49
1338;1947.84;573.748;3.5
1339;1962.8;571.795;3.5
1340;1970.12;553.972;3.5
1341;1962.8;589.618;3.5
1342;1940.52;569.842;3.5
1343;1920.68;595.477;3.5
1344;1957.91;553.972;3.5
1345;1989.96;563.738;3.5
1346;2009.8;587.42;3.5
1347;2017.12;555.925;3.5
1348;1997.28;569.842;3.5
1349;1962.8;563.738;3.5
1350;1945.4;585.467;3.5
1351;1967.68;548.112;3.5
1352;1979.89;565.935;3.5
1353;1982.64;544.206;3.5
1354;1977.45;593.524;3.5
1355;1940.52;571.795;3.51
1356;1903.59;550.066;3.51
1357;1908.47;587.42;3.51
1358;1945.4;567.888;3.51
1359;1960.36;571.795;3.51
1360;1967.68;553.972;3.51
1361;1962.8;587.42;3.51
1362;1938.08;569.842;3.51
1363;1920.68;593.524;3.51
1364;1955.47;548.112;3.51
1365;1992.4;567.888;3.51
1366;2004.61;585.467;3.51
1367;2014.68;553.972;3.51
1368;1999.73;569.842;3.51
1369;1967.68;567.888;3.51
1370;1945.4;583.514;3.51
1371;1970.12;548.112;3.51
1372;1982.64;567.888;3.52
1373;1982.64;544.206;3.52
1374;1975.01;597.43;3.52
1375;1942.96;573.748;3.52
1376;1903.59;553.972;3.52
1377;1913.36;589.618;3.52
1378;1950.29;569.842;3.52
1379;1962.8;571.795;3.52
1380;1970.12;553.972;3.52
1381;1965.24;587.42;3.52
1382;1942.96;571.795;3.52
1383;1923.12;593.524;3.52
1384;1955.47;540.056;3.52
1385;1992.4;567.888;3.52
1386;2007.05;583.514;3.52
1387;2014.68;548.112;3.52
1388;1999.73;569.842;3.52
1389;1967.68;565.935;3.52
1390;1947.84;583.514;3.53
1391;1970.12;561.785;3.53
1392;1979.89;561.785;3.53
1393;1982.64;542.009;3.53
1394;1977.45;575.701;3.53
1395;1942.96;577.654;3.53
1396;1906.03;552.019;3.53
1397;1908.47;579.608;3.53
1398;1947.84;573.748;3.53
1399;1960.36;571.795;3.53
1400;1970.12;553.972;3.53
1401;1957.91;583.514;3.53
1402;1928.31;571.795;3.53
1403;1928.31;593.524;3.53
1404;1972.56;561.785;3.53
1405;1999.73;561.785;3.53
1406;2012.24;587.42;3.53
1407;2012.24;559.832;3.54
1408;1987.52;567.888;3.54
1409;1957.91;565.935;3.54
1410;1950.29;583.514;3.54
1411;1975.01;553.972;3.54
1412;1982.64;565.935;3.54
1413;1979.89;542.009;3.54
1414;1965.24;581.561;3.54
1415;1928.31;575.701;3.54
1416;1898.4;550.066;3.54
1417;1925.57;579.608;3.54
1418;1952.73;571.795;3.54
1419;1965.24;571.795;3.54
1420;1970.12;553.972;3.54
1421;1955.47;587.42;3.54
1422;1928.31;569.842;3.54
1423;1928.31;593.524;3.54
1424;1972.56;557.878;3.54
1425;1999.73;563.738;3.55
1426;2012.24;587.42;3.55
1427;2014.68;555.925;3.55
1428;1985.08;567.888;3.55
1429;1955.47;561.785;3.55
1430;1952.73;583.514;3.55
1431;1975.01;548.112;3.55
1432;1982.64;565.935;3.55
1433;1985.08;542.009;3.55
1434;1967.68;587.42;3.55
1435;1925.57;573.748;3.55
1436;1898.4;550.066;3.55
1437;1928.31;583.514;3.55
1438;1955.47;569.842;3.55
1439;1965.24;571.795;3.55
1440;1970.12;553.972;3.55
1441;1957.91;589.618;3.55
1442;1930.75;569.842;3.55
1443;1928.31;595.477;3.56
1444;1975.01;552.019;3.56
1445;1999.73;565.935;3.56
1446;2014.68;585.467;3.56
1447;2014.68;555.925;3.56
1448;1987.52;567.888;3.56
1449;1955.47;565.935;3.56
1450;1952.73;583.514;3.56
1451;1975.01;550.066;3.56
1452;1982.64;565.935;3.56
1453;1982.64;542.009;3.56
1454;1965.24;593.524;3.56
1455;1928.31;571.795;3.56
1456;1898.4;552.019;3.56
1457;1923.12;587.42;3.56
1458;1952.73;569.842;3.56
1459;1962.8;569.842;3.56
1460;1967.68;552.019;3.57
1461;1955.47;585.467;3.57
1462;1928.31;569.842;3.57
1463;1925.57;591.571;3.57
1464;1972.56;544.206;3.57
1465;1997.28;565.935;3.57
1466;2009.8;587.42;3.57
1467;2012.24;552.019;3.57
1468;1987.52;567.888;3.57
1469;1955.47;563.738;3.57
1470;1950.29;581.561;3.57
1471;1975.01;548.112;3.57
1472;1979.89;565.935;3.57
1473;1979.89;546.159;3.57
1474;1965.24;595.477;3.57
1475;1928.31;569.842;3.57
1476;1898.4;553.972;3.57
1477;1923.12;589.618;3.57
1478;1950.29;567.888;3.58
1479;1965.24;567.888;3.58
1480;1967.68;553.972;3.58
1481;1960.36;585.467;3.58
1482;1930.75;569.842;3.58
1483;1925.57;593.524;3.58
1484;1972.56;542.009;3.58
1485;1997.28;569.842;3.58
1486;2012.24;587.42;3.58
1487;2012.24;552.019;3.58
1488;1987.52;567.888;3.58
1489;1957.91;565.935;3.58
1490;1952.73;583.514;3.58
1491;1972.56;550.066;3.58
1492;1979.89;567.888;3.58
1493;1982.64;542.009;3.58
1494;1970.12;591.571;3.58
1495;1930.75;573.748;3.58
1496;1898.4;550.066;3.59
1497;1925.57;585.467;3.59
1498;1955.47;569.842;3.59
1499;1967.68;571.795;3.59
1500;1970.12;553.972;3.59
1501;1957.91;589.618;3.59
1502;1930.75;569.842;3.59
1503;1928.31;593.524;3.59
1504;1972.56;546.159;3.59
1505;1999.73;565.935;3.59
1506;2014.68;585.467;3.59
1507;2012.24;550.066;3.59
1508;1989.96;567.888;3.59
1509;1955.47;563.738;3.59
1510;1952.73;581.561;3.59
1511;1975.01;548.112;3.59
1512;1982.64;565.935;3.59
1513;1982.64;540.056;3.6
1514;1967.68;597.43;3.6
1515;1930.75;571.795;3.6
1516;1898.4;550.066;3.6
1517;1923.12;589.618;3.6
1518;1952.73;567.888;3.6
1519;1965.24;569.842;3.6
1520;1970.12;555.925;3.6
1521;1957.91;587.42;3.6
1522;1928.31;569.842;3.6
1523;1925.57;591.571;3.6
1524;1972.56;542.009;3.6
1525;1999.73;565.935;3.6
1526;2014.68;585.467;3.6
1527;2014.68;548.112;3.6
1528;1989.96;569.842;3.6
1529;1955.47;565.935;3.6
1530;1950.29;579.608;3.6
1531;1975.01;552.019;3.61
1532;1982.64;565.935;3.61
1533;1979.89;546.159;3.61
1534;1965.24;595.477;3.61
1535;1930.75;571.795;3.61
1536;1898.4;550.066;3.61
1537;1923.12;577.654;3.61
1538;1950.29;571.795;3.61
1539;1962.8;571.795;3.61
1540;1967.68;552.019;3.61
1541;1955.47;583.514;3.61
1542;1928.31;571.795;3.61
1543;1923.12;593.524;3.61
1544;1970.12;563.738;3.61
1545;1997.28;559.832;3.61
1546;2012.24;587.42;3.61
1547;2012.24;557.878;3.61
1548;1989.96;565.935;3.61
1549;1957.91;565.935;3.61
1550;1952.73;581.561;3.62
1551;1975.01;552.019;3.62
1552;1979.89;565.935;3.62
1553;1982.64;538.102;3.62
1554;1967.68;581.561;3.62
1555;1930.75;573.748;3.62
1556;1898.4;550.066;3.62
1557;1920.68;575.701;3.62
1558;1955.47;571.795;3.62
1559;1962.8;571.795;3.62
1560;1970.12;552.019;3.62
1561;1955.47;587.42;3.62
1562;1930.75;569.842;3.62
1563;1925.57;593.524;3.62
1564;1970.12;557.878;3.62
1565;1999.73;563.738;3.62
1566;2009.8;585.467;3.62
1567;2014.68;555.925;3.63
1568;1989.96;565.935;3.63
1569;1957.91;563.738;3.63
1570;1952.73;581.561;3.63
1571;1977.45;550.066;3.63
1572;1979.89;565.935;3.63
1573;1982.64;540.056;3.63
1574;1970.12;583.514;3.63
1575;1930.75;573.748;3.63
1576;1898.4;550.066;3.63
1577;1923.12;581.561;3.63
1578;1952.73;571.795;3.63
1579;1965.24;569.842;3.63
1580;1970.12;553.972;3.63
1581;1957.91;591.571;3.63
1582;1933.19;569.842;3.63
1583;1923.12;593.524;3.63
1584;1970.12;552.019;3.63
1585;1997.28;563.738;3.63
1586;2009.8;585.467;3.64
1587;2012.24;553.972;3.64
1588;1987.52;567.888;3.64
1589;1955.47;559.832;3.64
1590;1950.29;581.561;3.64
1591;1972.56;548.112;3.64
1592;1979.89;565.935;3.64
1593;1979.89;542.009;3.64
1594;1965.24;591.571;3.64
1595;1928.31;571.795;3.64
1596;1895.96;552.019;3.64
1597;1920.68;585.467;3.64
1598;1952.73;569.842;3.64
1599;1965.24;569.842;3.64
1600;1970.12;553.972;3.64
1601;1957.91;585.467;3.64
1602;1930.75;567.888;3.64
1603;1923.12;593.524;3.64
1604;1970.12;544.206;3.65
1605;1997.28;563.738;3.65
1606;2009.8;581.561;3.65
1607;2014.68;548.112;3.65
1608;1987.52;567.888;3.65
1609;1957.91;559.832;3.65
1610;1950.29;581.561;3.65
1611;1975.01;552.019;3.65
1612;1979.89;563.738;3.65
1613;1982.64;544.206;3.65
1614;1970.12;595.477;3.65
1615;1930.75;571.795;3.65
1616;1898.4;550.066;3.65
1617;1923.12;589.618;3.65
1618;1952.73;567.888;3.65
1619;1965.24;567.888;3.65
1620;1970.12;553.972;3.65
1621;1960.36;583.514;3.65
1622;1933.19;569.842;3.66
1623;1925.57;591.571;3.66
1624;1970.12;540.056;3.66
1625;1999.73;565.935;3.66
1626;2012.24;583.514;3.66
1627;2014.68;548.112;3.66
1628;1992.4;565.935;3.66
1629;1957.91;565.935;3.66
1630;1950.29;579.608;3.66
1631;1975.01;552.019;3.66
1632;1982.64;561.785;3.66
1633;1979.89;548.112;3.66
1634;1967.68;577.654;3.66
1635;1930.75;575.701;3.66
1636;1898.4;550.066;3.66
1637;1920.68;575.701;3.66
1638;1952.73;573.748;3.66
1639;1962.8;569.842;3.66
1640;1967.68;552.019;3.66
1641;1957.91;581.561;3.67
1642;1930.75;569.842;3.67
1643;1925.57;591.571;3.67
1644;1967.68;559.832;3.67
1645;1997.28;561.785;3.67
1646;2012.24;583.514;3.67
1647;2012.24;557.878;3.67
1648;1989.96;565.935;3.67
1649;1957.91;561.785;3.67
1650;1950.29;581.561;3.67
1651;1972.56;550.066;3.67
1652;1979.89;565.935;3.67
1653;1979.89;542.009;3.67
1654;1965.24;581.561;3.67
1655;1930.75;573.748;3.67
1656;1895.96;550.066;3.67
1657;1918.24;579.608;3.67
1658;1945.4;567.888;3.67
1659;1960.36;569.842;3.68
1660;1965.24;552.019;3.68
1661;1955.47;585.467;3.68
1662;1930.75;565.935;3.68
1663;1920.68;593.524;3.68
1664;1965.24;555.925;3.68
1665;1994.84;561.785;3.68
1666;2009.8;583.514;3.68
1667;2009.8;553.972;3.68
1668;1985.08;563.738;3.68
1669;1955.47;561.785;3.68
1670;1945.4;581.561;3.68
1671;1970.12;546.159;3.68
1672;1977.45;563.738;3.68
1673;1979.89;538.102;3.68
1674;1967.68;587.42;3.68
1675;1930.75;571.795;3.68
1676;1898.4;550.066;3.68
1677;1918.24;583.514;3.69
1678;1947.84;565.935;3.69
1679;1962.8;569.842;3.69
1680;1965.24;552.019;3.69
1681;1952.73;587.42;3.69
1682;1925.57;567.888;3.69
1683;1928.31;591.571;3.69
1684;1977.45;546.159;3.69
1685;1997.28;561.785;3.69
1686;2009.8;583.514;3.69
1687;2009.8;548.112;3.69
1688;1982.64;567.888;3.69
1689;1950.29;561.785;3.69
1690;1950.29;581.561;3.69
1691;1972.56;548.112;3.69
1692;1979.89;565.935;3.69
1693;1979.89;542.009;3.69
1694;1962.8;591.571;3.69
1695;1920.68;569.842;3.69
1696;1895.96;548.112;3.7
1697;1925.57;583.514;3.7
1698;1950.29;565.935;3.7
1699;1962.8;567.888;3.7
1700;1967.68;553.972;3.7
1701;1950.29;585.467;3.7
1702;1923.12;565.935;3.7
1703;1928.31;591.571;3.7
1704;1972.56;540.056;3.7
1705;1992.4;567.888;3.7
1706;2009.8;581.561;3.7
1707;2007.05;548.112;3.7
1708;1979.89;565.935;3.7
1709;1947.84;565.935;3.7
1710;1947.84;577.654;3.7
1711;1972.56;548.112;3.7
1712;1977.45;561.785;3.7
1713;1977.45;544.206;3.7
1714;1960.36;595.477;3.7
1715;1920.68;567.888;3.71
1716;1895.96;552.019;3.71
1717;1923.12;589.618;3.71
1718;1952.73;567.888;3.71
1719;1960.36;565.935;3.71
1720;1967.68;553.972;3.71
1721;1950.29;583.514;3.71
1722;1923.12;567.888;3.71
1723;1923.12;587.42;3.71
1724;1975.01;538.102;3.71
1725;1994.84;565.935;3.71
1726;2012.24;579.608;3.71
1727;2009.8;546.159;3.71
1728;1982.64;565.935;3.71
1729;1952.73;567.888;3.71
1730;1950.29;579.608;3.71
1731;1972.56;550.066;3.71
1732;1977.45;563.738;3.71
1733;1977.45;542.009;3.71
1734;1960.36;591.571;3.72
1735;1920.68;571.795;3.72
1736;1895.96;548.112;3.72
1737;1923.12;587.42;3.72
1738;1952.73;565.935;3.72
1739;1962.8;565.935;3.72
1740;1967.68;552.019;3.72
1741;1952.73;585.467;3.72
1742;1925.57;565.935;3.72
1743;1925.57;589.618;3.72
1744;1972.56;542.009;3.72
1745;1999.73;563.738;3.72
1746;2012.24;583.514;3.72
1747;2012.24;548.112;3.72
1748;1985.08;565.935;3.72
1749;1950.29;563.738;3.72
1750;1950.29;579.608;3.72
1751;1972.56;548.112;3.72
1752;1977.45;563.738;3.72
1753;1977.45;542.009;3.72
1754;1960.36;597.43;3.73
1755;1920.68;567.888;3.73
1756;1893.52;550.066;3.73
1757;1923.12;587.42;3.73
1758;1947.84;563.738;3.73
1759;1960.36;563.738;3.73
1760;1965.24;552.019;3.73
1761;1950.29;581.561;3.73
1762;1925.57;565.935;3.73
1763;1923.12;589.618;3.73
1764;1970.12;538.102;3.73
1765;1994.84;563.738;3.73
1766;2007.05;579.608;3.73
1767;2004.61;546.159;3.73
1768;1982.64;565.935;3.73
1769;1947.84;563.738;3.73
1770;1947.84;575.701;3.73
1771;1970.12;550.066;3.73
1772;1975.01;561.785;3.73
1773;1977.45;546.159;3.74
1774;1957.91;595.477;3.74
1775;1920.68;565.935;3.74
1776;1893.52;553.972;3.74
1777;1918.24;589.618;3.74
1778;1947.84;565.935;3.74
1779;1960.36;561.785;3.74
1780;1960.36;550.066;3.74
1781;1950.29;581.561;3.74
1782;1920.68;565.935;3.74
1783;1918.24;593.524;3.74
1784;1967.68;559.832;3.74
1785;1992.4;559.832;3.74
1786;2002.17;581.561;3.74
1787;2004.61;553.972;3.74
1788;1977.45;563.738;3.74
1789;1947.84;559.832;3.74
1790;1947.84;577.654;3.74
1791;1967.68;546.159;3.75
1792;1975.01;563.738;3.75
1793;1977.45;538.102;3.75
1794;1957.91;577.654;3.75
1795;1918.24;569.842;3.75
1796;1888.64;546.159;3.75
1797;1918.24;577.654;3.75
1798;1942.96;569.842;3.75
1799;1957.91;569.842;3.75
1800;1962.8;550.066;3.75
1801;1950.29;585.467;3.75
1802;1920.68;563.738;3.75
1803;1920.68;591.571;3.75
1804;1965.24;552.019;3.75
1805;1989.96;559.832;3.75
1806;2004.61;581.561;3.75
1807;2002.17;552.019;3.75
1808;1977.45;563.738;3.75
1809;1945.4;559.832;3.75
1810;1942.96;579.608;3.76
1811;1967.68;548.112;3.76
1812;1972.56;561.785;3.76
1813;1972.56;536.149;3.76
1814;1955.47;585.467;3.76
1815;1918.24;567.888;3.76
1816;1888.64;548.112;3.76
1817;1918.24;581.561;3.76
1818;1945.4;563.738;3.76
1819;1952.73;567.888;3.76
1820;1960.36;552.019;3.76
1821;1947.84;587.42;3.76
1822;1918.24;565.935;3.76
1823;1918.24;589.618;3.76
1824;1962.8;546.159;3.76
1825;1987.52;559.832;3.76
1826;1999.73;581.561;3.76
1827;2002.17;550.066;3.76
1828;1975.01;565.935;3.76
1829;1942.96;561.785;3.77
1830;1942.96;577.654;3.77
1831;1962.8;546.159;3.77
1832;1967.68;563.738;3.77
1833;1970.12;540.056;3.77
1834;1952.73;591.571;3.77
1835;1913.36;567.888;3.77
1836;1883.75;548.112;3.77
1837;1910.92;585.467;3.77
1838;1940.52;563.738;3.77
1839;1952.73;563.738;3.77
1840;1955.47;553.972;3.77
1841;1942.96;583.514;3.77
1842;1913.36;565.935;3.77
1843;1915.8;589.618;3.77
1844;1960.36;538.102;3.77
1845;1985.08;561.785;3.77
1846;1997.28;579.608;3.77
1847;1997.28;546.159;3.78
1848;1975.01;565.935;3.78
1849;1940.52;563.738;3.78
