<WeldAnalyseData xmlns:i="http:www.w3.org/2001/XMLSchema-instance">
<WeldParameter>
<TimeStamp>DT#2023-12-06-09:56:33</TimeStamp>
<Generator>SG-22-10000</Generator>
<GenFreq>20</GenFreq>
<MaxForce>8000</MaxForce>
<MaxPower>10000</MaxPower>
<RunupPressure>1.5</RunupPressure>
<RunupDist>10</RunupDist>
<RunPress>0.8</RunPress>
<ShakeDelay>0.03</ShakeDelay>
<ShakeTime>0.3</ShakeTime>
<RunBackPress1>6</RunBackPress1>
<RunBackPress2>2</RunBackPress2>
<RunBackDist>1</RunBackDist>
<TrigValue>500</TrigValue>
<TrigModeUnit>W</TrigModeUnit>
<WeldModeUnit>Ws</WeldModeUnit>
<PressNr>0</PressNr>
<MaxLoss>1500</MaxLoss>
</WeldParameter>
<WeldSets>
<WeldSet>
<PressRiseTime>0</PressRiseTime>
<RunPressure>1</RunPressure>
<Amplitude>86</Amplitude>
<WeldMode>3270</WeldMode>
</WeldSet>
</WeldSets>
<WeldValue>
<WeldNr>2452</WeldNr>
<RecipeName>RickStyle</RecipeName>
<WeldTime>1813</WeldTime>
<DistDiff>3.52</DistDiff>
<DistAbs>78.37</DistAbs>
<Energy>3271.65</Energy>
<MaxPower>2029.63</MaxPower>
<CycleTime>6160</CycleTime>
<TrigForce>500.748</TrigForce>
<TrigDist>74.85</TrigDist>
<RunSpeed>66.7112</RunSpeed>
<MaxForce>597.43</MaxForce>
<LossPower>256.508</LossPower>
</WeldValue>
</WeldAnalyseData>
#CSV-START#
ms;Power[W];Force[N];Distance[mm]
1;0;0;0
2;0;502.701;0
3;0;502.701;0
4;0;502.701;0.0100021
5;0;504.654;0.0100021
6;0;504.654;0.0100021
7;0;502.701;0.0100021
8;0;488.784;0.0100021
9;0;467.055;0.0200043
10;0.152618;449.232;0.0299988
11;19.9896;439.467;0.0400009
12;34.6385;427.503;0.0600052
13;54.4756;421.644;0.0800018
14;81.637;409.925;0.0999985
15;118.564;411.878;0.120003
16;158.238;405.774;0.139999
17;192.724;392.102;0.160004
18;219.886;403.821;0.18
19;237.281;396.008;0.200005
20;262.001;390.149;0.220001
21;291.604;401.868;0.239998
22;318.766;396.008;0.260002
23;340.739;396.008;0.279999
24;365.459;392.102;0.300003
25;387.738;396.008;0.32
26;402.692;396.008;0.330002
27;432.295;403.821;0.349998
28;459.456;386.242;0.370003
29;476.547;396.008;0.380005
30;491.501;401.868;0.400002
31;503.708;392.102;0.410004
32;503.708;401.868;0.43
33;506.149;399.915;0.440002
34;513.779;403.821;0.459999
35;521.104;396.008;0.470001
36;523.545;394.055;0.489998
37;525.987;392.102;0.5
38;523.545;405.774;0.520004
39;511.338;397.961;0.529999
40;511.338;397.961;0.550003
41;518.662;405.774;0.560005
42;523.545;401.868;0.57
43;523.545;403.821;0.590004
44;525.987;405.774;0.599998
45;521.104;407.971;0.610001
46;518.662;413.831;0.620003
47;530.87;415.784;0.630005
48;543.382;403.821;0.650002
49;550.707;411.878;0.660004
50;553.148;411.878;0.669998
51;553.148;405.774;0.68
52;548.265;411.878;0.700005
53;540.941;409.925;0.709999
54;543.382;409.925;0.720001
55;545.824;407.971;0.739998
56;543.382;405.774;0.75
57;543.382;411.878;0.760002
58;533.311;421.644;0.779999
59;523.545;411.878;0.790001
60;523.545;415.784;0.800003
61;533.311;419.691;0.810005
62;536.058;417.737;0.830002
63;540.941;415.784;0.840004
64;543.382;423.597;0.849998
65;543.382;421.644;0.860001
66;548.265;427.503;0.880005
67;563.219;423.597;0.889999
68;580.309;417.737;0.900002
69;587.634;427.503;0.919998
70;592.822;421.644;0.93
71;592.822;419.691;0.950005
72;587.634;423.597;0.959999
73;577.868;427.503;0.970001
74;577.868;421.644;0.989998
75;577.868;423.597;1
76;582.751;417.737;1.01
77;582.751;427.503;1.03
78;582.751;435.56;1.04
79;575.427;423.597;1.05
80;577.868;431.654;1.07
81;590.381;433.607;1.08
82;597.705;431.654;1.09
83;600.146;425.55;1.11
84;602.588;439.467;1.12
85;605.029;433.607;1.14
86;605.029;441.42;1.15
87;619.984;431.654;1.17
88;641.957;427.503;1.18
89;654.469;439.467;1.2
90;664.235;427.503;1.21
91;669.118;431.654;1.23
92;669.118;431.654;1.25
93;664.235;435.56;1.26
94;676.748;427.503;1.28
95;688.955;433.607;1.29
96;696.28;423.597;1.31001
97;703.909;439.467;1.32
98;703.909;441.42;1.34
99;696.28;427.503;1.35
100;701.468;443.373;1.36
101;718.558;439.467;1.38
102;735.954;437.513;1.39
103;743.278;431.654;1.41
104;750.603;449.232;1.42
105;758.232;439.467;1.43
106;760.674;453.383;1.44
107;785.394;435.56;1.46
108;814.997;437.513;1.47
109;829.646;451.186;1.48
110;842.158;437.513;1.5
111;851.924;441.42;1.51
112;849.483;441.42;1.52
113;847.041;445.326;1.53
114;856.807;443.373;1.54
115;869.32;439.467;1.55
116;879.086;431.654;1.57
117;891.598;443.373;1.58
118;889.157;451.186;1.59
119;879.086;437.513;1.6
120;886.41;445.326;1.61
121;913.572;451.186;1.62
122;930.967;445.326;1.63
123;943.48;441.42;1.64
124;955.687;451.186;1.65
125;963.012;453.383;1.66
126;967.895;465.102;1.67
127;997.803;453.383;1.68
128;1027.41;445.326;1.69
129;1044.5;463.149;1.7
130;1061.89;447.279;1.71
131;1066.77;447.279;1.72
132;1066.77;451.186;1.73
133;1064.33;461.196;1.74
134;1076.54;445.326;1.75
135;1091.49;449.232;1.76
136;1101.26;439.467;1.76
137;1108.89;457.289;1.77
138;1101.26;463.149;1.78
139;1089.05;445.326;1.79
140;1093.94;463.149;1.8
141;1121.1;463.149;1.81001
142;1136.05;459.243;1.81001
143;1143.38;449.232;1.82
144;1153.14;470.962;1.83
145;1155.58;463.149;1.84
146;1155.58;480.972;1.84
147;1175.42;459.243;1.85
148;1205.02;459.243;1.86
149;1222.42;477.065;1.87
150;1234.63;459.243;1.87
151;1239.51;463.149;1.88
152;1229.74;465.102;1.89
153;1224.86;477.065;1.89
154;1239.51;459.243;1.9
155;1256.9;465.102;1.91
156;1264.23;449.232;1.92
157;1274.3;479.019;1.92
158;1261.79;475.112;1.93
159;1244.7;457.289;1.94
160;1249.58;480.972;1.94
161;1279.18;475.112;1.95
162;1288.95;475.112;1.96
163;1303.9;470.962;1.96
164;1311.23;470.962;1.97
165;1308.79;480.972;1.97
166;1301.46;486.831;1.98
167;1331.06;492.691;1.99
168;1358.23;463.149;1.99
169;1375.32;484.878;2
170;1390.27;486.831;2
171;1387.83;475.112;2.01
172;1372.88;484.878;2.01
173;1363.11;490.738;2.02
174;1380.5;488.784;2.02
175;1397.6;479.019;2.03
176;1402.48;477.065;2.03
177;1404.92;480.972;2.04
178;1392.71;500.748;2.04
179;1365.55;484.878;2.05
180;1372.88;488.784;2.05
181;1402.48;502.701;2.06001
182;1414.99;490.738;2.06001
183;1424.76;482.925;2.07
184;1429.64;488.784;2.07
185;1424.76;496.597;2.08
186;1417.43;504.654;2.08
187;1442.15;500.748;2.08
188;1471.76;480.972;2.09
189;1486.4;504.654;2.09
190;1503.8;496.597;2.1
191;1501.36;488.784;2.1
192;1483.96;496.597;2.11
193;1471.76;506.607;2.11
194;1486.4;500.748;2.11
195;1501.36;496.597;2.12
196;1506.24;482.925;2.12
197;1511.12;498.795;2.13
198;1494.03;512.467;2.13
199;1466.87;492.691;2.13
200;1466.87;502.701;2.14
201;1496.48;512.467;2.14
202;1511.12;502.701;2.15
203;1521.2;492.691;2.15
204;1523.64;498.795;2.15
205;1518.75;510.514;2.16
206;1503.8;522.477;2.16
207;1528.52;510.514;2.17
208;1560.56;494.644;2.17
209;1577.96;520.524;2.17
210;1590.17;506.607;2.18
211;1582.84;500.748;2.18
212;1560.56;508.56;2.18
213;1550.8;518.326;2.19
214;1567.89;512.467;2.19
215;1582.84;504.654;2.2
216;1585.28;490.738;2.2
217;1582.84;510.514;2.2
218;1563.01;522.477;2.21
219;1538.29;498.795;2.21
220;1545.92;514.42;2.21
221;1573.08;520.524;2.22
222;1587.73;514.42;2.22
223;1597.8;498.795;2.22
224;1597.8;516.373;2.23
225;1585.28;518.326;2.23
226;1575.52;532.243;2.23
227;1607.56;518.326;2.24
228;1637.17;506.607;2.24
229;1652.12;530.29;2.25
230;1661.89;510.514;2.25
231;1654.56;514.42;2.25
232;1632.28;516.373;2.25
233;1622.21;528.336;2.26
234;1637.17;516.373;2.26
235;1649.37;514.42;2.26
236;1654.56;498.795;2.27
237;1652.12;522.477;2.27
238;1627.4;528.336;2.27
239;1600.24;504.654;2.28
240;1607.56;526.383;2.28
241;1634.72;524.43;2.28
242;1646.93;522.477;2.29
243;1652.12;506.607;2.29
244;1654.56;532.243;2.29
245;1639.61;526.383;2.3
246;1629.84;546.159;2.3
247;1659.44;520.524;2.3
248;1691.49;516.373;2.3
249;1703.7;542.009;2.31001
250;1713.77;518.326;2.31001
251;1706.44;522.477;2.31001
252;1684.16;522.477;2.32
253;1669.21;538.102;2.32
254;1689.05;516.373;2.32
255;1698.81;522.477;2.32
256;1703.7;504.654;2.33
257;1701.25;536.149;2.33
258;1676.53;536.149;2.33
259;1646.93;512.467;2.33
260;1654.56;522.477;2.34
261;1681.72;544.206;2.34
262;1696.37;528.336;2.34
263;1706.44;522.477;2.34
264;1703.7;522.477;2.35
265;1689.05;536.149;2.35
266;1679.28;540.056;2.35
267;1708.88;544.206;2.35
268;1740.93;510.514;2.36
269;1758.02;538.102;2.36
270;1768.09;536.149;2.36
271;1758.02;520.524;2.36
272;1730.86;532.243;2.37
273;1718.65;538.102;2.37
274;1736.05;538.102;2.37
275;1748.25;526.383;2.37
276;1755.58;520.524;2.38
277;1750.69;526.383;2.38
278;1728.42;552.019;2.38
279;1696.37;528.336;2.38
280;1696.37;530.29;2.38
281;1728.42;548.112;2.39
282;1743.37;534.196;2.39
283;1753.14;526.383;2.39
284;1753.14;532.243;2.39
285;1738.49;542.009;2.4
286;1721.09;550.066;2.4
287;1755.58;544.206;2.4
288;1787.62;522.477;2.4
289;1800.13;546.159;2.4
290;1814.78;538.102;2.41
291;1805.02;526.383;2.41
292;1775.41;538.102;2.41
293;1758.02;548.112;2.41
294;1777.86;542.009;2.41
295;1792.81;534.196;2.42
296;1795.25;522.477;2.42
297;1787.62;538.102;2.42
298;1763.21;552.019;2.42
299;1730.86;528.336;2.42
300;1733.6;540.056;2.43
301;1765.65;550.066;2.43
302;1780.3;538.102;2.43
303;1787.62;528.336;2.43
304;1785.18;538.102;2.43
305;1770.53;546.159;2.44
306;1753.14;559.832;2.44
307;1782.74;548.112;2.44
308;1817.53;528.336;2.44
309;1834.62;555.925;2.44
310;1844.69;542.009;2.45
311;1832.18;534.196;2.45
312;1805.02;542.009;2.45
313;1790.37;553.972;2.45
314;1807.46;546.159;2.45
315;1817.53;538.102;2.45
316;1824.85;522.477;2.46
317;1822.41;544.206;2.46
318;1792.81;555.925;2.46
319;1763.21;532.243;2.46
320;1763.21;550.066;2.46
321;1795.25;553.972;2.47
322;1809.9;548.112;2.47
323;1817.53;532.243;2.47
324;1817.53;546.159;2.47
325;1797.69;550.066;2.47
326;1782.74;569.842;2.47
327;1812.34;548.112;2.48
328;1849.57;536.149;2.48
329;1869.11;563.738;2.48
330;1874.29;542.009;2.48
331;1861.78;540.056;2.48
332;1837.06;546.159;2.49
333;1817.53;561.785;2.49
334;1832.18;548.112;2.49
335;1847.13;544.206;2.49
336;1852.02;526.383;2.49
337;1849.57;553.972;2.49
338;1822.41;557.878;2.5
339;1787.62;536.149;2.5
340;1787.62;555.925;2.5
341;1819.97;553.972;2.5
342;1832.18;550.066;2.5
343;1841.94;536.149;2.5
344;1839.5;555.925;2.51
345;1819.97;553.972;2.51
346;1802.58;573.748;2.51
347;1832.18;548.112;2.51
348;1866.66;542.009;2.51
349;1886.5;569.842;2.51
350;1899.01;546.159;2.52
351;1881.62;546.159;2.52
352;1854.46;548.112;2.52
353;1837.06;565.935;2.52
354;1852.02;548.112;2.52
355;1869.11;548.112;2.52
356;1871.85;526.383;2.53
357;1866.66;565.935;2.53
358;1839.5;563.738;2.53
359;1802.58;542.009;2.53
360;1805.02;553.972;2.53
361;1837.06;563.738;2.53
362;1849.57;552.019;2.53
363;1859.34;540.056;2.54
364;1856.9;553.972;2.54
365;1837.06;557.878;2.54
366;1819.97;573.748;2.54
367;1847.13;559.832;2.54
368;1886.5;542.009;2.54
369;1903.9;569.842;2.54
370;1911.22;553.972;2.55
371;1899.01;548.112;2.55
372;1871.85;553.972;2.55
373;1849.57;567.888;2.55
374;1864.22;557.878;2.55
375;1879.18;552.019;2.55
376;1886.5;532.243;2.55
377;1879.18;559.832;2.56001
378;1849.57;565.935;2.56001
379;1814.78;542.009;2.56001
380;1812.34;559.832;2.56001
381;1844.69;565.935;2.56001
382;1861.78;557.878;2.56001
383;1871.85;542.009;2.56001
384;1866.66;559.832;2.57
385;1849.57;561.785;2.57
386;1827.3;579.608;2.57
387;1856.9;561.785;2.57
388;1891.38;548.112;2.57
389;1913.66;573.748;2.57
390;1916.1;552.019;2.57
391;1908.78;552.019;2.58
392;1879.18;555.925;2.58
393;1856.9;573.748;2.58
394;1874.29;557.878;2.58
395;1888.94;553.972;2.58
396;1893.83;534.196;2.58
397;1888.94;567.888;2.58
398;1859.34;569.842;2.58
399;1824.85;544.206;2.59
400;1817.53;567.888;2.59
401;1854.46;565.935;2.59
402;1869.11;561.785;2.59
403;1879.18;546.159;2.59
404;1876.74;571.795;2.59
405;1856.9;565.935;2.59
406;1834.62;585.467;2.59
407;1861.78;573.748;2.6
408;1901.46;540.056;2.6
409;1920.99;565.935;2.6
410;1928.62;567.888;2.6
411;1916.1;544.206;2.6
412;1886.5;561.785;2.6
413;1864.22;569.842;2.6
414;1879.18;569.842;2.6
415;1896.27;553.972;2.61
416;1901.46;552.019;2.61
417;1893.83;553.972;2.61
418;1864.22;583.514;2.61
419;1827.3;555.925;2.61
420;1822.41;557.878;2.61
421;1859.34;581.561;2.61
422;1876.74;563.738;2.61
423;1884.06;552.019;2.61
424;1881.62;557.878;2.62
425;1861.78;569.842;2.62
426;1844.69;575.701;2.62
427;1866.66;575.701;2.62
428;1903.9;546.159;2.62
429;1923.43;571.795;2.62
430;1935.94;569.842;2.62
431;1923.43;552.019;2.62
432;1891.38;563.738;2.63
433;1869.11;573.748;2.63
434;1886.5;571.795;2.63
435;1899.01;557.878;2.63
436;1903.9;548.112;2.63
437;1899.01;559.832;2.63
438;1871.85;581.561;2.63
439;1832.18;555.925;2.63
440;1827.3;563.738;2.63
441;1861.78;577.654;2.64
442;1879.18;567.888;2.64
443;1886.5;552.019;2.64
444;1884.06;561.785;2.64
445;1866.66;571.795;2.64
446;1841.94;579.608;2.64
447;1866.66;573.748;2.64
448;1908.78;550.066;2.64
449;1923.43;575.701;2.64
450;1935.94;567.888;2.65
451;1928.62;557.878;2.65
452;1896.27;567.888;2.65
453;1874.29;575.701;2.65
454;1886.5;571.795;2.65
455;1903.9;561.785;2.65
456;1908.78;548.112;2.65
457;1906.34;563.738;2.65
458;1876.74;579.608;2.65
459;1837.06;553.972;2.66
460;1832.18;567.888;2.66
461;1866.66;577.654;2.66
462;1884.06;567.888;2.66
463;1891.38;555.925;2.66
464;1888.94;565.935;2.66
465;1871.85;571.795;2.66
466;1847.13;585.467;2.66
467;1871.85;571.795;2.66
468;1911.22;553.972;2.67
469;1928.62;579.608;2.67
470;1943.27;565.935;2.67
471;1928.62;559.832;2.67
472;1899.01;563.738;2.67
473;1876.74;581.561;2.67
474;1888.94;569.842;2.67
475;1903.9;561.785;2.67
476;1911.22;548.112;2.67
477;1906.34;569.842;2.68
478;1879.18;579.608;2.68
479;1839.5;552.019;2.68
480;1829.74;571.795;2.68
481;1866.66;579.608;2.68
482;1884.06;565.935;2.68
483;1893.83;553.972;2.68
484;1891.38;569.842;2.68
485;1874.29;571.795;2.68
486;1849.57;589.618;2.69
487;1871.85;567.888;2.69
488;1911.22;555.925;2.69
489;1933.5;581.561;2.69
490;1943.27;563.738;2.69
491;1933.5;563.738;2.69
492;1903.9;569.842;2.69
493;1879.18;581.561;2.69
494;1891.38;567.888;2.69
495;1911.22;563.738;2.69
496;1911.22;544.206;2.7
497;1911.22;575.701;2.7
498;1881.62;577.654;2.7
499;1847.13;553.972;2.7
500;1837.06;575.701;2.7
501;1874.29;573.748;2.7
502;1891.38;569.842;2.7
503;1899.01;553.972;2.7
504;1899.01;563.738;2.7
505;1879.18;579.608;2.71
506;1856.9;575.701;2.71
507;1879.18;583.514;2.71
508;1918.55;546.159;2.71
509;1938.38;575.701;2.71
510;1948.15;577.654;2.71
511;1940.82;553.972;2.71
512;1911.22;569.842;2.71
513;1886.5;575.701;2.71
514;1899.01;575.701;2.71
515;1918.55;561.785;2.72
516;1920.99;557.878;2.72
517;1918.55;557.878;2.72
518;1893.83;591.571;2.72
519;1849.57;565.935;2.72
520;1839.5;563.738;2.72
521;1876.74;589.618;2.72
522;1893.83;567.888;2.72
523;1903.9;559.832;2.72
524;1903.9;565.935;2.72
525;1884.06;577.654;2.72
526;1861.78;583.514;2.73
527;1881.62;583.514;2.73
528;1920.99;552.019;2.73
529;1943.27;575.701;2.73
530;1955.78;573.748;2.73
531;1945.71;557.878;2.73
532;1918.55;569.842;2.73
533;1893.83;579.608;2.73
534;1903.9;575.701;2.73
535;1920.99;561.785;2.73
536;1926.18;555.925;2.74
537;1920.99;561.785;2.74
538;1896.27;587.42;2.74
539;1854.46;561.785;2.74
540;1844.69;569.842;2.74
541;1881.62;583.514;2.74
542;1899.01;569.842;2.74
543;1908.78;557.878;2.74
544;1908.78;567.888;2.74
545;1888.94;575.701;2.74
546;1864.22;587.42;2.74
547;1886.5;579.608;2.75
548;1928.62;555.925;2.75
549;1945.71;581.561;2.75
550;1958.22;571.795;2.75
551;1950.59;561.785;2.75
552;1920.99;571.795;2.75
553;1891.38;581.561;2.75
554;1903.9;575.701;2.75
555;1920.99;565.935;2.75
556;1928.62;553.972;2.75
557;1926.18;567.888;2.75
558;1901.46;583.514;2.76
559;1861.78;561.785;2.76
560;1849.57;573.748;2.76
561;1884.06;583.514;2.76
562;1903.9;569.842;2.76
563;1916.1;557.878;2.76
564;1913.66;571.795;2.76
565;1896.27;577.654;2.76
566;1871.85;591.571;2.76
567;1886.5;577.654;2.76
568;1931.06;559.832;2.76
569;1953.34;585.467;2.77
570;1965.54;571.795;2.77
571;1955.78;563.738;2.77
572;1928.62;571.795;2.77
573;1901.46;585.467;2.77
574;1908.78;575.701;2.77
575;1926.18;565.935;2.77
576;1933.5;552.019;2.77
577;1931.06;573.748;2.77
578;1903.9;583.514;2.77
579;1866.66;559.832;2.77
580;1852.02;573.748;2.77
581;1888.94;579.608;2.78
582;1906.34;573.748;2.78
583;1916.1;559.832;2.78
584;1916.1;571.795;2.78
585;1896.27;575.701;2.78
586;1871.85;593.524;2.78
587;1891.38;575.701;2.78
588;1933.5;561.785;2.78
589;1953.34;587.42;2.78
590;1967.99;567.888;2.78
591;1958.22;567.888;2.78
592;1928.62;571.795;2.78
593;1903.9;585.467;2.79
594;1913.66;573.748;2.79
595;1931.06;569.842;2.79
596;1933.5;548.112;2.79
597;1931.06;577.654;2.79
598;1908.78;583.514;2.79
599;1869.11;557.878;2.79
600;1856.9;579.608;2.79
601;1888.94;587.42;2.79
602;1908.78;571.795;2.79
603;1920.99;557.878;2.79
604;1920.99;569.842;2.8
605;1901.46;579.608;2.8
606;1876.74;587.42;2.8
607;1891.38;581.561;2.8
608;1935.94;557.878;2.8
609;1958.22;583.514;2.8
610;1970.43;571.795;2.8
611;1965.54;565.935;2.8
612;1935.94;571.795;2.8
613;1906.34;583.514;2.8
614;1916.1;577.654;2.8
615;1935.94;567.888;2.8
616;1938.38;552.019;2.8
617;1940.82;573.748;2.81001
618;1916.1;585.467;2.81001
619;1874.29;559.832;2.81001
620;1859.34;577.654;2.81001
621;1893.83;583.514;2.81001
622;1913.66;571.795;2.81001
623;1923.43;555.925;2.81001
624;1923.43;569.842;2.81001
625;1908.78;573.748;2.81001
626;1881.62;593.524;2.81001
627;1899.01;575.701;2.81001
628;1940.82;561.785;2.81001
629;1963.1;587.42;2.81001
630;1972.87;571.795;2.82
631;1970.43;565.935;2.82
632;1940.82;571.795;2.82
633;1911.22;587.42;2.82
634;1918.55;573.748;2.82
635;1938.38;567.888;2.82
636;1945.71;552.019;2.82
637;1945.71;573.748;2.82
638;1918.55;583.514;2.82
639;1881.62;555.925;2.82
640;1861.78;577.654;2.82
641;1896.27;581.561;2.82
642;1918.55;571.795;2.82
643;1928.62;557.878;2.82
644;1931.06;575.701;2.82
645;1913.66;577.654;2.83
646;1886.5;597.43;2.83
647;1899.01;571.795;2.83
648;1945.71;563.738;2.83
649;1967.99;591.571;2.83
650;1977.75;581.561;2.83
651;1975.31;552.019;2.83
652;1948.15;575.701;2.83
653;1918.55;577.654;2.83
654;1926.18;581.561;2.83
655;1943.27;563.738;2.83
656;1950.59;563.738;2.83
657;1945.71;559.832;2.83
658;1923.43;597.43;2.83
659;1884.06;571.795;2.84
660;1866.66;567.888;2.84
661;1899.01;593.524;2.84
662;1926.18;571.795;2.84
663;1935.94;565.935;2.84
664;1933.5;565.935;2.84
665;1918.55;583.514;2.84
666;1893.83;583.514;2.84
667;1903.9;587.42;2.84
668;1950.59;550.066;2.84
669;1972.87;579.608;2.84
670;1985.38;579.608;2.84
671;1980.5;557.878;2.84
672;1953.34;573.748;2.84
673;1926.18;581.561;2.85
674;1928.62;581.561;2.85
675;1948.15;563.738;2.85
676;1955.78;559.832;2.85
677;1955.78;565.935;2.85
678;1931.06;595.477;2.85
679;1891.38;567.888;2.85
680;1874.29;567.888;2.85
681;1903.9;591.571;2.85
682;1928.62;571.795;2.85
683;1940.82;561.785;2.85
684;1940.82;565.935;2.85
685;1926.18;577.654;2.85
686;1899.01;583.514;2.85
687;1911.22;583.514;2.85
688;1955.78;553.972;2.86
689;1975.31;579.608;2.86
690;1990.26;573.748;2.86
691;1987.82;561.785;2.86
692;1958.22;571.795;2.86
693;1928.62;583.514;2.86
694;1933.5;575.701;2.86
695;1955.78;565.935;2.86
696;1960.66;557.878;2.86
697;1963.1;569.842;2.86
698;1935.94;589.618;2.86
699;1899.01;561.785;2.86
700;1879.18;571.795;2.86
701;1911.22;587.42;2.86
702;1933.5;573.748;2.86
703;1945.71;557.878;2.87
704;1948.15;569.842;2.87
705;1931.06;581.561;2.87
706;1903.9;589.618;2.87
707;1916.1;579.608;2.87
708;1970.43;557.878;2.87
709;1987.82;585.467;2.87
710;1997.59;575.701;2.87
711;1982.94;563.738;2.87
712;1950.59;571.795;2.87
713;1931.06;585.467;2.87
714;1948.15;577.654;2.87
715;1960.66;567.888;2.87
716;1967.99;552.019;2.87
717;1960.66;573.748;2.87
718;1926.18;585.467;2.88
719;1888.94;559.832;2.88
720;1891.38;575.701;2.88
721;1926.18;583.514;2.88
722;1943.27;571.795;2.88
723;1950.59;555.925;2.88
724;1950.59;569.842;2.88
725;1926.18;577.654;2.88
726;1903.9;595.477;2.88
727;1938.38;575.701;2.88
728;1975.31;559.832;2.88
729;1995.15;585.467;2.88
730;2002.47;571.795;2.88
731;1985.38;563.738;2.88
732;1955.78;571.795;2.88
733;1931.06;585.467;2.89
734;1950.59;573.748;2.89
735;1965.54;567.888;2.89
736;1970.43;550.066;2.89
737;1965.54;573.748;2.89
738;1931.06;583.514;2.89
739;1893.83;555.925;2.89
740;1891.38;579.608;2.89
741;1931.06;581.561;2.89
742;1948.15;571.795;2.89
743;1955.78;555.925;2.89
744;1950.59;573.748;2.89
745;1928.62;575.701;2.89
746;1908.78;595.477;2.89
747;1938.38;573.748;2.89
748;1977.75;546.159;2.9
749;1995.15;573.748;2.9
750;2004.91;579.608;2.9
751;1992.71;550.066;2.9
752;1963.1;573.748;2.9
753;1935.94;573.748;2.9
754;1953.34;579.608;2.9
755;1970.43;561.785;2.9
756;1972.87;563.738;2.9
757;1967.99;559.832;2.9
758;1933.5;595.477;2.9
759;1896.27;569.842;2.9
760;1896.27;563.738;2.9
761;1933.5;593.524;2.9
762;1950.59;569.842;2.9
763;1960.66;565.935;2.91
764;1955.78;565.935;2.91
765;1933.5;579.608;2.91
766;1911.22;577.654;2.91
767;1940.82;587.42;2.91
768;1980.5;548.112;2.91
769;1997.59;575.701;2.91
770;2007.66;577.654;2.91
771;1995.15;553.972;2.91
772;1963.1;573.748;2.91
773;1940.82;575.701;2.91
774;1958.22;577.654;2.91
775;1972.87;561.785;2.91
776;1975.31;557.878;2.91
777;1972.87;559.832;2.91
778;1938.38;593.524;2.91
779;1901.46;567.888;2.92
780;1899.01;565.935;2.92
781;1933.5;593.524;2.92
782;1953.34;569.842;2.92
783;1960.66;559.832;2.92
784;1958.22;565.935;2.92
785;1935.94;579.608;2.92
786;1913.66;583.514;2.92
787;1940.82;583.514;2.92
788;1982.94;552.019;2.92
789;2000.03;577.654;2.92
790;2010.1;573.748;2.92
791;1997.59;557.878;2.92
792;1963.1;569.842;2.92
793;1940.82;579.608;2.92
794;1958.22;575.701;2.93
795;1972.87;559.832;2.93
796;1975.31;553.972;2.93
797;1970.43;563.738;2.93
798;1945.71;589.618;2.93
799;1899.01;561.785;2.93
800;1896.27;569.842;2.93
801;1935.94;585.467;2.93
802;1953.34;569.842;2.93
803;1960.66;555.925;2.93
804;1958.22;565.935;2.93
805;1938.38;577.654;2.93
806;1916.1;587.42;2.93
807;1938.38;579.608;2.93
808;1982.94;553.972;2.94
809;2000.03;581.561;2.94
810;2010.1;569.842;2.94
811;1997.59;559.832;2.94
812;1967.99;569.842;2.94
813;1943.27;583.514;2.94
814;1958.22;573.748;2.94
815;1975.31;563.738;2.94
816;1980.5;550.066;2.94
817;1975.31;569.842;2.94
818;1943.27;585.467;2.94
819;1903.9;555.925;2.94
820;1899.01;569.842;2.94
821;1933.5;583.514;2.94
822;1953.34;569.842;2.94
823;1963.1;555.925;2.94
824;1960.66;571.795;2.95
825;1940.82;575.701;2.95
826;1916.1;589.618;2.95
827;1943.27;573.748;2.95
828;1982.94;557.878;2.95
829;2002.47;585.467;2.95
830;2012.54;569.842;2.95
831;2002.47;559.832;2.95
832;1970.43;569.842;2.95
833;1943.27;583.514;2.95
834;1960.66;571.795;2.95
835;1975.31;563.738;2.95
836;1980.5;548.112;2.95
837;1975.31;571.795;2.95
838;1945.71;583.514;2.95
839;1908.78;555.925;2.95
840;1901.46;573.748;2.96
841;1935.94;579.608;2.96
842;1955.78;569.842;2.96
843;1965.54;553.972;2.96
844;1965.54;569.842;2.96
845;1943.27;573.748;2.96
846;1918.55;583.514;2.96
847;1943.27;581.561;2.96
848;1985.38;550.066;2.96
849;2002.47;577.654;2.96
850;2012.54;569.842;2.96
851;2002.47;559.832;2.96
852;1972.87;569.842;2.96
853;1948.15;579.608;2.96
854;1960.66;575.701;2.96
855;1977.75;559.832;2.97
856;1980.5;553.972;2.97
857;1975.31;563.738;2.97
858;1948.15;587.42;2.97
859;1908.78;559.832;2.97
860;1899.01;569.842;2.97
861;1938.38;581.561;2.97
862;1958.22;569.842;2.97
863;1967.99;555.925;2.97
864;1963.1;567.888;2.97
865;1943.27;575.701;2.97
866;1918.55;585.467;2.97
867;1940.82;575.701;2.97
868;1982.94;553.972;2.97
869;2002.47;581.561;2.97
870;2014.98;571.795;2.97
871;2002.47;559.832;2.98
872;1975.31;567.888;2.98
873;1948.15;581.561;2.98
874;1960.66;571.795;2.98
875;1977.75;561.785;2.98
876;1982.94;548.112;2.98
877;1977.75;569.842;2.98
878;1950.59;581.561;2.98
879;1911.22;557.878;2.98
880;1901.46;571.795;2.98
881;1938.38;579.608;2.98
882;1958.22;567.888;2.98
883;1967.99;553.972;2.98
884;1965.54;565.935;2.98
885;1945.71;571.795;2.98
886;1918.55;589.618;2.98
887;1940.82;571.795;2.99
888;1985.38;555.925;2.99
889;2002.47;583.514;2.99
890;2014.98;565.935;2.99
891;2007.66;559.832;2.99
892;1975.31;567.888;2.99
893;1950.59;581.561;2.99
894;1960.66;569.842;2.99
895;1977.75;555.925;2.99
896;1985.38;561.785;2.99
897;1980.5;552.019;2.99
898;1953.34;595.477;2.99
899;1911.22;567.888;2.99
900;1903.9;557.878;2.99
901;1938.38;593.524;2.99
902;1958.22;567.888;2.99
903;1967.99;563.738;3
904;1967.99;557.878;3
905;1948.15;579.608;3
906;1926.18;577.654;3
907;1940.82;587.42;3
908;1987.82;544.206;3
909;2007.66;569.842;3
910;2017.43;577.654;3
911;2007.66;548.112;3
912;1977.75;567.888;3
913;1948.15;573.748;3
914;1963.1;577.654;3
915;1980.5;555.925;3
916;1982.94;557.878;3
917;1982.94;555.925;3
918;1955.78;593.524;3
919;1916.1;563.738;3.01
920;1901.46;559.832;3.01
921;1938.38;591.571;3.01
922;1955.78;567.888;3.01
923;1967.99;557.878;3.01
924;1970.43;559.832;3.01
925;1948.15;581.561;3.01
926;1923.43;579.608;3.01
927;1943.27;583.514;3.01
928;1987.82;546.159;3.01
929;2010.1;573.748;3.01
930;2017.43;573.748;3.01
931;2012.54;553.972;3.01
932;1982.94;569.842;3.01
933;1953.34;575.701;3.01
934;1965.54;573.748;3.01
935;1980.5;557.878;3.02
936;1987.82;555.925;3.02
937;1985.38;557.878;3.02
938;1958.22;589.618;3.02
939;1918.55;559.832;3.02
940;1906.34;563.738;3.02
941;1943.27;585.467;3.02
942;1963.1;569.842;3.02
943;1972.87;557.878;3.02
944;1972.87;563.738;3.02
945;1953.34;577.654;3.02
946;1926.18;579.608;3.02
947;1943.27;579.608;3.02
948;1987.82;548.112;3.02
949;2010.1;575.701;3.02
950;2019.87;569.842;3.02
951;2014.98;555.925;3.03
952;1982.94;567.888;3.03
953;1955.78;579.608;3.03
954;1965.54;573.748;3.03
955;1985.38;561.785;3.03
956;1987.82;552.019;3.03
957;1985.38;561.785;3.03
958;1960.66;585.467;3.03
959;1920.99;557.878;3.03
960;1903.9;565.935;3.03
961;1940.82;581.561;3.03
962;1963.1;565.935;3.03
963;1975.31;553.972;3.03
964;1972.87;565.935;3.03
965;1955.78;573.748;3.03
966;1928.62;585.467;3.03
967;1943.27;575.701;3.03
968;1987.82;552.019;3.04
969;2010.1;579.608;3.04
970;2019.87;567.888;3.04
971;2012.54;555.925;3.04
972;1980.5;569.842;3.04
973;1955.78;581.561;3.04
974;1965.54;569.842;3.04
975;1982.94;561.785;3.04
976;1987.82;548.112;3.04
977;1987.82;565.935;3.04
978;1963.1;581.561;3.04
979;1920.99;555.925;3.04
980;1906.34;569.842;3.04
981;1940.82;577.654;3.04
982;1963.1;567.888;3.04
983;1975.31;552.019;3.04
984;1972.87;565.935;3.04
985;1955.78;571.795;3.05
986;1926.18;585.467;3.05
987;1945.71;571.795;3.05
988;1987.82;553.972;3.05
989;2012.54;579.608;3.05
990;2022.31;563.738;3.05
991;2017.43;557.878;3.05
992;1985.38;569.842;3.05
993;1958.22;569.842;3.05
994;1965.54;577.654;3.05
995;1985.38;553.972;3.05
996;1990.26;561.785;3.05
997;1992.71;552.019;3.05
998;1965.54;593.524;3.05
999;1923.43;565.935;3.05
1000;1906.34;553.972;3.05
1001;1943.27;591.571;3.05
1002;1963.1;567.888;3.06001
1003;1972.87;563.738;3.06001
1004;1975.31;557.878;3.06001
1005;1955.78;579.608;3.06001
1006;1928.62;571.795;3.06001
1007;1943.27;583.514;3.06001
1008;1987.82;540.056;3.06001
1009;2012.54;567.888;3.06001
1010;2022.31;577.654;3.06001
1011;2017.43;546.159;3.06001
1012;1985.38;567.888;3.06001
1013;1958.22;571.795;3.06001
1014;1965.54;575.701;3.06001
1015;1982.94;553.972;3.06001
1016;1987.82;555.925;3.06001
1017;1987.82;553.972;3.06001
1018;1965.54;591.571;3.06001
1019;1923.43;563.738;3.07
1020;1908.78;557.878;3.07
1021;1940.82;589.618;3.07
1022;1967.99;567.888;3.07
1023;1975.31;557.878;3.07
1024;1975.31;559.832;3.07
1025;1958.22;575.701;3.07
1026;1931.06;575.701;3.07
1027;1945.71;581.561;3.07
1028;1990.26;546.159;3.07
1029;2010.1;573.748;3.07
1030;2027.19;575.701;3.07
1031;2017.43;548.112;3.07
1032;1987.82;565.935;3.07
1033;1960.66;573.748;3.07
1034;1967.99;573.748;3.07
1035;1985.38;557.878;3.07
1036;1992.71;553.972;3.08
1037;1990.26;555.925;3.08
1038;1967.99;589.618;3.08
1039;1928.62;559.832;3.08
1040;1908.78;563.738;3.08
1041;1943.27;585.467;3.08
1042;1965.54;567.888;3.08
1043;1975.31;555.925;3.08
1044;1975.31;561.785;3.08
1045;1960.66;575.701;3.08
1046;1931.06;577.654;3.08
1047;1940.82;577.654;3.08
1048;1990.26;546.159;3.08
1049;2014.98;571.795;3.08
1050;2022.31;571.795;3.08
1051;2017.43;552.019;3.08
1052;1992.71;567.888;3.08
1053;1963.1;575.701;3.08
1054;1965.54;571.795;3.09
1055;1985.38;557.878;3.09
1056;1992.71;552.019;3.09
1057;1990.26;559.832;3.09
1058;1970.43;585.467;3.09
1059;1931.06;557.878;3.09
1060;1906.34;563.738;3.09
1061;1940.82;581.561;3.09
1062;1965.54;567.888;3.09
1063;1975.31;555.925;3.09
1064;1977.75;563.738;3.09
1065;1960.66;573.748;3.09
1066;1933.5;581.561;3.09
1067;1945.71;575.701;3.09
1068;1990.26;548.112;3.09
1069;2012.54;577.654;3.09
1070;2024.75;567.888;3.09
1071;2019.87;555.925;3.09
1072;1990.26;565.935;3.1
1073;1960.66;577.654;3.1
1074;1965.54;569.842;3.1
1075;1987.82;559.832;3.1
1076;1990.26;548.112;3.1
1077;1992.71;561.785;3.1
1078;1970.43;583.514;3.1
1079;1931.06;555.925;3.1
1080;1908.78;565.935;3.1
1081;1943.27;579.608;3.1
1082;1963.1;565.935;3.1
1083;1975.31;552.019;3.1
1084;1980.5;563.738;3.1
1085;1963.1;571.795;3.1
1086;1935.94;585.467;3.1
1087;1940.82;569.842;3.1
1088;1987.82;550.066;3.11
1089;2014.98;577.654;3.11
1090;2027.19;573.748;3.11
1091;2022.31;550.066;3.11
1092;1992.71;563.738;3.11
1093;1963.1;571.795;3.11
1094;1965.54;571.795;3.11
1095;1987.82;557.878;3.11
1096;1992.71;550.066;3.11
1097;1995.15;557.878;3.11
1098;1970.43;585.467;3.11
1099;1931.06;559.832;3.11
1100;1911.22;561.785;3.11
1101;1943.27;583.514;3.11
1102;1965.54;565.935;3.11
1103;1975.31;553.972;3.11
1104;1977.75;561.785;3.12
1105;1960.66;575.701;3.12
1106;1935.94;579.608;3.12
1107;1940.82;577.654;3.12
1108;1987.82;548.112;3.12
1109;2012.54;573.748;3.12
1110;2027.19;569.842;3.12
1111;2022.31;552.019;3.12
1112;1995.15;563.738;3.12
1113;1963.1;575.701;3.12
1114;1965.54;571.795;3.12
1115;1987.82;557.878;3.12
1116;1992.71;548.112;3.12
1117;1995.15;561.785;3.12
1118;1972.87;583.514;3.12
1119;1933.5;555.925;3.12
1120;1906.34;563.738;3.12
1121;1940.82;579.608;3.13
1122;1963.1;565.935;3.13
1123;1975.31;552.019;3.13
1124;1977.75;563.738;3.13
1125;1960.66;571.795;3.13
1126;1935.94;585.467;3.13
1127;1940.82;571.795;3.13
1128;1990.26;548.112;3.13
1129;2012.54;575.701;3.13
1130;2022.31;565.935;3.13
1131;2022.31;557.878;3.13
1132;1995.15;563.738;3.13
1133;1965.54;577.654;3.13
1134;1965.54;567.888;3.13
1135;1987.82;559.832;3.13
1136;1992.71;544.206;3.13
1137;1992.71;563.738;3.14
1138;1975.31;579.608;3.14
1139;1931.06;565.935;3.14
1140;1906.34;552.019;3.14
1141;1938.38;587.42;3.14
1142;1963.1;565.935;3.14
1143;1975.31;563.738;3.14
1144;1977.75;555.925;3.14
1145;1963.1;581.561;3.14
1146;1938.38;569.842;3.14
1147;1940.82;587.42;3.14
1148;1987.82;538.102;3.14
1149;2012.54;563.738;3.14
1150;2027.19;575.701;3.14
1151;2024.75;544.206;3.14
1152;1997.59;563.738;3.14
1153;1965.54;567.888;3.14
1154;1963.1;575.701;3.15
1155;1987.82;552.019;3.15
1156;1995.15;561.785;3.15
1157;1995.15;548.112;3.15
1158;1975.31;593.524;3.15
1159;1935.94;563.738;3.15
1160;1908.78;555.925;3.15
1161;1940.82;589.618;3.15
1162;1965.54;565.935;3.15
1163;1975.31;559.832;3.15
1164;1977.75;555.925;3.15
1165;1965.54;577.654;3.15
1166;1938.38;571.795;3.15
1167;1938.38;581.561;3.15
1168;1987.82;542.009;3.15
1169;2012.54;563.738;3.15
1170;2027.19;575.701;3.16
1171;2024.75;544.206;3.16
1172;1997.59;565.935;3.16
1173;1965.54;569.842;3.16
1174;1967.99;573.748;3.16
1175;1987.82;553.972;3.16
1176;1995.15;555.925;3.16
1177;1995.15;553.972;3.16
1178;1975.31;591.571;3.16
1179;1935.94;559.832;3.16
1180;1911.22;557.878;3.16
1181;1940.82;587.42;3.16
1182;1965.54;563.738;3.16
1183;1975.31;557.878;3.16
1184;1977.75;557.878;3.16
1185;1965.54;575.701;3.16
1186;1938.38;573.748;3.17
1187;1940.82;579.608;3.17
1188;1987.82;540.056;3.17
1189;2012.54;569.842;3.17
1190;2024.75;569.842;3.17
1191;2024.75;550.066;3.17
1192;1995.15;563.738;3.17
1193;1967.99;571.795;3.17
1194;1965.54;573.748;3.17
1195;1985.38;557.878;3.17
1196;1995.15;550.066;3.17
1197;1995.15;553.972;3.17
1198;1975.31;587.42;3.17
1199;1935.94;559.832;3.17
1200;1906.34;561.785;3.17
1201;1938.38;585.467;3.17
1202;1963.1;565.935;3.18
1203;1975.31;553.972;3.18
1204;1975.31;557.878;3.18
1205;1958.22;577.654;3.18
1206;1931.06;579.608;3.18
1207;1958.22;577.654;3.18
1208;1997.59;546.159;3.18
1209;2017.43;571.795;3.18
1210;2027.19;567.888;3.18
1211;2014.98;552.019;3.18
1212;1985.38;565.935;3.18
1213;1960.66;575.701;3.18
1214;1975.31;571.795;3.18
1215;1990.26;555.925;3.18
1216;1995.15;548.112;3.18
1217;1990.26;557.878;3.18
1218;1963.1;583.514;3.19
1219;1920.99;555.925;3.19
1220;1916.1;563.738;3.19
1221;1953.34;579.608;3.19
1222;1972.87;563.738;3.19
1223;1980.5;552.019;3.19
1224;1975.31;561.785;3.19
1225;1955.78;569.842;3.19
1226;1931.06;579.608;3.19
1227;1958.22;573.748;3.19
1228;2000.03;548.112;3.19
1229;2017.43;575.701;3.19
1230;2029.63;565.935;3.19
1231;2017.43;555.925;3.19
1232;1985.38;563.738;3.19
1233;1960.66;577.654;3.19
1234;1975.31;567.888;3.19
1235;1992.71;555.925;3.2
1236;1995.15;544.206;3.2
1237;1992.71;544.206;3.2
1238;1963.1;595.477;3.2
1239;1923.43;565.935;3.2
1240;1911.22;552.019;3.2
1241;1950.59;585.467;3.2
1242;1970.43;563.738;3.2
1243;1977.75;563.738;3.2
1244;1975.31;552.019;3.2
1245;1955.78;581.561;3.2
1246;1933.5;567.888;3.2
1247;1955.78;587.42;3.2
1248;1997.59;538.102;3.2
1249;2014.98;563.738;3.2
1250;2027.19;577.654;3.2
1251;2017.43;542.009;3.21
1252;1985.38;563.738;3.21
1253;1958.22;565.935;3.21
1254;1972.87;575.701;3.21
1255;1990.26;550.066;3.21
1256;1995.15;557.878;3.21
1257;1990.26;548.112;3.21
1258;1960.66;591.571;3.21
1259;1920.99;563.738;3.21
1260;1911.22;555.925;3.21
1261;1950.59;587.42;3.21
1262;1967.99;563.738;3.21
1263;1977.75;559.832;3.21
1264;1975.31;555.925;3.21
1265;1955.78;579.608;3.21
1266;1928.62;569.842;3.21
1267;1953.34;583.514;3.21
1268;1995.15;538.102;3.22
1269;2014.98;563.738;3.22
1270;2022.31;573.748;3.22
1271;2017.43;544.206;3.22
1272;1982.94;565.935;3.22
1273;1955.78;567.888;3.22
1274;1970.43;571.795;3.22
1275;1987.82;552.019;3.22
1276;1992.71;555.925;3.22
1277;1990.26;550.066;3.22
1278;1960.66;591.571;3.22
1279;1920.99;563.738;3.22
1280;1911.22;555.925;3.22
1281;1948.15;589.618;3.22
1282;1970.43;563.738;3.22
1283;1975.31;561.785;3.22
1284;1975.31;559.832;3.23
1285;1955.78;573.748;3.23
1286;1928.62;573.748;3.23
1287;1950.59;581.561;3.23
1288;1992.71;540.056;3.23
1289;2012.54;567.888;3.23
1290;2024.75;571.795;3.23
1291;2014.98;548.112;3.23
1292;1982.94;563.738;3.23
1293;1958.22;569.842;3.23
1294;1970.43;571.795;3.23
1295;1987.82;555.925;3.23
1296;1992.71;552.019;3.23
1297;1990.26;553.972;3.23
1298;1963.1;589.618;3.23
1299;1920.99;557.878;3.23
1300;1908.78;557.878;3.23
1301;1945.71;583.514;3.24
1302;1967.99;561.785;3.24
1303;1975.31;553.972;3.24
1304;1975.31;557.878;3.24
1305;1955.78;571.795;3.24
1306;1931.06;575.701;3.24
1307;1950.59;577.654;3.24
1308;1990.26;544.206;3.24
1309;2012.54;571.795;3.24
1310;2022.31;569.842;3.24
1311;2012.54;550.066;3.24
1312;1982.94;565.935;3.24
1313;1958.22;571.795;3.24
1314;1965.54;569.842;3.24
1315;1985.38;557.878;3.24
1316;1992.71;548.112;3.24
1317;1990.26;557.878;3.25
1318;1963.1;583.514;3.25
1319;1920.99;555.925;3.25
1320;1908.78;559.832;3.25
1321;1945.71;577.654;3.25
1322;1965.54;565.935;3.25
1323;1975.31;553.972;3.25
1324;1975.31;561.785;3.25
1325;1955.78;571.795;3.25
1326;1928.62;579.608;3.25
1327;1948.15;575.701;3.25
1328;1992.71;548.112;3.25
1329;2012.54;575.701;3.25
1330;2024.75;565.935;3.25
1331;2017.43;553.972;3.25
1332;1982.94;561.785;3.25
1333;1958.22;577.654;3.25
1334;1967.99;571.795;3.26
1335;1985.38;555.925;3.26
1336;1992.71;555.925;3.26
1337;1990.26;550.066;3.26
1338;1963.1;587.42;3.26
1339;1926.18;559.832;3.26
1340;1911.22;557.878;3.26
1341;1943.27;585.467;3.26
1342;1967.99;563.738;3.26
1343;1975.31;555.925;3.26
1344;1975.31;557.878;3.26
1345;1955.78;575.701;3.26
1346;1931.06;573.748;3.26
1347;1948.15;579.608;3.26
1348;1992.71;544.206;3.26
1349;2012.54;567.888;3.26
1350;2024.75;569.842;3.26
1351;2014.98;548.112;3.27
1352;1985.38;563.738;3.27
1353;1955.78;569.842;3.27
1354;1967.99;571.795;3.27
1355;1985.38;555.925;3.27
1356;1990.26;552.019;3.27
1357;1987.82;555.925;3.27
1358;1963.1;583.514;3.27
1359;1920.99;559.832;3.27
1360;1908.78;559.832;3.27
1361;1943.27;581.561;3.27
1362;1965.54;563.738;3.27
1363;1975.31;553.972;3.27
1364;1975.31;559.832;3.27
1365;1955.78;571.795;3.27
1366;1933.5;577.654;3.27
1367;1945.71;575.701;3.27
1368;1990.26;546.159;3.28
1369;2012.54;573.748;3.28
1370;2022.31;567.888;3.28
1371;2014.98;552.019;3.28
1372;1985.38;565.935;3.28
1373;1955.78;577.654;3.28
1374;1965.54;571.795;3.28
1375;1985.38;555.925;3.28
1376;1992.71;548.112;3.28
1377;1987.82;559.832;3.28
1378;1963.1;581.561;3.28
1379;1923.43;555.925;3.28
1380;1908.78;565.935;3.28
1381;1943.27;577.654;3.28
1382;1965.54;563.738;3.28
1383;1975.31;550.066;3.28
1384;1975.31;550.066;3.28
1385;1958.22;581.561;3.29
1386;1928.62;565.935;3.29
1387;1943.27;587.42;3.29
1388;1990.26;538.102;3.29
1389;2007.66;561.785;3.29
1390;2022.31;579.608;3.29
1391;2014.98;544.206;3.29
1392;1987.82;563.738;3.29
1393;1958.22;559.832;3.29
1394;1963.1;575.701;3.29
1395;1982.94;548.112;3.29
1396;1987.82;559.832;3.29
1397;1987.82;544.206;3.29
1398;1965.54;593.524;3.29
1399;1923.43;565.935;3.29
1400;1906.34;552.019;3.29
1401;1940.82;589.618;3.29
1402;1963.1;561.785;3.3
1403;1970.43;561.785;3.3
1404;1975.31;553.972;3.3
1405;1955.78;579.608;3.3
1406;1928.62;567.888;3.3
1407;1943.27;585.467;3.3
1408;1985.38;538.102;3.3
1409;2010.1;559.832;3.3
1410;2022.31;575.701;3.3
1411;2014.98;542.009;3.3
1412;1985.38;563.738;3.3
1413;1958.22;565.935;3.3
1414;1963.1;577.654;3.3
1415;1982.94;550.066;3.3
1416;1990.26;557.878;3.3
1417;1990.26;544.206;3.3
1418;1965.54;593.524;3.3
1419;1926.18;563.738;3.3
1420;1906.34;553.972;3.31001
1421;1938.38;587.42;3.31001
1422;1960.66;563.738;3.31001
1423;1970.43;557.878;3.31001
1424;1972.87;553.972;3.31001
1425;1958.22;575.701;3.31001
1426;1931.06;569.842;3.31001
1427;1938.38;583.514;3.31001
1428;1985.38;540.056;3.31001
1429;2007.66;563.738;3.31001
1430;2022.31;573.748;3.31001
1431;2017.43;542.009;3.31001
1432;1985.38;563.738;3.31001
1433;1955.78;569.842;3.31001
1434;1963.1;573.748;3.31001
1435;1985.38;553.972;3.31001
1436;1987.82;555.925;3.31001
1437;1987.82;552.019;3.32
1438;1965.54;587.42;3.32
1439;1923.43;561.785;3.32
1440;1903.9;553.972;3.32
1441;1938.38;587.42;3.32
1442;1960.66;561.785;3.32
1443;1972.87;553.972;3.32
1444;1972.87;557.878;3.32
1445;1958.22;573.748;3.32
1446;1931.06;571.795;3.32
1447;1940.82;579.608;3.32
1448;1985.38;542.009;3.32
1449;2007.66;569.842;3.32
1450;2019.87;571.795;3.32
1451;2017.43;548.112;3.32
1452;1985.38;565.935;3.32
1453;1958.22;571.795;3.32
1454;1963.1;569.842;3.33
1455;1980.5;553.972;3.33
1456;1990.26;552.019;3.33
1457;1985.38;555.925;3.33
1458;1958.22;585.467;3.33
1459;1916.1;557.878;3.33
1460;1903.9;557.878;3.33
1461;1945.71;581.561;3.33
1462;1963.1;561.785;3.33
1463;1972.87;552.019;3.33
1464;1970.43;559.832;3.33
1465;1953.34;571.795;3.33
1466;1926.18;577.654;3.33
1467;1945.71;575.701;3.33
1468;1990.26;546.159;3.33
1469;2010.1;569.842;3.33
1470;2022.31;569.842;3.33
1471;2012.54;552.019;3.33
1472;1977.75;565.935;3.34
1473;1953.34;573.748;3.34
1474;1965.54;567.888;3.34
1475;1982.94;557.878;3.34
1476;1985.38;548.112;3.34
1477;1982.94;555.925;3.34
1478;1955.78;583.514;3.34
1479;1918.55;553.972;3.34
1480;1906.34;563.738;3.34
1481;1943.27;583.514;3.34
1482;1960.66;563.738;3.34
1483;1967.99;563.738;3.34
1484;1970.43;552.019;3.34
1485;1950.59;581.561;3.34
1486;1926.18;563.738;3.34
1487;1943.27;585.467;3.34
1488;1985.38;538.102;3.34
1489;2004.91;559.832;3.34
1490;2017.43;579.608;3.35
1491;2010.1;544.206;3.35
1492;1980.5;563.738;3.35
1493;1950.59;561.785;3.35
1494;1960.66;573.748;3.35
1495;1982.94;544.206;3.35
1496;1985.38;559.832;3.35
1497;1982.94;542.009;3.35
1498;1953.34;593.524;3.35
1499;1916.1;563.738;3.35
1500;1901.46;550.066;3.35
1501;1938.38;585.467;3.35
1502;1963.1;563.738;3.35
1503;1972.87;561.785;3.35
1504;1970.43;553.972;3.35
1505;1950.59;579.608;3.35
1506;1923.43;567.888;3.35
1507;1945.71;585.467;3.35
1508;1987.82;538.102;3.36
1509;2007.66;563.738;3.36
1510;2019.87;577.654;3.36
1511;2007.66;542.009;3.36
1512;1977.75;563.738;3.36
1513;1953.34;561.785;3.36
1514;1960.66;573.748;3.36
1515;1980.5;548.112;3.36
1516;1985.38;557.878;3.36
1517;1982.94;546.159;3.36
1518;1958.22;591.571;3.36
1519;1918.55;561.785;3.36
1520;1901.46;552.019;3.36
1521;1938.38;589.618;3.36
1522;1958.22;561.785;3.36
1523;1967.99;557.878;3.36
1524;1970.43;555.925;3.36
1525;1948.15;579.608;3.36
1526;1920.99;569.842;3.37
1527;1940.82;581.561;3.37
1528;1982.94;536.149;3.37
1529;2007.66;565.935;3.37
1530;2017.43;573.748;3.37
1531;2007.66;546.159;3.37
1532;1977.75;565.935;3.37
1533;1950.59;567.888;3.37
1534;1960.66;571.795;3.37
1535;1980.5;552.019;3.37
1536;1980.5;555.925;3.37
1537;1980.5;552.019;3.37
1538;1953.34;589.618;3.37
1539;1913.66;561.785;3.37
1540;1899.01;555.925;3.37
1541;1938.38;585.467;3.37
1542;1955.78;563.738;3.37
1543;1965.54;555.925;3.37
1544;1967.99;553.972;3.37
1545;1948.15;573.748;3.38
1546;1920.99;571.795;3.38
1547;1935.94;579.608;3.38
1548;1982.94;540.056;3.38
1549;2002.47;569.842;3.38
1550;2012.54;569.842;3.38
1551;2007.66;546.159;3.38
1552;1975.31;561.785;3.38
1553;1950.59;569.842;3.38
1554;1958.22;571.795;3.38
1555;1977.75;553.972;3.38
1556;1980.5;552.019;3.38
1557;1977.75;553.972;3.38
1558;1955.78;587.42;3.38
1559;1916.1;559.832;3.38
1560;1899.01;555.925;3.38
1561;1933.5;583.514;3.38
1562;1955.78;561.785;3.38
1563;1963.1;552.019;3.39
1564;1965.54;557.878;3.39
1565;1945.71;573.748;3.39
1566;1923.43;575.701;3.39
1567;1935.94;575.701;3.39
1568;1980.5;544.206;3.39
1569;2000.03;571.795;3.39
1570;2012.54;567.888;3.39
1571;2004.91;550.066;3.39
1572;1975.31;561.785;3.39
1573;1945.71;573.748;3.39
1574;1955.78;569.842;3.39
1575;1975.31;553.972;3.39
1576;1980.5;548.112;3.39
1577;1975.31;559.832;3.39
1578;1953.34;581.561;3.39
1579;1913.66;553.972;3.39
1580;1893.83;553.972;3.39
1581;1931.06;589.618;3.39
1582;1955.78;563.738;3.39
1583;1963.1;557.878;3.4
1584;1963.1;553.972;3.4
1585;1945.71;573.748;3.4
1586;1918.55;567.888;3.4
1587;1931.06;581.561;3.4
1588;1975.31;538.102;3.4
1589;1997.59;565.935;3.4
1590;2007.66;573.748;3.4
1591;2002.47;542.009;3.4
1592;1975.31;563.738;3.4
1593;1945.71;565.935;3.4
1594;1950.59;571.795;3.4
1595;1972.87;553.972;3.4
1596;1977.75;553.972;3.4
1597;1975.31;550.066;3.4
1598;1953.34;589.618;3.4
1599;1913.66;561.785;3.4
1600;1891.38;557.878;3.4
1601;1931.06;587.42;3.4
1602;1950.59;563.738;3.4
1603;1958.22;552.019;3.41
1604;1963.1;555.925;3.41
1605;1943.27;573.748;3.41
1606;1916.1;571.795;3.41
1607;1931.06;575.701;3.41
1608;1975.31;542.009;3.41
1609;1997.59;567.888;3.41
1610;2010.1;569.842;3.41
1611;2002.47;548.112;3.41
1612;1972.87;565.935;3.41
1613;1945.71;573.748;3.41
1614;1950.59;569.842;3.41
1615;1970.43;552.019;3.41
1616;1977.75;550.066;3.41
1617;1975.31;553.972;3.41
1618;1950.59;583.514;3.41
1619;1911.22;557.878;3.41
1620;1891.38;557.878;3.41
1621;1926.18;579.608;3.41
1622;1948.15;561.785;3.42
1623;1958.22;552.019;3.42
1624;1958.22;559.832;3.42
1625;1940.82;571.795;3.42
1626;1916.1;577.654;3.42
1627;1928.62;573.748;3.42
1628;1975.31;546.159;3.42
1629;1992.71;561.785;3.42
1630;2002.47;577.654;3.42
1631;2000.03;546.159;3.42
1632;1972.87;563.738;3.42
1633;1940.82;559.832;3.42
1634;1948.15;575.701;3.42
1635;1967.99;544.206;3.42
1636;1975.31;561.785;3.42
1637;1972.87;540.056;3.42
1638;1948.15;591.571;3.42
1639;1911.22;565.935;3.42
1640;1888.94;550.066;3.42
1641;1920.99;583.514;3.43
1642;1945.71;563.738;3.43
1643;1953.34;563.738;3.43
1644;1955.78;550.066;3.43
1645;1940.82;579.608;3.43
1646;1913.66;563.738;3.43
1647;1926.18;587.42;3.43
1648;1967.99;536.149;3.43
1649;1992.71;561.785;3.43
1650;2004.91;577.654;3.43
1651;2000.03;544.206;3.43
1652;1970.43;565.935;3.43
1653;1943.27;563.738;3.43
1654;1945.71;575.701;3.43
1655;1965.54;548.112;3.43
1656;1972.87;559.832;3.43
1657;1972.87;542.009;3.43
1658;1948.15;591.571;3.43
1659;1908.78;563.738;3.43
1660;1888.94;552.019;3.43
1661;1920.99;587.42;3.44
1662;1943.27;563.738;3.44
1663;1953.34;559.832;3.44
1664;1958.22;552.019;3.44
1665;1938.38;577.654;3.44
1666;1913.66;565.935;3.44
1667;1920.99;585.467;3.44
1668;1967.99;538.102;3.44
1669;1987.82;559.832;3.44
1670;2000.03;575.701;3.44
1671;1995.15;540.056;3.44
1672;1970.43;563.738;3.44
1673;1938.38;565.935;3.44
1674;1943.27;571.795;3.44
1675;1963.1;550.066;3.44
1676;1970.43;557.878;3.44
1677;1967.99;544.206;3.44
1678;1945.71;593.524;3.44
1679;1906.34;561.785;3.44
1680;1884.06;553.972;3.45
1681;1916.1;589.618;3.45
1682;1938.38;561.785;3.45
1683;1950.59;557.878;3.45
1684;1953.34;552.019;3.45
1685;1935.94;575.701;3.45
1686;1911.22;569.842;3.45
1687;1918.55;581.561;3.45
1688;1963.1;538.102;3.45
1689;1985.38;563.738;3.45
1690;1995.15;571.795;3.45
1691;1992.71;544.206;3.45
1692;1965.54;561.785;3.45
1693;1935.94;567.888;3.45
1694;1935.94;569.842;3.45
1695;1960.66;552.019;3.45
1696;1967.99;555.925;3.45
1697;1965.54;548.112;3.45
1698;1943.27;587.42;3.45
1699;1906.34;559.832;3.45
1700;1884.06;553.972;3.46
1701;1913.66;585.467;3.46
1702;1938.38;561.785;3.46
1703;1945.71;553.972;3.46
1704;1948.15;557.878;3.46
1705;1933.5;573.748;3.46
1706;1906.34;571.795;3.46
1707;1913.66;577.654;3.46
1708;1963.1;540.056;3.46
1709;1982.94;567.888;3.46
1710;1997.59;569.842;3.46
1711;1990.26;548.112;3.46
1712;1967.99;561.785;3.46
1713;1935.94;571.795;3.46
1714;1935.94;569.842;3.46
1715;1958.22;553.972;3.46
1716;1960.66;550.066;3.46
1717;1963.1;553.972;3.46
1718;1945.71;583.514;3.46
1719;1906.34;557.878;3.46
1720;1879.18;557.878;3.47
1721;1911.22;581.561;3.47
1722;1933.5;561.785;3.47
1723;1945.71;552.019;3.47
1724;1950.59;557.878;3.47
1725;1933.5;573.748;3.47
1726;1906.34;577.654;3.47
1727;1911.22;587.42;3.47
1728;1958.22;542.009;3.47
1729;1982.94;559.832;3.47
1730;1995.15;579.608;3.47
1731;1992.71;546.159;3.47
1732;1965.54;561.785;3.47
1733;1933.5;559.832;3.47
1734;1935.94;577.654;3.47
1735;1955.78;542.009;3.47
1736;1963.1;563.738;3.47
1737;1960.66;540.056;3.47
1738;1943.27;591.571;3.47
1739;1901.46;565.935;3.47
1740;1879.18;546.159;3.48
1741;1908.78;583.514;3.48
1742;1933.5;561.785;3.48
1743;1943.27;563.738;3.48
1744;1945.71;550.066;3.48
1745;1933.5;583.514;3.48
1746;1903.9;563.738;3.48
1747;1911.22;585.467;3.48
1748;1958.22;536.149;3.48
1749;1977.75;561.785;3.48
1750;1990.26;577.654;3.48
1751;1990.26;542.009;3.48
1752;1963.1;561.785;3.48
1753;1933.5;561.785;3.48
1754;1933.5;575.701;3.48
1755;1955.78;544.206;3.48
1756;1960.66;557.878;3.48
1757;1963.1;542.009;3.48
1758;1940.82;593.524;3.48
1759;1903.9;563.738;3.48
1760;1876.74;552.019;3.49
1761;1906.34;585.467;3.49
1762;1928.62;563.738;3.49
1763;1940.82;557.878;3.49
1764;1943.27;552.019;3.49
1765;1931.06;579.608;3.49
1766;1906.34;567.888;3.49
1767;1906.34;585.467;3.49
1768;1953.34;536.149;3.49
1769;1975.31;561.785;3.49
1770;1990.26;575.701;3.49
1771;1987.82;542.009;3.49
1772;1960.66;561.785;3.49
1773;1933.5;563.738;3.49
1774;1931.06;571.795;3.49
1775;1950.59;550.066;3.49
1776;1960.66;555.925;3.49
1777;1960.66;546.159;3.49
1778;1938.38;589.618;3.49
1779;1906.34;561.785;3.49
1780;1874.29;552.019;3.5
1781;1903.9;587.42;3.5
1782;1928.62;563.738;3.5
1783;1940.82;555.925;3.5
1784;1943.27;552.019;3.5
1785;1928.62;575.701;3.5
1786;1901.46;569.842;3.5
1787;1906.34;581.561;3.5
1788;1950.59;538.102;3.5
1789;1975.31;565.935;3.5
1790;1987.82;571.795;3.5
1791;1985.38;540.056;3.5
1792;1963.1;563.738;3.5
1793;1931.06;565.935;3.5
1794;1928.62;573.748;3.5
1795;1953.34;550.066;3.5
1796;1958.22;553.972;3.5
1797;1955.78;552.019;3.5
1798;1938.38;587.42;3.5
1799;1901.46;559.832;3.5
1800;1874.29;553.972;3.51
1801;1901.46;585.467;3.51
1802;1928.62;563.738;3.51
1803;1938.38;555.925;3.51
1804;1945.71;553.972;3.51
1805;1928.62;573.748;3.51
1806;1903.9;573.748;3.51
1807;1903.9;577.654;3.51
1808;1948.15;540.056;3.51
1809;1972.87;565.935;3.51
1810;1985.38;569.842;3.51
1811;1982.94;546.159;3.51
1812;1960.66;563.738;3.51
1813;1928.62;569.842;3.51
