<WeldAnalyseData xmlns:i="http:www.w3.org/2001/XMLSchema-instance">
<WeldParameter>
<TimeStamp>DT#2023-12-06-10:46:26</TimeStamp>
<Generator>SG-22-10000</Generator>
<GenFreq>20</GenFreq>
<MaxForce>8000</MaxForce>
<MaxPower>10000</MaxPower>
<RunupPressure>1.5</RunupPressure>
<RunupDist>10</RunupDist>
<RunPress>0.8</RunPress>
<ShakeDelay>0.03</ShakeDelay>
<ShakeTime>0.3</ShakeTime>
<RunBackPress1>6</RunBackPress1>
<RunBackPress2>2</RunBackPress2>
<RunBackDist>1</RunBackDist>
<TrigValue>500</TrigValue>
<TrigModeUnit>W</TrigModeUnit>
<WeldModeUnit>Ws</WeldModeUnit>
<PressNr>0</PressNr>
<MaxLoss>1500</MaxLoss>
</WeldParameter>
<WeldSets>
<WeldSet>
<PressRiseTime>0</PressRiseTime>
<RunPressure>1</RunPressure>
<Amplitude>86</Amplitude>
<WeldMode>3270</WeldMode>
</WeldSet>
</WeldSets>
<WeldValue>
<WeldNr>2472</WeldNr>
<RecipeName>RickStyle</RecipeName>
<WeldTime>1832</WeldTime>
<DistDiff>3.93</DistDiff>
<DistAbs>78.33</DistAbs>
<Energy>3271.34</Energy>
<MaxPower>2058.47</MaxPower>
<CycleTime>6160</CycleTime>
<TrigForce>502.701</TrigForce>
<TrigDist>74.4</TrigDist>
<RunSpeed>67.3913</RunSpeed>
<MaxForce>601.337</MaxForce>
<LossPower>254.83</LossPower>
</WeldValue>
</WeldAnalyseData>
#CSV-START#
ms;Power[W];Force[N];Distance[mm]
1;0;0;0
2;0;504.654;0
3;0;504.654;0
4;0;506.607;0
5;0;502.701;0
6;0;504.654;0
7;0;506.607;0
8;0;494.644;0
9;0;475.112;0.0100021
10;0;461.196;0.0199966
11;11.597;441.42;0.0299988
12;24.1096;439.467;0.0499954
13;41.2;429.456;0.0599976
14;63.4785;427.503;0.0800018
15;90.64;415.784;0.0899963
16;120.243;421.644;0.110001
17;149.846;411.878;0.119995
18;177.007;423.597;0.139999
19;204.169;399.915;0.150002
20;228.889;411.878;0.169998
21;251.167;417.737;0.18
22;275.887;403.821;0.189995
23;298.166;413.831;0.209999
24;320.444;409.925;0.220001
25;339.976;421.644;0.229996
26;357.372;415.784;0.239998
27;377.209;417.737;0.25
28;389.416;409.925;0.260002
29;396.741;431.654;0.269997
30;401.929;425.55;0.279999
31;404.37;419.691;0.290001
32;416.578;435.56;0.299995
33;431.532;429.456;0.299995
34;436.415;431.654;0.309998
35;443.739;423.597;0.32
36;443.739;431.654;0.330002
37;446.181;431.654;0.339996
38;456.252;439.467;0.349998
39;473.342;421.644;0.360001
40;488.296;435.56;0.369995
41;495.621;439.467;0.379997
42;500.504;427.503;0.389999
43;500.504;437.513;0.400002
44;500.504;435.56;0.400002
45;500.504;445.326;0.409996
46;505.387;437.513;0.419998
47;510.575;439.467;0.43
48;513.016;425.55;0.43
49;515.458;457.289;0.439995
50;507.828;443.373;0.449997
51;502.945;435.56;0.459999
52;513.016;455.336;0.470001
53;520.341;441.42;0.479996
54;527.665;443.373;0.489998
55;530.107;433.607;0.5
56;532.548;447.279;0.510002
57;534.99;443.373;0.519997
58;542.619;459.243;0.519997
59;562.151;433.607;0.529999
60;572.222;447.279;0.540001
61;579.547;459.243;0.549995
62;581.988;437.513;0.559998
63;579.547;451.186;0.559998
64;574.664;451.186;0.57
65;572.222;457.289;0.580002
66;577.105;447.279;0.589996
67;579.547;455.336;0.599998
68;577.105;441.42;0.610001
69;574.664;472.915;0.610001
70;567.339;457.289;0.619995
71;562.151;449.232;0.629997
72;567.339;472.915;0.639999
73;574.664;459.243;0.650002
74;581.988;461.196;0.659996
75;584.43;453.383;0.669998
76;581.988;465.102;0.669998
77;579.547;463.149;0.68
78;586.871;477.065;0.689995
79;606.708;447.279;0.699997
80;624.104;463.149;0.709999
81;631.428;472.915;0.720001
82;633.869;449.232;0.729996
83;633.869;463.149;0.739998
84;631.428;459.243;0.75
85;626.545;470.962;0.760002
86;631.428;459.243;0.769997
87;633.869;465.102;0.779999
88;636.311;453.383;0.779999
89;636.311;480.972;0.790001
90;626.545;469.008;0.799995
91;619.221;459.243;0.809998
92;626.545;480.972;0.82
93;638.752;469.008;0.830002
94;641.194;469.008;0.839996
95;641.194;463.149;0.849998
96;638.752;475.112;0.849998
97;636.311;472.915;0.860001
98;641.194;484.878;0.869995
99;661.031;461.196;0.879997
100;673.544;472.915;0.889999
101;683.309;480.972;0.900002
102;685.751;463.149;0.900002
103;685.751;472.915;0.909996
104;678.427;470.962;0.919998
105;680.868;479.019;0.93
106;685.751;469.008;0.939995
107;695.517;472.915;0.949997
108;697.958;463.149;0.949997
109;695.517;484.878;0.959999
110;685.751;475.112;0.970001
111;673.544;469.008;0.979996
112;678.427;484.878;0.989998
113;690.634;477.065;1
114;693.075;475.112;1.01
115;695.517;469.008;1.01
116;697.958;479.019;1.02
117;690.634;482.925;1.03
118;693.075;486.831;1.04
119;715.354;467.055;1.04
120;727.866;479.019;1.05
121;730.308;482.925;1.06
122;732.749;470.962;1.07
123;725.12;479.019;1.07
124;712.912;477.065;1.08
125;710.471;484.878;1.09
126;712.912;472.915;1.1
127;710.471;477.065;1.11
128;710.471;463.149;1.11
129;700.705;498.795;1.12
130;688.192;480.972;1.13
131;678.427;469.008;1.14
132;683.309;492.691;1.14
133;690.634;479.019;1.15
134;693.075;477.065;1.16
135;695.517;470.962;1.17
136;693.075;484.878;1.18
137;688.192;477.065;1.18999
138;693.075;494.644;1.18999
139;712.912;461.196;1.2
140;727.866;479.019;1.21
141;730.308;486.831;1.22
142;735.191;463.149;1.23
143;732.749;477.065;1.24
144;722.678;472.915;1.24
145;720.237;484.878;1.25
146;725.12;470.962;1.26
147;730.308;475.112;1.27
148;727.866;463.149;1.28
149;727.866;494.644;1.29
150;715.354;479.019;1.29
151;708.029;467.055;1.3
152;715.354;492.691;1.31
153;727.866;475.112;1.32
154;730.308;477.065;1.33
155;732.749;469.008;1.34
156;735.191;479.019;1.35
157;730.308;472.915;1.35
158;737.632;488.784;1.36
159;759.911;459.243;1.37
160;774.56;472.915;1.38
161;782.189;482.925;1.39
162;784.631;461.196;1.4
163;777.001;475.112;1.41
164;772.118;470.962;1.42
165;772.118;480.972;1.43
166;779.443;469.008;1.43999
167;784.631;469.008;1.45
168;791.955;457.289;1.46
169;789.514;482.925;1.47
170;782.189;469.008;1.48
171;772.118;463.149;1.49
172;784.631;482.925;1.5
173;799.28;467.055;1.51
174;809.351;469.008;1.52
175;816.675;459.243;1.53
176;819.117;472.915;1.54
177;819.117;470.962;1.55
178;826.441;480.972;1.56
179;856.044;455.336;1.58
180;870.998;467.055;1.59
181;880.764;472.915;1.6
182;890.835;453.383;1.61
183;888.089;465.102;1.62
184;883.206;465.102;1.63
185;883.206;472.915;1.64
186;893.277;461.196;1.66
187;900.601;461.196;1.67
188;905.484;455.336;1.68
189;907.926;477.065;1.68999
190;890.835;461.196;1.7
191;880.764;459.243;1.72
192;898.16;472.915;1.73
193;912.809;463.149;1.74
194;922.88;461.196;1.75
195;927.763;457.289;1.76
196;930.204;467.055;1.78
197;930.204;470.962;1.79
198;939.97;472.915;1.8
199;969.573;449.232;1.81
200;989.41;465.102;1.82
201;1001.92;467.055;1.84
202;1011.69;453.383;1.85
203;1011.69;463.149;1.86
204;1001.92;457.289;1.87
205;1004.36;467.055;1.88
206;1021.45;455.336;1.89
207;1029.08;461.196;1.9
208;1029.08;449.232;1.91
209;1029.08;479.019;1.92
210;1016.57;463.149;1.93999
211;1001.92;455.336;1.95
212;1023.9;477.065;1.96
213;1036.41;463.149;1.97
214;1046.17;461.196;1.98
215;1051.06;457.289;1.99
216;1056.25;467.055;2
217;1051.06;467.055;2.01
218;1061.13;477.065;2.02
219;1093.17;447.279;2.03
220;1110.57;465.102;2.04
221;1122.78;470.962;2.05
222;1134.98;453.383;2.06
223;1130.1;465.102;2.07
224;1122.78;467.055;2.08
225;1127.66;472.915;2.09
226;1145.05;461.196;2.1
227;1152.38;461.196;2.11
228;1164.89;461.196;2.12
229;1162.14;486.831;2.12
230;1152.38;469.008;2.13
231;1140.17;467.055;2.14
232;1167.33;484.878;2.15
233;1186.86;470.962;2.16
234;1196.94;469.008;2.17
235;1209.14;469.008;2.18
236;1216.47;479.019;2.18
237;1211.58;488.784;2.18999
238;1221.66;486.831;2.2
239;1256.14;465.102;2.21
240;1275.98;484.878;2.22
241;1293.07;484.878;2.22
242;1303.14;467.055;2.23
243;1300.7;482.925;2.24
244;1285.74;480.972;2.24
245;1295.51;492.691;2.25
246;1315.35;472.915;2.26
247;1327.86;484.878;2.26
248;1337.63;467.055;2.27
249;1337.63;510.514;2.28
250;1317.79;492.691;2.28
251;1308.02;477.065;2.29
252;1335.18;508.56;2.3
253;1359.9;492.691;2.3
254;1372.11;492.691;2.31
255;1384.62;482.925;2.31
256;1389.51;504.654;2.32
257;1382.18;494.644;2.33
258;1394.39;516.373;2.33
259;1431.32;472.915;2.34
260;1456.04;494.644;2.34
261;1470.99;508.56;2.35
262;1483.2;480.972;2.35
263;1473.43;502.701;2.36
264;1456.04;498.795;2.37
265;1463.67;510.514;2.37
266;1488.08;490.738;2.38
267;1495.71;498.795;2.38
268;1503.04;484.878;2.39
269;1495.71;524.43;2.39
270;1473.43;502.701;2.4
271;1456.04;494.644;2.4
272;1483.2;526.383;2.41
273;1503.04;506.607;2.41
274;1515.24;504.654;2.42
275;1525.32;498.795;2.42
276;1525.32;518.326;2.43
277;1507.92;512.467;2.43
278;1517.99;524.43;2.43999
279;1559.8;488.784;2.43999
280;1582.08;506.607;2.45
281;1599.47;520.524;2.45
282;1606.8;494.644;2.46
283;1591.85;510.514;2.46
284;1574.76;512.467;2.47
285;1579.64;520.524;2.47
286;1604.36;504.654;2.48
287;1614.12;508.56;2.48
288;1621.45;504.654;2.49
289;1609.24;534.196;2.49
290;1584.52;514.42;2.49
291;1567.13;510.514;2.5
292;1594.29;536.149;2.5
293;1616.57;516.373;2.51
294;1629.08;512.467;2.51
295;1638.84;514.42;2.51
296;1631.52;528.336;2.52
297;1619.01;528.336;2.52
298;1623.89;532.243;2.52
299;1663.56;500.748;2.53
300;1685.84;522.477;2.53
301;1700.49;526.383;2.54
302;1705.37;506.607;2.54
303;1693.17;524.43;2.54
304;1670.89;526.383;2.55
305;1670.89;528.336;2.55
306;1695.61;516.373;2.55
307;1705.37;510.514;2.56
308;1708.12;516.373;2.56
309;1695.61;544.206;2.56
310;1668.45;518.326;2.57
311;1648.61;522.477;2.57
312;1675.77;542.009;2.57
313;1700.49;524.43;2.58
314;1710.56;516.373;2.58
315;1717.89;522.477;2.58
316;1710.56;534.196;2.59
317;1693.17;544.206;2.59
318;1700.49;538.102;2.59
319;1740.17;514.42;2.6
320;1767.33;526.383;2.6
321;1781.98;546.159;2.6
322;1784.42;514.42;2.6
323;1764.89;528.336;2.61
324;1742.61;528.336;2.61
325;1742.61;544.206;2.61
326;1767.33;516.373;2.62
327;1779.53;528.336;2.62
328;1779.53;510.514;2.62
329;1764.89;559.832;2.63
330;1735.28;534.196;2.63
331;1710.56;520.524;2.63
332;1735.28;550.066;2.63
333;1762.44;532.243;2.64
334;1772.21;532.243;2.64
335;1777.09;524.43;2.64
336;1767.33;548.112;2.65
337;1745.05;536.149;2.65
338;1754.81;555.925;2.65
339;1796.93;512.467;2.65
340;1821.65;536.149;2.66
341;1833.86;546.159;2.66
342;1833.86;516.373;2.66
343;1816.46;536.149;2.67
344;1789.3;538.102;2.67
345;1792.05;548.112;2.67
346;1816.46;522.477;2.67
347;1821.65;532.243;2.68
348;1824.09;522.477;2.68
349;1809.14;561.785;2.68
350;1777.09;540.056;2.68
351;1749.93;526.383;2.68999
352;1777.09;561.785;2.68999
353;1804.25;538.102;2.68999
354;1814.02;534.196;2.68999
355;1816.46;532.243;2.7
356;1809.14;552.019;2.7
357;1784.42;544.206;2.7
358;1792.05;555.925;2.7
359;1831.42;516.373;2.71
360;1856.14;542.009;2.71
361;1870.78;550.066;2.71
362;1870.78;522.477;2.71
363;1851.25;540.056;2.72
364;1821.65;544.206;2.72
365;1824.09;548.112;2.72
366;1846.37;530.29;2.72
367;1856.14;532.243;2.73
368;1858.58;530.29;2.73
369;1841.18;565.935;2.73
370;1806.7;538.102;2.73
371;1779.53;536.149;2.74
372;1809.14;563.738;2.74
373;1831.42;542.009;2.74
374;1841.18;534.196;2.74
375;1843.62;536.149;2.75
376;1833.86;553.972;2.75
377;1811.58;553.972;2.75
378;1816.46;555.925;2.75
379;1861.02;524.43;2.75
380;1885.74;552.019;2.76
381;1897.95;548.112;2.76
382;1900.69;530.29;2.76
383;1875.97;544.206;2.76
384;1848.81;553.972;2.77
385;1848.81;552.019;2.77
386;1868.34;536.149;2.77
387;1880.86;532.243;2.77
388;1878.41;538.102;2.77
389;1861.02;563.738;2.78
390;1826.53;540.056;2.78
391;1799.37;542.009;2.78
392;1831.42;561.785;2.78
393;1853.69;546.159;2.79
394;1861.02;536.149;2.79
395;1863.46;542.009;2.79
396;1853.69;553.972;2.79
397;1828.97;553.972;2.79
398;1836.3;565.935;2.8
399;1875.97;522.477;2.8
400;1903.13;548.112;2.8
401;1915.34;553.972;2.8
402;1912.9;528.336;2.8
403;1890.62;548.112;2.81
404;1861.02;557.878;2.81
405;1863.46;555.925;2.81
406;1885.74;540.056;2.81
407;1893.06;542.009;2.81
408;1893.06;538.102;2.82
409;1875.97;571.795;2.82
410;1836.3;550.066;2.82
411;1811.58;544.206;2.82
412;1841.18;571.795;2.82
413;1865.9;550.066;2.83
414;1870.78;540.056;2.83
415;1870.78;546.159;2.83
416;1861.02;559.832;2.83
417;1838.74;561.785;2.83
418;1843.62;563.738;2.84
419;1888.18;530.29;2.84
420;1912.9;555.925;2.84
421;1927.85;557.878;2.84
422;1927.85;536.149;2.84
423;1903.13;552.019;2.84
424;1873.53;561.785;2.85
425;1875.97;559.832;2.85
426;1897.95;546.159;2.85
427;1908.02;538.102;2.85
428;1905.58;548.112;2.85
429;1888.18;573.748;2.85
430;1848.81;544.206;2.86
431;1824.09;550.066;2.86
432;1851.25;567.888;2.86
433;1878.41;555.925;2.86
434;1888.18;542.009;2.86
435;1890.62;550.066;2.87
436;1875.97;573.748;2.87
437;1853.69;555.925;2.87
438;1858.58;577.654;2.87
439;1903.13;532.243;2.87
440;1927.85;552.019;2.87
441;1940.06;569.842;2.88
442;1937.62;538.102;2.88
443;1915.34;555.925;2.88
444;1885.74;555.925;2.88
445;1888.18;569.842;2.88
446;1912.9;540.056;2.88
447;1917.78;553.972;2.88
448;1917.78;538.102;2.89
449;1897.95;585.467;2.89
450;1861.02;555.925;2.89
451;1838.74;544.206;2.89
452;1865.9;577.654;2.89
453;1890.62;557.878;2.89
454;1900.69;555.925;2.9
455;1903.13;548.112;2.9
456;1888.18;575.701;2.9
457;1863.46;561.785;2.9
458;1870.78;581.561;2.9
459;1917.78;534.196;2.9
460;1940.06;559.832;2.9
461;1957.46;571.795;2.91
462;1952.27;538.102;2.91
463;1930.3;561.785;2.91
464;1900.69;563.738;2.91
465;1900.69;569.842;2.91
466;1925.11;546.159;2.91
467;1935.18;553.972;2.92
468;1935.18;546.159;2.92
469;1915.34;585.467;2.92
470;1878.41;559.832;2.92
471;1851.25;552.019;2.92
472;1883.3;585.467;2.92
473;1910.46;561.785;2.92
474;1917.78;553.972;2.93
475;1917.78;555.925;2.93
476;1908.02;573.748;2.93
477;1880.86;571.795;2.93
478;1888.18;579.608;2.93
479;1930.3;536.149;2.93
480;1959.9;563.738;2.93
481;1972.11;571.795;2.93999
482;1969.66;540.056;2.93999
483;1944.94;561.785;2.93999
484;1915.34;565.935;2.93999
485;1917.78;571.795;2.93999
486;1942.5;552.019;2.93999
487;1949.83;552.019;2.93999
488;1952.27;550.066;2.95
489;1930.3;587.42;2.95
490;1890.62;559.832;2.95
491;1868.34;557.878;2.95
492;1895.5;585.467;2.95
493;1920.22;561.785;2.95
494;1935.18;553.972;2.95
495;1935.18;559.832;2.96
496;1917.78;573.748;2.96
497;1893.06;575.701;2.96
498;1900.69;575.701;2.96
499;1944.94;544.206;2.96
500;1972.11;569.842;2.96
501;1984.62;569.842;2.96
502;1982.18;550.066;2.96
503;1959.9;567.888;2.97
504;1927.85;573.748;2.97
505;1930.3;571.795;2.97
506;1955.02;555.925;2.97
507;1962.34;546.159;2.97
508;1964.78;557.878;2.97
509;1942.5;583.514;2.97
510;1900.69;555.925;2.98
511;1878.41;561.785;2.98
512;1905.58;579.608;2.98
513;1930.3;563.738;2.98
514;1942.5;563.738;2.98
515;1942.5;550.066;2.98
516;1930.3;583.514;2.98
517;1903.13;563.738;2.98
518;1908.02;589.618;2.99
519;1957.46;540.056;2.99
520;1979.43;563.738;2.99
521;1994.38;579.608;2.99
522;1991.94;548.112;2.99
523;1967.22;565.935;2.99
524;1937.62;565.935;2.99
525;1940.06;579.608;2.99
526;1962.34;550.066;3
527;1972.11;561.785;3
528;1969.66;546.159;3
529;1949.83;593.524;3
530;1912.9;569.842;3
531;1885.74;553.972;3
532;1917.78;589.618;3
533;1940.06;567.888;3
534;1949.83;563.738;3
535;1957.46;553.972;3.01
536;1937.62;581.561;3.01
537;1912.9;569.842;3.01
538;1917.78;587.42;3.01
539;1964.78;540.056;3.01
540;1989.5;565.935;3.01
541;2001.71;579.608;3.01
542;1999.27;548.112;3.01
543;1974.55;563.738;3.02
544;1944.94;567.888;3.02
545;1947.39;575.701;3.02
546;1972.11;552.019;3.02
547;1976.99;559.832;3.02
548;1976.99;552.019;3.02
549;1957.46;593.524;3.02
550;1917.78;565.935;3.02
551;1895.5;555.925;3.02
552;1922.67;591.571;3.03
553;1947.39;565.935;3.03
554;1959.9;559.832;3.03
555;1962.34;559.832;3.03
556;1947.39;579.608;3.03
557;1917.78;573.748;3.03
558;1920.22;583.514;3.03
559;1972.11;540.056;3.03
560;1994.38;569.842;3.03
561;2011.78;575.701;3.04
562;2006.59;548.112;3.04
563;1979.43;567.888;3.04
564;1952.27;571.795;3.04
565;1952.27;575.701;3.04
566;1974.55;555.925;3.04
567;1984.62;553.972;3.04
568;1987.06;555.925;3.04
569;1964.78;591.571;3.04
570;1922.67;563.738;3.04
571;1900.69;561.785;3.05
572;1932.74;587.42;3.05
573;1957.46;567.888;3.05
574;1964.78;557.878;3.05
575;1969.66;561.785;3.05
576;1955.02;575.701;3.05
577;1925.11;581.561;3.05
578;1927.85;581.561;3.05
579;1979.43;548.112;3.05
580;2001.71;573.748;3.06
581;2016.66;571.795;3.06
582;2014.22;555.925;3.06
583;1987.06;565.935;3.06
584;1957.46;577.654;3.06
585;1957.46;573.748;3.06
586;1979.43;561.785;3.06
587;1989.5;552.019;3.06
588;1989.5;563.738;3.06
589;1967.22;587.42;3.06
590;1925.11;559.832;3.07
591;1903.13;557.878;3.07
592;1932.74;593.524;3.07
593;1959.9;565.935;3.07
594;1972.11;561.785;3.07
595;1972.11;559.832;3.07
596;1957.46;581.561;3.07
597;1927.85;575.701;3.07
598;1935.18;583.514;3.07
599;1979.43;544.206;3.08
600;2006.59;573.748;3.08
601;2016.66;575.701;3.08
602;2016.66;550.066;3.08
603;1989.5;569.842;3.08
604;1957.46;575.701;3.08
605;1959.9;577.654;3.08
606;1984.62;561.785;3.08
607;1991.94;557.878;3.08
608;1989.5;557.878;3.08
609;1969.66;591.571;3.09
610;1930.3;561.785;3.09
611;1905.58;561.785;3.09
612;1935.18;589.618;3.09
613;1962.34;567.888;3.09
614;1972.11;557.878;3.09
615;1974.55;563.738;3.09
616;1957.46;575.701;3.09
617;1930.3;581.561;3.09
618;1937.62;575.701;3.09
619;1979.43;548.112;3.1
620;2006.59;575.701;3.1
621;2021.55;575.701;3.1
622;2019.1;555.925;3.1
623;1989.5;567.888;3.1
624;1959.9;577.654;3.1
625;1962.34;573.748;3.1
626;1984.62;559.832;3.1
627;1994.38;552.019;3.1
628;1994.38;563.738;3.1
629;1972.11;589.618;3.11
630;1932.74;573.748;3.11
631;1908.02;553.972;3.11
632;1937.62;585.467;3.11
633;1964.78;571.795;3.11
634;1976.99;569.842;3.11
635;1976.99;557.878;3.11
636;1957.46;587.42;3.11
637;1932.74;571.795;3.11
638;1940.06;593.524;3.11
639;1984.62;546.159;3.12
640;2009.34;567.888;3.12
641;2021.55;583.514;3.12
642;2019.1;552.019;3.12
643;1994.38;571.795;3.12
644;1962.34;569.842;3.12
645;1964.78;581.561;3.12
646;1987.06;553.972;3.12
647;1994.38;565.935;3.12
648;1996.83;552.019;3.12
649;1974.55;597.43;3.12
650;1932.74;569.842;3.13
651;1908.02;557.878;3.13
652;1940.06;589.618;3.13
653;1967.22;569.842;3.13
654;1972.11;565.935;3.13
655;1974.55;559.832;3.13
656;1959.9;585.467;3.13
657;1932.74;573.748;3.13
658;1937.62;589.618;3.13
659;1984.62;542.009;3.13
660;2011.78;569.842;3.14
661;2026.43;581.561;3.14
662;2019.1;550.066;3.14
663;1991.94;569.842;3.14
664;1962.34;571.795;3.14
665;1962.34;579.608;3.14
666;1984.62;557.878;3.14
667;1994.38;563.738;3.14
668;1991.94;555.925;3.14
669;1969.66;597.43;3.14
670;1925.11;567.888;3.14
671;1905.58;559.832;3.15
672;1932.74;595.477;3.15
673;1959.9;569.842;3.15
674;1969.66;559.832;3.15
675;1967.22;561.785;3.15
676;1952.27;581.561;3.15
677;1922.67;579.608;3.15
678;1930.3;587.42;3.15
679;1976.99;546.159;3.15
680;1999.27;573.748;3.15
681;2014.22;579.608;3.16
682;2009.34;552.019;3.16
683;1979.43;569.842;3.16
684;1952.27;575.701;3.16
685;1955.02;579.608;3.16
686;1976.99;561.785;3.16
687;1984.62;557.878;3.16
688;1982.18;559.832;3.16
689;1962.34;591.571;3.16
690;1920.22;565.935;3.16
691;1897.95;565.935;3.16
692;1925.11;591.571;3.16
693;1949.83;569.842;3.17
694;1962.34;557.878;3.17
695;1962.34;563.738;3.17
696;1944.94;579.608;3.17
697;1917.78;585.467;3.17
698;1925.11;585.467;3.17
699;1972.11;552.019;3.17
700;1996.83;579.608;3.17
701;2009.34;575.701;3.17
702;2006.59;557.878;3.17
703;1976.99;571.795;3.17
704;1949.83;579.608;3.18
705;1949.83;575.701;3.18
706;1974.55;563.738;3.18
707;1982.18;567.888;3.18
708;1982.18;546.159;3.18
709;1962.34;597.43;3.18
710;1920.22;573.748;3.18
711;1895.5;555.925;3.18
712;1925.11;589.618;3.18
713;1949.83;571.795;3.18
714;1962.34;569.842;3.18
715;1962.34;557.878;3.18999
716;1944.94;587.42;3.18999
717;1917.78;573.748;3.18999
718;1922.67;595.477;3.18999
719;1972.11;546.159;3.18999
720;1994.38;567.888;3.18999
721;2009.34;583.514;3.18999
722;2006.59;553.972;3.18999
723;1976.99;569.842;3.18999
724;1952.27;571.795;3.18999
725;1952.27;581.561;3.18999
726;1976.99;553.972;3.18999
727;1984.62;565.935;3.2
728;1982.18;550.066;3.2
729;1959.9;601.337;3.2
730;1920.22;573.748;3.2
731;1895.5;557.878;3.2
732;1925.11;593.524;3.2
733;1949.83;571.795;3.2
734;1957.46;565.935;3.2
735;1959.9;559.832;3.2
736;1942.5;585.467;3.2
737;1915.34;577.654;3.2
738;1922.67;589.618;3.21
739;1969.66;544.206;3.21
740;1994.38;571.795;3.21
741;2009.34;581.561;3.21
742;2004.15;550.066;3.21
743;1976.99;569.842;3.21
744;1947.39;573.748;3.21
745;1949.83;581.561;3.21
746;1974.55;557.878;3.21
747;1982.18;561.785;3.21
748;1982.18;557.878;3.21
749;1962.34;597.43;3.21
750;1920.22;569.842;3.22
751;1895.5;561.785;3.22
752;1922.67;595.477;3.22
753;1952.27;571.795;3.22
754;1959.9;563.738;3.22
755;1959.9;563.738;3.22
756;1942.5;581.561;3.22
757;1917.78;579.608;3.22
758;1925.11;585.467;3.22
759;1969.66;548.112;3.22
760;1994.38;571.795;3.22
761;2009.34;577.654;3.23
762;2004.15;553.972;3.23
763;1976.99;569.842;3.23
764;1949.83;577.654;3.23
765;1955.02;577.654;3.23
766;1974.55;559.832;3.23
767;1982.18;557.878;3.23
768;1984.62;561.785;3.23
769;1962.34;595.477;3.23
770;1922.67;567.888;3.23
771;1900.69;565.935;3.23
772;1927.85;591.571;3.23
773;1949.83;569.842;3.24
774;1964.78;557.878;3.24
775;1964.78;565.935;3.24
776;1947.39;577.654;3.24
777;1920.22;585.467;3.24
778;1927.85;581.561;3.24
779;1976.99;550.066;3.24
780;1999.27;577.654;3.24
781;2014.22;573.748;3.24
782;2009.34;557.878;3.24
783;1979.43;571.795;3.24
784;1952.27;579.608;3.25
785;1955.02;579.608;3.25
786;1976.99;557.878;3.25
787;1987.06;561.785;3.25
788;1987.06;555.925;3.25
789;1964.78;597.43;3.25
790;1925.11;567.888;3.25
791;1900.69;561.785;3.25
792;1930.3;593.524;3.25
793;1955.02;569.842;3.25
794;1964.78;563.738;3.25
795;1967.22;563.738;3.25
796;1952.27;581.561;3.26
797;1922.67;579.608;3.26
798;1927.85;585.467;3.26
799;1976.99;546.159;3.26
800;2001.71;573.748;3.26
801;2014.22;579.608;3.26
802;2009.34;553.972;3.26
803;1982.18;571.795;3.26
804;1955.02;575.701;3.26
805;1957.46;577.654;3.26
806;1979.43;559.832;3.26
807;1989.5;553.972;3.26
808;1987.06;559.832;3.27
809;1964.78;591.571;3.27
810;1925.11;563.738;3.27
811;1897.95;565.935;3.27
812;1930.3;589.618;3.27
813;1955.02;567.888;3.27
814;1962.34;559.832;3.27
815;1964.78;563.738;3.27
816;1944.94;577.654;3.27
817;1920.22;583.514;3.27
818;1927.85;579.608;3.27
819;1972.11;552.019;3.27
820;1996.83;579.608;3.27
821;2009.34;575.701;3.27
822;2004.15;557.878;3.28
823;1982.18;569.842;3.28
824;1949.83;565.935;3.28
825;1952.27;581.561;3.28
826;1976.99;553.972;3.28
827;1984.62;569.842;3.28
828;1982.18;546.159;3.28
829;1962.34;599.384;3.28
830;1922.67;573.748;3.28
831;1895.5;557.878;3.28
832;1930.3;589.618;3.28
833;1955.02;569.842;3.28
834;1964.78;569.842;3.28
835;1964.78;559.832;3.29
836;1947.39;587.42;3.29
837;1922.67;571.795;3.29
838;1930.3;593.524;3.29
839;1976.99;542.009;3.29
840;2001.71;567.888;3.29
841;2016.66;583.514;3.29
842;2011.78;552.019;3.29
843;1984.62;571.795;3.29
844;1959.9;569.842;3.29
845;1959.9;581.561;3.29
846;1984.62;557.878;3.29
847;1994.38;565.935;3.29
848;1994.38;550.066;3.3
849;1972.11;599.384;3.3
850;1932.74;573.748;3.3
851;1908.02;557.878;3.3
852;1940.06;591.571;3.3
853;1964.78;569.842;3.3
854;1976.99;563.738;3.3
855;1976.99;561.785;3.3
856;1959.9;583.514;3.3
857;1932.74;573.748;3.3
858;1942.5;589.618;3.3
859;1984.62;542.009;3.3
860;2014.22;567.888;3.3
861;2026.43;581.561;3.31
862;2021.55;550.066;3.31
863;1994.38;571.795;3.31
864;1967.22;571.795;3.31
865;1969.66;577.654;3.31
866;1991.94;557.878;3.31
867;1999.27;561.785;3.31
868;1999.27;555.925;3.31
869;1976.99;595.477;3.31
870;1935.18;567.888;3.31
871;1910.46;559.832;3.31
872;1940.06;593.524;3.31
873;1969.66;571.795;3.32
874;1979.43;561.785;3.32
875;1982.18;563.738;3.32
876;1964.78;579.608;3.32
877;1935.18;579.608;3.32
878;1944.94;585.467;3.32
879;1989.5;550.066;3.32
880;2016.66;575.701;3.32
881;2028.87;575.701;3.32
882;2026.43;552.019;3.32
883;1996.83;571.795;3.32
884;1969.66;577.654;3.32
885;1969.66;579.608;3.32
886;1994.38;561.785;3.32
887;2004.15;555.925;3.33
888;2001.71;559.832;3.33
889;1976.99;591.571;3.33
890;1940.06;567.888;3.33
891;1915.34;565.935;3.33
892;1947.39;587.42;3.33
893;1972.11;569.842;3.33
894;1979.43;559.832;3.33
895;1982.18;567.888;3.33
896;1964.78;577.654;3.33
897;1937.62;585.467;3.33
898;1947.39;583.514;3.33
899;1991.94;552.019;3.33
900;2016.66;579.608;3.34
901;2028.87;587.42;3.34
902;2023.99;553.972;3.34
903;1999.27;571.795;3.34
904;1969.66;565.935;3.34
905;1972.11;581.561;3.34
906;1996.83;553.972;3.34
907;2001.71;567.888;3.34
908;2004.15;548.112;3.34
909;1979.43;599.384;3.34
910;1940.06;573.748;3.34
911;1917.78;555.925;3.34
912;1944.94;591.571;3.34
913;1972.11;571.795;3.34
914;1984.62;569.842;3.35
915;1984.62;559.832;3.35
916;1967.22;589.618;3.35
917;1940.06;571.795;3.35
918;1947.39;593.524;3.35
919;1994.38;546.159;3.35
920;2021.55;569.842;3.35
921;2036.5;585.467;3.35
922;2031.31;552.019;3.35
923;2004.15;571.795;3.35
924;1974.55;571.795;3.35
925;1976.99;581.561;3.35
926;1999.27;555.925;3.35
927;2009.34;565.935;3.36
928;2009.34;550.066;3.36
929;1982.18;599.384;3.36
930;1944.94;573.748;3.36
931;1922.67;561.785;3.36
932;1952.27;591.571;3.36
933;1976.99;571.795;3.36
934;1984.62;567.888;3.36
935;1987.06;561.785;3.36
936;1972.11;585.467;3.36
937;1944.94;575.701;3.36
938;1947.39;591.571;3.36
939;1996.83;544.206;3.36
940;2026.43;569.842;3.36
941;2038.94;579.608;3.37
942;2033.75;548.112;3.37
943;2006.59;573.748;3.37
944;1976.99;575.701;3.37
945;1976.99;579.608;3.37
946;2001.71;557.878;3.37
947;2011.78;561.785;3.37
948;2011.78;557.878;3.37
949;1987.06;595.477;3.37
950;1944.94;569.842;3.37
951;1925.11;561.785;3.37
952;1952.27;593.524;3.37
953;1976.99;569.842;3.37
954;1989.5;561.785;3.37
955;1989.5;563.738;3.38
956;1972.11;583.514;3.38
957;1944.94;581.561;3.38
958;1955.02;585.467;3.38
959;1999.27;546.159;3.38
960;2026.43;577.654;3.38
961;2038.94;577.654;3.38
962;2036.5;553.972;3.38
963;2009.34;569.842;3.38
964;1976.99;581.561;3.38
965;1979.43;575.701;3.38
966;2004.15;559.832;3.38
967;2011.78;555.925;3.38
968;2011.78;561.785;3.39
969;1989.5;591.571;3.39
970;1947.39;563.738;3.39
971;1925.11;567.888;3.39
972;1957.46;589.618;3.39
973;1982.18;571.795;3.39
974;1991.94;559.832;3.39
975;1991.94;567.888;3.39
976;1974.55;577.654;3.39
977;1947.39;589.618;3.39
978;1955.02;581.561;3.39
979;2004.15;544.206;3.39
980;2031.31;571.795;3.39
981;2043.82;579.608;3.39
982;2041.38;552.019;3.4
983;2009.34;571.795;3.4
984;1979.43;575.701;3.4
985;1984.62;579.608;3.4
986;2006.59;559.832;3.4
987;2014.22;561.785;3.4
988;2011.78;557.878;3.4
989;1989.5;597.43;3.4
990;1949.83;569.842;3.4
991;1927.85;561.785;3.4
992;1959.9;595.477;3.4
993;1982.18;569.842;3.4
994;1989.5;561.785;3.4
995;1994.38;563.738;3.4
996;1974.55;581.561;3.41
997;1949.83;581.561;3.41
998;1957.46;585.467;3.41
999;2004.15;550.066;3.41
1000;2031.31;577.654;3.41
1001;2046.27;575.701;3.41
1002;2041.38;553.972;3.41
1003;2009.34;571.795;3.41
1004;1979.43;577.654;3.41
1005;1984.62;577.654;3.41
1006;2006.59;559.832;3.41
1007;2016.66;557.878;3.41
1008;2014.22;561.785;3.41
1009;1991.94;593.524;3.41
1010;1949.83;565.935;3.42
1011;1927.85;565.935;3.42
1012;1959.9;591.571;3.42
1013;1984.62;567.888;3.42
1014;1991.94;557.878;3.42
1015;1994.38;565.935;3.42
1016;1976.99;577.654;3.42
1017;1949.83;571.795;3.42
1018;1959.9;595.477;3.42
1019;2006.59;548.112;3.42
1020;2031.31;567.888;3.42
1021;2043.82;583.514;3.42
1022;2041.38;555.925;3.42
1023;2011.78;569.842;3.42
1024;1982.18;567.888;3.43
1025;1987.06;581.561;3.43
1026;2009.34;553.972;3.43
1027;2016.66;565.935;3.43
1028;2011.78;548.112;3.43
1029;1989.5;599.384;3.43
1030;1952.27;573.748;3.43
1031;1927.85;553.972;3.43
1032;1959.9;591.571;3.43
1033;1984.62;569.842;3.43
1034;1996.83;567.888;3.43
1035;1994.38;559.832;3.43
1036;1976.99;587.42;3.43
1037;1952.27;573.748;3.43
1038;1959.9;591.571;3.43999
1039;2006.59;546.159;3.43999
1040;2031.31;567.888;3.43999
1041;2046.27;583.514;3.43999
1042;2041.38;553.972;3.43999
1043;2014.22;569.842;3.43999
1044;1979.43;571.795;3.43999
1045;1987.06;581.561;3.43999
1046;2009.34;553.972;3.43999
1047;2014.22;567.888;3.43999
1048;2016.66;553.972;3.43999
1049;1989.5;599.384;3.43999
1050;1949.83;571.795;3.43999
1051;1927.85;561.785;3.43999
1052;1959.9;593.524;3.45
1053;1984.62;571.795;3.45
1054;1994.38;565.935;3.45
1055;1996.83;561.785;3.45
1056;1979.43;585.467;3.45
1057;1952.27;575.701;3.45
1058;1959.9;589.618;3.45
1059;2006.59;546.159;3.45
1060;2033.75;569.842;3.45
1061;2046.27;579.608;3.45
1062;2043.82;550.066;3.45
1063;2014.22;569.842;3.45
1064;1984.62;573.748;3.45
1065;1987.06;581.561;3.45
1066;2009.34;559.832;3.45
1067;2016.66;561.785;3.46
1068;2014.22;555.925;3.46
1069;1991.94;595.477;3.46
1070;1955.02;567.888;3.46
1071;1927.85;563.738;3.46
1072;1959.9;593.524;3.46
1073;1984.62;567.888;3.46
1074;1994.38;559.832;3.46
1075;1994.38;559.832;3.46
1076;1976.99;579.608;3.46
1077;1952.27;583.514;3.46
1078;1962.34;585.467;3.46
1079;2009.34;546.159;3.46
1080;2033.75;575.701;3.46
1081;2048.71;575.701;3.46
1082;2043.82;552.019;3.47
1083;2014.22;569.842;3.47
1084;1984.62;577.654;3.47
1085;1987.06;575.701;3.47
1086;2014.22;561.785;3.47
1087;2019.1;555.925;3.47
1088;2016.66;561.785;3.47
1089;1994.38;589.618;3.47
1090;1955.02;563.738;3.47
1091;1930.3;565.935;3.47
1092;1962.34;589.618;3.47
1093;1987.06;571.795;3.47
1094;1994.38;571.795;3.47
1095;1996.83;557.878;3.47
1096;1982.18;589.618;3.47
1097;1952.27;567.888;3.48
1098;1962.34;595.477;3.48
1099;2006.59;548.112;3.48
1100;2033.75;567.888;3.48
1101;2048.71;585.467;3.48
1102;2043.82;553.972;3.48
1103;2014.22;571.795;3.48
1104;1982.18;565.935;3.48
1105;1987.06;581.561;3.48
1106;2011.78;552.019;3.48
1107;2016.66;569.842;3.48
1108;2016.66;550.066;3.48
1109;1994.38;599.384;3.48
1110;1955.02;571.795;3.48
1111;1930.3;555.925;3.48
1112;1962.34;589.618;3.49
1113;1989.5;569.842;3.49
1114;1996.83;567.888;3.49
1115;2001.71;559.832;3.49
1116;1982.18;585.467;3.49
1117;1957.46;571.795;3.49
1118;1964.78;591.571;3.49
1119;2011.78;542.009;3.49
1120;2036.5;569.842;3.49
1121;2051.15;581.561;3.49
1122;2046.27;550.066;3.49
1123;2016.66;569.842;3.49
1124;1984.62;569.842;3.49
1125;1989.5;581.561;3.49
1126;2011.78;555.925;3.49
1127;2019.1;561.785;3.5
1128;2019.1;552.019;3.5
1129;1994.38;597.43;3.5
1130;1955.02;569.842;3.5
1131;1932.74;559.832;3.5
1132;1964.78;593.524;3.5
1133;1987.06;567.888;3.5
1134;1996.83;563.738;3.5
1135;1996.83;561.785;3.5
1136;1979.43;583.514;3.5
1137;1952.27;573.748;3.5
1138;1964.78;589.618;3.5
1139;2009.34;546.159;3.5
1140;2033.75;571.795;3.5
1141;2048.71;579.608;3.5
1142;2043.82;550.066;3.5
1143;2014.22;569.842;3.51
1144;1982.18;573.748;3.51
1145;1989.5;579.608;3.51
1146;2014.22;557.878;3.51
1147;2021.55;559.832;3.51
1148;2021.55;555.925;3.51
1149;1996.83;595.477;3.51
1150;1959.9;569.842;3.51
1151;1935.18;561.785;3.51
1152;1967.22;593.524;3.51
1153;1989.5;567.888;3.51
1154;1999.27;561.785;3.51
1155;1999.27;565.935;3.51
1156;1982.18;579.608;3.51
1157;1957.46;581.561;3.51
1158;1967.22;585.467;3.51
1159;2011.78;548.112;3.52
1160;2038.94;575.701;3.52
1161;2051.15;575.701;3.52
1162;2046.27;553.972;3.52
1163;2016.66;571.795;3.52
1164;1987.06;579.608;3.52
1165;1989.5;575.701;3.52
1166;2016.66;559.832;3.52
1167;2026.43;553.972;3.52
1168;2021.55;561.785;3.52
1169;1996.83;591.571;3.52
1170;1957.46;563.738;3.52
1171;1935.18;567.888;3.52
1172;1967.22;593.524;3.52
1173;1989.5;569.842;3.52
1174;2001.71;561.785;3.52
1175;2001.71;561.785;3.52
1176;1982.18;583.514;3.53
1177;1955.02;575.701;3.53
1178;1967.22;589.618;3.53
1179;2011.78;546.159;3.53
1180;2036.5;571.795;3.53
1181;2051.15;579.608;3.53
1182;2043.82;550.066;3.53
1183;2016.66;569.842;3.53
1184;1987.06;577.654;3.53
1185;1994.38;579.608;3.53
1186;2016.66;557.878;3.53
1187;2023.99;557.878;3.53
1188;2023.99;557.878;3.53
1189;1999.27;595.477;3.53
1190;1959.9;565.935;3.53
1191;1940.06;561.785;3.53
1192;1969.66;593.524;3.53
1193;1994.38;569.842;3.54
1194;2001.71;557.878;3.54
1195;2001.71;563.738;3.54
1196;1984.62;581.561;3.54
1197;1957.46;581.561;3.54
1198;1967.22;581.561;3.54
1199;2011.78;548.112;3.54
1200;2038.94;577.654;3.54
1201;2053.59;575.701;3.54
1202;2048.71;553.972;3.54
1203;2016.66;571.795;3.54
1204;1987.06;577.654;3.54
1205;1991.94;577.654;3.54
1206;2016.66;559.832;3.54
1207;2023.99;553.972;3.54
1208;2021.55;561.785;3.54
1209;1996.83;591.571;3.54
1210;1959.9;561.785;3.55
1211;1935.18;553.972;3.55
1212;1967.22;587.42;3.55
1213;1991.94;571.795;3.55
1214;2001.71;567.888;3.55
1215;2004.15;557.878;3.55
1216;1984.62;589.618;3.55
1217;1957.46;571.795;3.55
1218;1969.66;595.477;3.55
1219;2014.22;544.206;3.55
1220;2038.94;567.888;3.55
1221;2051.15;583.514;3.55
1222;2046.27;552.019;3.55
1223;2019.1;569.842;3.55
1224;1987.06;567.888;3.55
1225;1991.94;581.561;3.55
1226;2016.66;552.019;3.56
1227;2023.99;567.888;3.56
1228;2021.55;550.066;3.56
1229;1996.83;599.384;3.56
1230;1959.9;571.795;3.56
1231;1937.62;557.878;3.56
1232;1967.22;589.618;3.56
1233;1991.94;571.795;3.56
1234;2001.71;565.935;3.56
1235;2001.71;559.832;3.56
1236;1982.18;587.42;3.56
1237;1957.46;571.795;3.56
1238;1967.22;591.571;3.56
1239;2014.22;544.206;3.56
1240;2036.5;569.842;3.56
1241;2051.15;583.514;3.56
1242;2046.27;550.066;3.57
1243;2016.66;569.842;3.57
1244;1984.62;573.748;3.57
1245;1991.94;579.608;3.57
1246;2011.78;555.925;3.57
1247;2021.55;563.738;3.57
1248;2023.99;552.019;3.57
1249;1996.83;597.43;3.57
1250;1959.9;571.795;3.57
1251;1935.18;557.878;3.57
1252;1969.66;595.477;3.57
1253;1991.94;569.842;3.57
1254;2001.71;561.785;3.57
1255;2004.15;561.785;3.57
1256;1984.62;581.561;3.57
1257;1955.02;575.701;3.57
1258;1962.34;585.467;3.58
1259;2011.78;544.206;3.58
1260;2036.5;571.795;3.58
1261;2048.71;577.654;3.58
1262;2043.82;548.112;3.58
1263;2016.66;569.842;3.58
1264;1984.62;575.701;3.58
1265;1989.5;577.654;3.58
1266;2014.22;557.878;3.58
1267;2021.55;559.832;3.58
1268;2021.55;555.925;3.58
1269;1996.83;593.524;3.58
1270;1957.46;563.738;3.58
1271;1935.18;561.785;3.58
1272;1969.66;589.618;3.58
1273;1991.94;567.888;3.58
1274;2001.71;557.878;3.59
1275;2001.71;561.785;3.59
1276;1984.62;579.608;3.59
1277;1957.46;581.561;3.59
1278;1967.22;581.561;3.59
1279;2011.78;548.112;3.59
1280;2036.5;573.748;3.59
1281;2051.15;575.701;3.59
1282;2043.82;553.972;3.59
1283;2016.66;569.842;3.59
1284;1987.06;579.608;3.59
1285;1991.94;575.701;3.59
1286;2016.66;561.785;3.59
1287;2023.99;552.019;3.59
1288;2021.55;544.206;3.59
1289;1996.83;595.477;3.59
1290;1957.46;571.795;3.59
1291;1937.62;553.972;3.6
1292;1969.66;589.618;3.6
1293;1991.94;567.888;3.6
1294;2001.71;567.888;3.6
1295;2004.15;557.878;3.6
1296;1984.62;587.42;3.6
1297;1957.46;569.842;3.6
1298;1967.22;593.524;3.6
1299;2011.78;546.159;3.6
1300;2036.5;565.935;3.6
1301;2051.15;583.514;3.6
1302;2046.27;552.019;3.6
1303;2019.1;567.888;3.6
1304;1987.06;569.842;3.6
1305;1989.5;581.561;3.6
1306;2014.22;552.019;3.6
1307;2021.55;565.935;3.61
1308;2021.55;548.112;3.61
1309;1994.38;599.384;3.61
1310;1957.46;569.842;3.61
1311;1935.18;555.925;3.61
1312;1967.22;591.571;3.61
1313;1989.5;569.842;3.61
1314;1999.27;565.935;3.61
1315;2001.71;555.925;3.61
1316;1984.62;585.467;3.61
1317;1957.46;571.795;3.61
1318;1967.22;589.618;3.61
1319;2011.78;540.056;3.61
1320;2038.94;567.888;3.61
1321;2048.71;579.608;3.61
1322;2043.82;546.159;3.61
1323;2016.66;569.842;3.62
1324;1987.06;571.795;3.62
1325;1989.5;579.608;3.62
1326;2016.66;553.972;3.62
1327;2023.99;563.738;3.62
1328;2021.55;552.019;3.62
1329;1999.27;595.477;3.62
1330;1957.46;567.888;3.62
1331;1932.74;557.878;3.62
1332;1969.66;591.571;3.62
1333;1991.94;569.842;3.62
1334;2001.71;561.785;3.62
1335;2004.15;559.832;3.62
1336;1984.62;579.608;3.62
1337;1957.46;575.701;3.62
1338;1967.22;585.467;3.63
1339;2014.22;542.009;3.63
1340;2036.5;569.842;3.63
1341;2053.59;577.654;3.63
1342;2046.27;548.112;3.63
1343;2016.66;565.935;3.63
1344;1984.62;575.701;3.63
1345;1991.94;579.608;3.63
1346;2014.22;557.878;3.63
1347;2023.99;555.925;3.63
1348;2023.99;555.925;3.63
1349;1999.27;593.524;3.63
1350;1959.9;563.738;3.63
1351;1937.62;561.785;3.63
1352;1969.66;591.571;3.63
1353;1994.38;569.842;3.63
1354;2001.71;555.925;3.64
1355;2004.15;563.738;3.64
1356;1984.62;577.654;3.64
1357;1959.9;583.514;3.64
1358;1967.22;583.514;3.64
1359;2014.22;546.159;3.64
1360;2041.38;573.748;3.64
1361;2051.15;573.748;3.64
1362;2046.27;553.972;3.64
1363;2016.66;569.842;3.64
1364;1984.62;577.654;3.64
1365;1991.94;579.608;3.64
1366;2016.66;553.972;3.64
1367;2023.99;559.832;3.64
1368;2023.99;552.019;3.64
1369;1999.27;597.43;3.64
1370;1959.9;565.935;3.65
1371;1937.62;557.878;3.65
1372;1969.66;593.524;3.65
1373;1994.38;567.888;3.65
1374;2001.71;559.832;3.65
1375;2004.15;559.832;3.65
1376;1987.06;581.561;3.65
1377;1962.34;577.654;3.65
1378;1969.66;585.467;3.65
1379;2019.1;544.206;3.65
1380;2038.94;571.795;3.65
1381;2053.59;577.654;3.65
1382;2046.27;548.112;3.65
1383;2016.66;569.842;3.65
1384;1989.5;575.701;3.65
1385;1994.38;577.654;3.65
1386;2016.66;557.878;3.66
1387;2023.99;555.925;3.66
1388;2023.99;557.878;3.66
1389;2001.71;591.571;3.66
1390;1959.9;565.935;3.66
1391;1937.62;557.878;3.66
1392;1972.11;589.618;3.66
1393;1991.94;567.888;3.66
1394;2004.15;553.972;3.66
1395;2006.59;561.785;3.66
1396;1987.06;577.654;3.66
1397;1959.9;581.561;3.66
1398;1969.66;583.514;3.66
1399;2016.66;548.112;3.66
1400;2038.94;575.701;3.66
1401;2053.59;573.748;3.66
1402;2046.27;553.972;3.67
1403;2019.1;567.888;3.67
1404;1989.5;563.738;3.67
1405;1994.38;581.561;3.67
1406;2019.1;548.112;3.67
1407;2026.43;565.935;3.67
1408;2023.99;544.206;3.67
1409;1999.27;595.477;3.67
1410;1957.46;571.795;3.67
1411;1940.06;550.066;3.67
1412;1972.11;587.42;3.67
1413;1996.83;567.888;3.67
1414;2004.15;567.888;3.67
1415;2006.59;555.925;3.67
1416;1987.06;583.514;3.67
1417;1962.34;569.842;3.67
1418;1969.66;591.571;3.68
1419;2016.66;542.009;3.68
1420;2043.82;563.738;3.68
1421;2056.03;583.514;3.68
1422;2051.15;552.019;3.68
1423;2021.55;569.842;3.68
1424;1989.5;567.888;3.68
1425;1994.38;581.561;3.68
1426;2019.1;552.019;3.68
1427;2023.99;563.738;3.68
1428;2026.43;546.159;3.68
1429;1999.27;597.43;3.68
1430;1959.9;571.795;3.68
1431;1937.62;555.925;3.68
1432;1972.11;589.618;3.68
1433;1996.83;569.842;3.68
1434;2004.15;563.738;3.68999
1435;2006.59;557.878;3.68999
1436;1989.5;583.514;3.68999
1437;1959.9;571.795;3.68999
1438;1969.66;587.42;3.68999
1439;2019.1;540.056;3.68999
1440;2043.82;569.842;3.68999
1441;2056.03;579.608;3.68999
1442;2051.15;550.066;3.68999
1443;2023.99;567.888;3.68999
1444;1991.94;571.795;3.68999
1445;1996.83;579.608;3.68999
1446;2019.1;553.972;3.68999
1447;2026.43;559.832;3.68999
1448;2021.55;552.019;3.68999
1449;2001.71;597.43;3.68999
1450;1962.34;567.888;3.7
1451;1940.06;559.832;3.7
1452;1974.55;591.571;3.7
1453;1996.83;567.888;3.7
1454;2006.59;557.878;3.7
1455;2009.34;559.832;3.7
1456;1987.06;579.608;3.7
1457;1959.9;575.701;3.7
1458;1972.11;585.467;3.7
1459;2021.55;542.009;3.7
1460;2041.38;571.795;3.7
1461;2056.03;573.748;3.7
1462;2051.15;548.112;3.7
1463;2023.99;567.888;3.7
1464;1991.94;575.701;3.7
1465;1996.83;573.748;3.7
1466;2021.55;559.832;3.71
1467;2026.43;553.972;3.71
1468;2023.99;555.925;3.71
1469;2001.71;589.618;3.71
1470;1959.9;561.785;3.71
1471;1937.62;563.738;3.71
1472;1974.55;589.618;3.71
1473;1996.83;565.935;3.71
1474;2009.34;555.925;3.71
1475;2009.34;561.785;3.71
1476;1989.5;577.654;3.71
1477;1962.34;581.561;3.71
1478;1972.11;577.654;3.71
1479;2021.55;548.112;3.71
1480;2043.82;575.701;3.71
1481;2058.47;583.514;3.72
1482;2051.15;553.972;3.72
1483;2021.55;567.888;3.72
1484;1989.5;565.935;3.72
1485;1999.27;581.561;3.72
1486;2021.55;552.019;3.72
1487;2028.87;565.935;3.72
1488;2026.43;544.206;3.72
1489;2001.71;595.477;3.72
1490;1962.34;569.842;3.72
1491;1940.06;550.066;3.72
1492;1974.55;585.467;3.72
1493;1994.38;567.888;3.72
1494;2006.59;567.888;3.72
1495;2006.59;555.925;3.72
1496;1989.5;583.514;3.72
1497;1962.34;569.842;3.73
1498;1972.11;593.524;3.73
1499;2021.55;544.206;3.73
1500;2043.82;563.738;3.73
1501;2056.03;581.561;3.73
1502;2051.15;548.112;3.73
1503;2019.1;567.888;3.73
1504;1991.94;569.842;3.73
1505;1996.83;575.701;3.73
1506;2019.1;552.019;3.73
1507;2028.87;559.832;3.73
1508;2026.43;548.112;3.73
1509;1996.83;595.477;3.73
1510;1959.9;567.888;3.73
1511;1940.06;553.972;3.73
1512;1972.11;587.42;3.73
1513;1996.83;565.935;3.73
1514;2006.59;563.738;3.74
1515;2006.59;555.925;3.74
1516;1984.62;583.514;3.74
1517;1959.9;571.795;3.74
1518;1972.11;587.42;3.74
1519;2019.1;540.056;3.74
1520;2043.82;567.888;3.74
1521;2056.03;577.654;3.74
1522;2051.15;548.112;3.74
1523;2021.55;565.935;3.74
1524;1991.94;569.842;3.74
1525;1994.38;577.654;3.74
1526;2021.55;553.972;3.74
1527;2028.87;557.878;3.74
1528;2023.99;552.019;3.74
1529;2001.71;595.477;3.74
1530;1959.9;565.935;3.75
1531;1937.62;557.878;3.75
1532;1972.11;593.524;3.75
1533;1996.83;567.888;3.75
1534;2006.59;559.832;3.75
1535;2006.59;559.832;3.75
1536;1989.5;579.608;3.75
1537;1959.9;573.748;3.75
1538;1972.11;583.514;3.75
1539;2019.1;542.009;3.75
1540;2041.38;571.795;3.75
1541;2053.59;575.701;3.75
1542;2048.71;550.066;3.75
1543;2021.55;567.888;3.75
1544;1987.06;573.748;3.75
1545;1994.38;573.748;3.75
1546;2016.66;557.878;3.76
1547;2026.43;553.972;3.76
1548;2026.43;555.925;3.76
1549;1999.27;591.571;3.76
1550;1957.46;563.738;3.76
1551;1937.62;559.832;3.76
1552;1972.11;587.42;3.76
1553;1994.38;565.935;3.76
1554;2004.15;555.925;3.76
1555;2006.59;563.738;3.76
1556;1987.06;573.748;3.76
1557;1959.9;581.561;3.76
1558;1969.66;587.42;3.76
1559;2016.66;542.009;3.76
1560;2041.38;567.888;3.76
1561;2056.03;579.608;3.76
1562;2048.71;546.159;3.77
1563;2019.1;567.888;3.77
1564;1989.5;571.795;3.77
1565;1994.38;577.654;3.77
1566;2019.1;555.925;3.77
1567;2026.43;559.832;3.77
1568;2023.99;550.066;3.77
1569;1999.27;593.524;3.77
1570;1959.9;565.935;3.77
1571;1937.62;557.878;3.77
1572;1972.11;589.618;3.77
1573;1994.38;563.738;3.77
1574;2006.59;557.878;3.77
1575;2004.15;557.878;3.77
1576;1987.06;577.654;3.77
1577;1962.34;575.701;3.77
1578;1969.66;583.514;3.78
1579;2019.1;540.056;3.78
1580;2046.27;569.842;3.78
1581;2056.03;573.748;3.78
1582;2048.71;548.112;3.78
1583;2019.1;565.935;3.78
1584;1989.5;575.701;3.78
1585;1996.83;577.654;3.78
1586;2019.1;557.878;3.78
1587;2026.43;553.972;3.78
1588;2026.43;557.878;3.78
1589;1999.27;589.618;3.78
1590;1959.9;561.785;3.78
1591;1937.62;561.785;3.78
1592;1972.11;587.42;3.78
1593;1994.38;565.935;3.78
1594;2004.15;555.925;3.78
1595;2004.15;557.878;3.79
1596;1987.06;575.701;3.79
1597;1959.9;567.888;3.79
1598;1969.66;591.571;3.79
1599;2016.66;546.159;3.79
1600;2041.38;561.785;3.79
1601;2056.03;581.561;3.79
1602;2048.71;550.066;3.79
1603;2019.1;565.935;3.79
1604;1989.5;563.738;3.79
1605;1994.38;579.608;3.79
1606;2021.55;548.112;3.79
1607;2023.99;565.935;3.79
1608;2023.99;542.009;3.79
1609;1999.27;597.43;3.79
1610;1962.34;569.842;3.79
1611;1937.62;553.972;3.8
1612;1972.11;585.467;3.8
1613;1991.94;567.888;3.8
1614;2004.15;565.935;3.8
1615;2004.15;553.972;3.8
1616;1987.06;583.514;3.8
1617;1959.9;567.888;3.8
1618;1969.66;591.571;3.8
1619;2016.66;540.056;3.8
1620;2041.38;563.738;3.8
1621;2053.59;579.608;3.8
1622;2048.71;548.112;3.8
1623;2021.55;565.935;3.8
1624;1987.06;565.935;3.8
1625;1996.83;577.654;3.8
1626;2019.1;550.066;3.8
1627;2028.87;561.785;3.8
1628;2026.43;548.112;3.81
1629;2001.71;593.524;3.81
1630;1957.46;569.842;3.81
1631;1937.62;553.972;3.81
1632;1974.55;587.42;3.81
1633;1996.83;563.738;3.81
1634;2004.15;559.832;3.81
1635;2004.15;553.972;3.81
1636;1987.06;579.608;3.81
1637;1959.9;569.842;3.81
1638;1972.11;587.42;3.81
1639;2019.1;540.056;3.81
1640;2041.38;567.888;3.81
1641;2056.03;577.654;3.81
1642;2048.71;548.112;3.81
1643;2021.55;567.888;3.81
1644;1991.94;571.795;3.82
1645;1994.38;575.701;3.82
1646;2021.55;553.972;3.82
1647;2026.43;555.925;3.82
1648;2026.43;550.066;3.82
1649;2001.71;593.524;3.82
1650;1959.9;563.738;3.82
1651;1935.18;559.832;3.82
1652;1969.66;589.618;3.82
1653;1994.38;565.935;3.82
1654;2004.15;559.832;3.82
1655;2004.15;559.832;3.82
1656;1984.62;577.654;3.82
1657;1957.46;573.748;3.82
1658;1969.66;581.561;3.82
1659;2016.66;542.009;3.82
1660;2041.38;571.795;3.82
1661;2056.03;573.748;3.83
1662;2046.27;548.112;3.83
1663;2019.1;565.935;3.83
1664;1991.94;573.748;3.83
1665;1996.83;573.748;3.83
1666;2019.1;555.925;3.83
1667;2023.99;553.972;3.83
1668;2023.99;557.878;3.83
1669;1999.27;589.618;3.83
1670;1959.9;561.785;3.83
1671;1937.62;561.785;3.83
1672;1972.11;585.467;3.83
1673;1994.38;569.842;3.83
1674;2004.15;567.888;3.83
1675;2001.71;553.972;3.83
1676;1987.06;585.467;3.83
1677;1957.46;567.888;3.83
1678;1972.11;589.618;3.84
1679;2016.66;544.206;3.84
1680;2041.38;563.738;3.84
1681;2056.03;581.561;3.84
1682;2048.71;550.066;3.84
1683;2019.1;567.888;3.84
1684;1987.06;561.785;3.84
1685;1994.38;577.654;3.84
1686;2021.55;548.112;3.84
1687;2026.43;563.738;3.84
1688;2021.55;542.009;3.84
1689;1996.83;595.477;3.84
1690;1957.46;569.842;3.84
1691;1935.18;552.019;3.84
1692;1972.11;585.467;3.84
1693;1991.94;565.935;3.84
1694;2004.15;563.738;3.84
1695;2001.71;555.925;3.84
1696;1987.06;581.561;3.85
1697;1957.46;565.935;3.85
1698;1972.11;589.618;3.85
1699;2014.22;538.102;3.85
1700;2038.94;563.738;3.85
1701;2053.59;577.654;3.85
1702;2046.27;548.112;3.85
1703;2016.66;565.935;3.85
1704;1987.06;563.738;3.85
1705;1994.38;575.701;3.85
1706;2014.22;550.066;3.85
1707;2021.55;561.785;3.85
1708;2019.1;546.159;3.85
1709;1996.83;595.477;3.85
1710;1955.02;569.842;3.85
1711;1932.74;555.925;3.85
1712;1969.66;587.42;3.85
1713;1989.5;565.935;3.85
1714;2001.71;561.785;3.86
1715;2001.71;557.878;3.86
1716;1984.62;579.608;3.86
1717;1955.02;569.842;3.86
1718;1969.66;585.467;3.86
1719;2011.78;542.009;3.86
1720;2038.94;567.888;3.86
1721;2051.15;575.701;3.86
1722;2043.82;546.159;3.86
1723;2016.66;567.888;3.86
1724;1984.62;569.842;3.86
1725;1994.38;575.701;3.86
1726;2016.66;553.972;3.86
1727;2021.55;555.925;3.86
1728;2019.1;550.066;3.86
1729;1996.83;591.571;3.86
1730;1955.02;561.785;3.86
1731;1935.18;557.878;3.87
1732;1969.66;589.618;3.87
1733;1987.06;565.935;3.87
1734;2001.71;555.925;3.87
1735;2001.71;555.925;3.87
1736;1979.43;577.654;3.87
1737;1955.02;573.748;3.87
1738;1969.66;581.561;3.87
1739;2014.22;540.056;3.87
1740;2036.5;571.795;3.87
1741;2051.15;573.748;3.87
1742;2043.82;548.112;3.87
1743;2016.66;565.935;3.87
1744;1987.06;573.748;3.87
1745;1991.94;573.748;3.87
1746;2014.22;555.925;3.87
1747;2021.55;552.019;3.88
1748;2021.55;557.878;3.88
1749;1996.83;585.467;3.88
1750;1952.27;559.832;3.88
1751;1935.18;553.972;3.88
1752;1964.78;585.467;3.88
1753;1987.06;565.935;3.88
1754;2001.71;559.832;3.88
1755;1999.27;555.925;3.88
1756;1979.43;579.608;3.88
1757;1955.02;571.795;3.88
1758;1967.22;583.514;3.88
1759;2014.22;540.056;3.88
1760;2036.5;563.738;3.88
1761;2051.15;573.748;3.88
1762;2046.27;544.206;3.88
1763;2014.22;565.935;3.88
1764;1984.62;569.842;3.89
1765;1989.5;575.701;3.89
1766;2011.78;552.019;3.89
1767;2019.1;555.925;3.89
1768;2019.1;552.019;3.89
1769;1994.38;589.618;3.89
1770;1952.27;561.785;3.89
1771;1932.74;557.878;3.89
1772;1964.78;589.618;3.89
1773;1987.06;563.738;3.89
1774;1996.83;555.925;3.89
1775;1999.27;557.878;3.89
1776;1979.43;575.701;3.89
1777;1952.27;573.748;3.89
1778;1964.78;579.608;3.89
1779;2011.78;542.009;3.89
1780;2033.75;567.888;3.89
1781;2048.71;571.795;3.9
1782;2041.38;548.112;3.9
1783;2011.78;565.935;3.9
1784;1982.18;575.701;3.9
1785;1989.5;571.795;3.9
1786;2014.22;553.972;3.9
1787;2019.1;552.019;3.9
1788;2019.1;555.925;3.9
1789;1994.38;589.618;3.9
1790;1952.27;567.888;3.9
1791;1930.3;548.112;3.9
1792;1962.34;579.608;3.9
1793;1989.5;565.935;3.9
1794;1996.83;567.888;3.9
1795;1994.38;553.972;3.9
1796;1976.99;585.467;3.9
1797;1952.27;561.785;3.91
1798;1962.34;591.571;3.91
1799;2011.78;542.009;3.91
1800;2033.75;561.785;3.91
1801;2048.71;579.608;3.91
1802;2038.94;550.066;3.91
1803;2011.78;563.738;3.91
1804;1982.18;563.738;3.91
1805;1989.5;575.701;3.91
1806;2011.78;546.159;3.91
1807;2014.22;561.785;3.91
1808;2014.22;542.009;3.91
1809;1987.06;593.524;3.91
1810;1949.83;567.888;3.91
1811;1927.85;552.019;3.91
1812;1962.34;585.467;3.91
1813;1984.62;563.738;3.91
1814;1994.38;561.785;3.92
1815;1994.38;552.019;3.92
1816;1976.99;581.561;3.92
1817;1947.39;565.935;3.92
1818;1959.9;589.618;3.92
1819;2006.59;540.056;3.92
1820;2028.87;559.832;3.92
1821;2043.82;577.654;3.92
1822;2036.5;546.159;3.92
1823;2006.59;563.738;3.92
1824;1976.99;565.935;3.92
1825;1984.62;573.748;3.92
1826;2004.15;550.066;3.92
1827;2011.78;559.832;3.92
1828;2009.34;546.159;3.92
1829;1987.06;595.477;3.92
1830;1947.39;565.935;3.92
1831;1922.67;553.972;3.93
1832;1957.46;589.618;3.93
