<WeldAnalyseData xmlns:i="http:www.w3.org/2001/XMLSchema-instance">
<WeldParameter>
<TimeStamp>DT#2023-09-29-10:41:58</TimeStamp>
<Generator>SG-22-10000</Generator>
<GenFreq>20</GenFreq>
<MaxForce>8000</MaxForce>
<MaxPower>10000</MaxPower>
<RunupPressure>1.5</RunupPressure>
<RunupDist>10</RunupDist>
<RunPress>0.8</RunPress>
<ShakeDelay>0.03</ShakeDelay>
<ShakeTime>0.3</ShakeTime>
<RunBackPress1>6</RunBackPress1>
<RunBackPress2>2</RunBackPress2>
<RunBackDist>1</RunBackDist>
<TrigValue>500</TrigValue>
<TrigModeUnit>W</TrigModeUnit>
<WeldModeUnit>Ws</WeldModeUnit>
<PressNr>0</PressNr>
<MaxLoss>1500</MaxLoss>
</WeldParameter>
<WeldSets>
<WeldSet>
<PressRiseTime>0</PressRiseTime>
<RunPressure>1</RunPressure>
<Amplitude>86</Amplitude>
<WeldMode>3270</WeldMode>
</WeldSet>
</WeldSets>
<WeldValue>
<WeldNr>1760</WeldNr>
<RecipeName>RickStyle</RecipeName>
<WeldTime>1650</WeldTime>
<DistDiff>2.55</DistDiff>
<DistAbs>78.62</DistAbs>
<Energy>3271.13</Energy>
<MaxPower>2214.48</MaxPower>
<CycleTime>5810</CycleTime>
<TrigForce>504.654</TrigForce>
<TrigDist>76.07</TrigDist>
<RunSpeed>70.8287</RunSpeed>
<MaxForce>605.243</MaxForce>
<LossPower>217.54</LossPower>
</WeldValue>
</WeldAnalyseData>
#CSV-START#
ms;Power[W];Force[N];Distance[mm]
1;0;0;0
2;0;508.56;0
3;0;504.654;0
4;0;506.607;0
5;0;506.607;0
6;0;508.56;0
7;0;506.607;0
8;0;488.784;0.0100021
9;0;431.654;0.0199966
10;53.7698;421.644;0.0400009
11;93.4439;384.045;0.0699997
12;127.93;372.326;0.110001
13;179.811;352.55;0.160004
14;258.854;332.774;0.209999
15;328.131;324.961;0.260002
16;384.896;299.326;0.309998
17;436.777;321.055;0.360001
18;481.029;303.232;0.410004
19;532.91;295.419;0.449997
20;596.999;321.055;0.5
21;661.393;311.045;0.540001
22;720.599;319.102;0.580002
23;779.805;317.148;0.610001
24;836.57;346.69;0.639999
25;893.334;350.597;0.660004
26;955.287;380.139;0.68
27;1036.77;350.597;0.699997
28;1098.42;384.045;0.709999
29;1155.18;405.774;0.720001
30;1202.18;388.195;0.730003
31;1229.34;411.878;0.730003
32;1243.99;415.784;0.730003
33;1266.27;433.607;0.739998
34;1305.64;413.831;0.739998
35;1332.8;427.503;0.739998
36;1357.52;409.925;0.739998
37;1374.92;459.243;0.75
38;1374.92;435.56;0.75
39;1377.36;421.644;0.760002
40;1416.73;455.336;0.760002
41;1461.28;435.56;0.769997
42;1490.89;439.467;0.769997
43;1518.05;425.55;0.779999
44;1535.44;453.383;0.779999
45;1537.88;439.467;0.790001
46;1552.53;465.102;0.790001
47;1606.86;417.737;0.800003
48;1646.53;443.373;0.809998
49;1676.13;459.243;0.809998
50;1700.85;427.503;0.82
51;1700.85;449.232;0.830002
52;1691.09;449.232;0.830002
53;1700.85;465.102;0.840004
54;1740.22;441.42;0.849998
55;1764.94;459.243;0.849998
56;1782.34;437.513;0.860001
57;1787.22;486.831;0.870003
58;1767.38;467.055;0.879997
59;1750.29;453.383;0.879997
60;1782.34;482.925;0.889999
61;1821.71;469.008;0.889999
62;1843.99;475.112;0.900002
63;1856.5;459.243;0.910004
64;1858.94;494.644;0.910004
65;1846.43;480.972;0.919998
66;1846.43;504.654;0.919998
67;1893.43;457.289;0.93
68;1927.91;479.019;0.93
69;1947.75;500.748;0.940002
70;1955.07;467.055;0.940002
71;1940.42;488.784;0.949997
72;1913.26;484.878;0.949997
73;1910.82;504.654;0.959999
74;1940.42;472.915;0.959999
75;1955.07;490.738;0.970001
76;1962.4;470.962;0.970001
77;1952.63;522.477;0.980003
78;1923.03;500.748;0.980003
79;1893.43;484.878;0.980003
80;1920.59;518.326;0.989998
81;1952.63;500.748;0.989998
82;1970.03;500.748;1
83;1977.35;490.738;1
84;1967.59;520.524;1.01
85;1947.75;502.701;1.01
86;1940.42;532.243;1.01
87;1984.68;479.019;1.02
88;2014.28;506.607;1.02
89;2036.56;522.477;1.03
90;2036.56;488.784;1.03
91;2019.47;510.514;1.03
92;1989.56;510.514;1.04
93;1982.23;526.383;1.04
94;2006.95;500.748;1.04
95;2019.47;516.373;1.05
96;2024.35;494.644;1.05
97;2011.84;546.159;1.05
98;1977.35;518.326;1.05
99;1945.31;506.607;1.06
100;1967.59;542.009;1.06
101;2002.07;520.524;1.06
102;2014.28;516.373;1.07
103;2019.47;508.56;1.07
104;2011.84;532.243;1.07
105;1984.68;522.477;1.08
106;1974.91;542.009;1.08
107;2019.47;516.373;1.08
108;2046.63;516.373;1.09
109;2063.72;538.102;1.09
110;2063.72;510.514;1.09
111;2043.88;520.524;1.09
112;2009.4;518.326;1.1
113;2004.51;538.102;1.1
114;2024.35;504.654;1.1
115;2036.56;520.524;1.11
116;2036.56;498.795;1.11
117;2024.35;536.149;1.11
118;1989.56;530.29;1.11
119;1955.07;508.56;1.12
120;1972.47;538.102;1.12
121;2004.51;530.29;1.12
122;2016.72;532.243;1.12
123;2021.91;512.467;1.13
124;2011.84;550.066;1.13
125;1987.12;530.29;1.13
126;1977.35;555.925;1.13
127;2019.47;518.326;1.14
128;2049.07;524.43;1.14
129;2063.72;548.112;1.14
130;2066.16;520.524;1.14
131;2043.88;530.29;1.15
132;2009.4;528.336;1.15
133;1999.63;548.112;1.15
134;2021.91;510.514;1.15
135;2034.12;530.29;1.16
136;2034.12;506.607;1.16
137;2019.47;550.066;1.16
138;1982.23;536.149;1.16
139;1945.31;516.373;1.17
140;1962.4;550.066;1.17
141;1994.75;532.243;1.17
142;2006.95;538.102;1.17
143;2011.84;516.373;1.18
144;2002.07;553.972;1.18
145;1974.91;534.196;1.18
146;1959.96;561.785;1.18
147;2004.51;516.373;1.19
148;2034.12;530.29;1.19
149;2049.07;552.019;1.19
150;2051.51;522.477;1.19
151;2034.12;536.149;1.19
152;2002.07;530.29;1.2
153;1989.56;550.066;1.2
154;2014.28;514.42;1.2
155;2024.35;534.196;1.2
156;2026.79;512.467;1.2
157;2014.28;561.785;1.21
158;1977.35;538.102;1.21
159;1942.87;522.477;1.21
160;1957.51;557.878;1.21
161;1989.56;540.056;1.21
162;2002.07;544.206;1.22
163;2004.51;524.43;1.22
164;1994.75;557.878;1.22
165;1967.59;538.102;1.22
166;1955.07;567.888;1.22
167;1997.19;516.373;1.23
168;2026.79;536.149;1.23
169;2039;555.925;1.23
170;2043.88;526.383;1.23
171;2019.47;542.009;1.23
172;1987.12;538.102;1.24
173;1974.91;557.878;1.24
174;1997.19;524.43;1.24
175;2009.4;542.009;1.24
176;2011.84;520.524;1.24
177;1997.19;571.795;1.25
178;1959.96;548.112;1.25
179;1927.91;528.336;1.25
180;1942.87;565.935;1.25
181;1974.91;546.159;1.25
182;1987.12;546.159;1.26
183;1992.31;532.243;1.26
184;1982.23;561.785;1.26
185;1955.07;546.159;1.26
186;1942.87;569.842;1.26
187;1982.23;520.524;1.26
188;2016.72;544.206;1.27
189;2029.23;557.878;1.27
190;2031.67;524.43;1.27
191;2014.28;548.112;1.27
192;1982.23;546.159;1.27
193;1967.59;557.878;1.27
194;1989.56;532.243;1.28
195;2004.51;546.159;1.28
196;2002.07;528.336;1.28
197;1989.56;577.654;1.28
198;1957.51;550.066;1.28
199;1923.03;536.149;1.28
200;1935.24;557.878;1.29
201;1967.59;552.019;1.29
202;1982.23;548.112;1.29
203;1987.12;532.243;1.29
204;1974.91;567.888;1.29
205;1952.63;550.066;1.29
206;1937.98;575.701;1.3
207;1974.91;540.056;1.3
208;2006.95;542.009;1.3
209;2021.91;567.888;1.3
210;2026.79;540.056;1.3
211;2009.4;546.159;1.3
212;1972.47;546.159;1.31
213;1959.96;565.935;1.31
214;1977.35;530.29;1.31
215;1992.31;546.159;1.31
216;1994.75;524.43;1.31
217;1984.68;565.935;1.31
218;1950.19;555.925;1.31
219;1910.82;536.149;1.32
220;1925.47;563.738;1.32
221;1957.51;553.972;1.32
222;1970.03;555.925;1.32
223;1977.35;536.149;1.32
224;1967.59;573.748;1.32
225;1942.87;553.972;1.32
226;1930.35;579.608;1.33
227;1967.59;540.056;1.33
228;1997.19;548.112;1.33
229;2014.28;569.842;1.33
230;2016.72;540.056;1.33
231;2002.07;548.112;1.33
232;1967.59;546.159;1.33
233;1955.07;571.795;1.34
234;1977.35;532.243;1.34
235;1987.12;550.066;1.34
236;1992.31;524.43;1.34
237;1979.79;571.795;1.34
238;1947.75;557.878;1.34
239;1913.26;536.149;1.34
240;1923.03;569.842;1.35
241;1955.07;555.925;1.35
242;1970.03;559.832;1.35
243;1974.91;540.056;1.35
244;1970.03;575.701;1.35
245;1942.87;557.878;1.35
246;1927.91;579.608;1.35
247;1965.14;538.102;1.35
248;1994.75;552.019;1.36
249;2011.84;571.795;1.36
250;2016.72;538.102;1.36
251;1997.19;555.925;1.36
252;1967.59;550.066;1.36
253;1950.19;569.842;1.36
254;1972.47;532.243;1.36
255;1984.68;553.972;1.36
256;1989.56;530.29;1.37
257;1974.91;579.608;1.37
258;1945.31;559.832;1.37
259;1908.07;542.009;1.37
260;1918.15;573.748;1.37
261;1952.63;555.925;1.37
262;1962.4;559.832;1.37
263;1970.03;542.009;1.37
264;1962.4;575.701;1.38
265;1940.42;555.925;1.38
266;1925.47;585.467;1.38
267;1959.96;530.29;1.38
268;1992.31;555.925;1.38
269;2009.4;573.748;1.38
270;2011.84;540.056;1.38
271;1994.75;557.878;1.38
272;1962.4;555.925;1.38
273;1947.75;573.748;1.39
274;1970.03;542.009;1.39
275;1982.23;557.878;1.39
276;1984.68;534.196;1.39
277;1977.35;587.42;1.39
278;1942.87;561.785;1.39
279;1905.63;548.112;1.39
280;1915.7;579.608;1.39
281;1945.31;557.878;1.39
282;1959.96;559.832;1.4
283;1967.59;548.112;1.4
284;1962.4;575.701;1.4
285;1937.98;559.832;1.4
286;1920.59;587.42;1.4
287;1955.07;532.243;1.4
288;1992.31;557.878;1.4
289;2004.51;573.748;1.4
290;2011.84;542.009;1.4
291;1994.75;563.738;1.41
292;1959.96;555.925;1.41
293;1945.31;575.701;1.41
294;1967.59;542.009;1.41
295;1977.35;561.785;1.41
296;1982.23;538.102;1.41
297;1974.91;587.42;1.41
298;1940.42;567.888;1.41
299;1905.63;548.112;1.41
300;1910.82;583.514;1.42
301;1947.75;563.738;1.42
302;1957.51;567.888;1.42
303;1965.14;550.066;1.42
304;1959.96;587.42;1.42
305;1937.98;569.842;1.42
306;1918.15;591.571;1.42
307;1955.07;546.159;1.42
308;1989.56;563.738;1.42
309;2002.07;583.514;1.43
310;2011.84;552.019;1.43
311;1994.75;569.842;1.43
312;1962.4;563.738;1.43
313;1945.31;581.561;1.43
314;1967.59;548.112;1.43
315;1974.91;567.888;1.43
316;1979.79;544.206;1.43
317;1972.47;597.43;1.43
318;1940.42;571.795;1.43
319;1905.63;553.972;1.44
320;1910.82;589.618;1.44
321;1945.31;569.842;1.44
322;1957.51;571.795;1.44
323;1967.59;555.925;1.44
324;1959.96;587.42;1.44
325;1937.98;569.842;1.44
326;1918.15;595.477;1.44
327;1952.63;546.159;1.44
328;1987.12;567.888;1.44
329;2002.07;585.467;1.45
330;2009.4;552.019;1.45
331;1989.56;569.842;1.45
332;1959.96;571.795;1.45
333;1940.42;585.467;1.45
334;1962.4;555.925;1.45
335;1972.47;571.795;1.45
336;1979.79;550.066;1.45
337;1972.47;603.29;1.45
338;1937.98;581.561;1.46
339;1903.19;555.925;1.46
340;1905.63;581.561;1.46
341;1942.87;575.701;1.46
342;1955.07;573.748;1.46
343;1962.4;555.925;1.46
344;1957.51;587.42;1.46
345;1935.24;577.654;1.46
346;1918.15;599.384;1.46
347;1947.75;569.842;1.46
348;1984.68;567.888;1.47
349;1999.63;593.524;1.47
350;2006.95;567.888;1.47
351;1989.56;569.842;1.47
352;1957.51;571.795;1.47
353;1942.87;591.571;1.47
354;1959.96;557.878;1.47
355;1972.47;569.842;1.47
356;1979.79;548.112;1.47
357;1970.03;587.42;1.47
358;1937.98;583.514;1.47
359;1903.19;555.925;1.48
360;1905.63;587.42;1.48
361;1937.98;575.701;1.48
362;1955.07;581.561;1.48
363;1965.14;559.832;1.48
364;1947.75;597.43;1.48
365;1925.47;577.654;1.48
366;1920.59;603.29;1.48
367;1965.14;565.935;1.48
368;1992.31;571.795;1.48
369;2004.51;595.477;1.49
370;2002.07;565.935;1.49
371;1979.79;573.748;1.49
372;1947.75;569.842;1.49
373;1945.31;591.571;1.49
374;1965.14;555.925;1.49
375;1974.91;573.748;1.49
376;1977.35;550.066;1.49
377;1959.96;591.571;1.49
378;1923.03;579.608;1.49
379;1893.43;559.832;1.49
380;1918.15;587.42;1.5
381;1945.31;577.654;1.5
382;1955.07;579.608;1.5
383;1962.4;559.832;1.5
384;1947.75;597.43;1.5
385;1923.03;577.654;1.5
386;1920.59;603.29;1.5
387;1962.4;563.738;1.5
388;1989.56;569.842;1.5
389;1999.63;595.477;1.5
390;2002.07;561.785;1.5
391;1974.91;575.701;1.51
392;1950.19;569.842;1.51
393;1942.87;591.571;1.51
394;1965.14;555.925;1.51
395;1972.47;573.748;1.51
396;1972.47;548.112;1.51
397;1957.51;599.384;1.51
398;1923.03;581.561;1.51
399;1895.87;559.832;1.51
400;1918.15;593.524;1.51
401;1945.31;575.701;1.51
402;1959.96;581.561;1.52
403;1957.51;559.832;1.52
404;1945.31;595.477;1.52
405;1925.47;577.654;1.52
406;1918.15;601.337;1.52
407;1959.96;553.972;1.52
408;1987.12;573.748;1.52
409;1999.63;593.524;1.52
410;2002.07;557.878;1.52
411;1977.35;577.654;1.52
412;1945.31;571.795;1.52
413;1940.42;593.524;1.52
414;1962.4;555.925;1.53
415;1974.91;575.701;1.53
416;1974.91;552.019;1.53
417;1959.96;605.243;1.53
418;1925.47;577.654;1.53
419;1895.87;561.785;1.53
420;1918.15;595.477;1.53
421;1945.31;575.701;1.53
422;1955.07;581.561;1.53
423;1959.96;559.832;1.53
424;1947.75;593.524;1.53
425;1923.03;577.654;1.53
426;1918.15;603.29;1.54
427;1959.96;550.066;1.54
428;1984.68;573.748;1.54
429;1997.19;591.571;1.54
430;2002.07;571.795;1.54
431;1977.35;573.748;1.54
432;1945.31;571.795;1.54
433;1942.87;591.571;1.54
434;1962.4;563.738;1.54
435;1972.47;573.748;1.54
436;1974.91;552.019;1.54
437;1962.4;581.561;1.54
438;1923.03;583.514;1.55
439;1893.43;557.878;1.55
440;1915.7;585.467;1.55
441;1945.31;579.608;1.55
442;1955.07;577.654;1.55
443;1959.96;559.832;1.55
444;1950.19;591.571;1.55
445;1923.03;579.608;1.55
446;1915.7;603.29;1.55
447;1957.51;571.795;1.55
448;1982.23;569.842;1.55
449;1997.19;593.524;1.55
450;2002.07;565.935;1.56
451;1979.79;571.795;1.56
452;1947.75;571.795;1.56
453;1942.87;593.524;1.56
454;1962.4;559.832;1.56
455;1972.47;573.748;1.56
456;1974.91;548.112;1.56
457;1959.96;587.42;1.56
458;1923.03;583.514;1.56
459;1890.98;555.925;1.56
460;1913.26;587.42;1.56
461;1942.87;577.654;1.56
462;1952.63;579.608;1.57
463;1957.51;557.878;1.57
464;1950.19;595.477;1.57
465;1927.91;577.654;1.57
466;1915.7;605.243;1.57
467;1957.51;567.888;1.57
468;1984.68;569.842;1.57
469;1999.63;595.477;1.57
470;2004.51;563.738;1.57
471;1982.23;573.748;1.57
472;1950.19;569.842;1.57
473;1940.42;591.571;1.57
474;1962.4;555.925;1.57
475;1974.91;569.842;1.58
476;1974.91;548.112;1.58
477;1965.14;591.571;1.58
478;1927.91;579.608;1.58
479;1898.31;557.878;1.58
480;1915.7;589.618;1.58
481;1945.31;577.654;1.58
482;1955.07;579.608;1.58
483;1962.4;557.878;1.58
484;1952.63;595.477;1.58
485;1927.91;577.654;1.58
486;1918.15;603.29;1.58
487;1957.51;559.832;1.59
488;1984.68;569.842;1.59
489;2002.07;593.524;1.59
490;2004.51;561.785;1.59
491;1984.68;575.701;1.59
492;1952.63;569.842;1.59
493;1940.42;593.524;1.59
494;1965.14;555.925;1.59
495;1974.91;573.748;1.59
496;1977.35;548.112;1.59
497;1962.4;601.337;1.59
498;1927.91;579.608;1.59
499;1895.87;559.832;1.6
500;1913.26;591.571;1.6
501;1942.87;577.654;1.6
502;1955.07;579.608;1.6
503;1962.4;559.832;1.6
504;1952.63;593.524;1.6
505;1927.91;575.701;1.6
506;1918.15;601.337;1.6
507;1957.51;553.972;1.6
508;1984.68;571.795;1.6
509;2002.07;591.571;1.6
510;2004.51;561.785;1.6
511;1982.23;575.701;1.6
512;1952.63;569.842;1.61
513;1940.42;591.571;1.61
514;1965.14;555.925;1.61
515;1972.47;575.701;1.61
516;1977.35;550.066;1.61
517;1965.14;603.29;1.61
518;1930.35;579.608;1.61
519;1898.31;563.738;1.61
520;1915.7;595.477;1.61
521;1945.31;575.701;1.61
522;1957.51;579.608;1.61
523;1959.96;559.832;1.61
524;1955.07;593.524;1.62
525;1927.91;577.654;1.62
526;1918.15;601.337;1.62
527;1957.51;563.738;1.62
528;1984.68;569.842;1.62
529;1999.63;593.524;1.62
530;2006.95;563.738;1.62
531;1984.68;575.701;1.62
532;1952.63;569.842;1.62
533;1942.87;593.524;1.62
534;1965.14;555.925;1.62
535;1974.91;571.795;1.62
536;1977.35;550.066;1.62
537;1965.14;595.477;1.63
538;1930.35;579.608;1.63
539;1895.87;559.832;1.63
540;1915.7;593.524;1.63
541;1945.31;577.654;1.63
542;1957.51;579.608;1.63
543;1965.14;561.785;1.63
544;1955.07;595.477;1.63
545;1930.35;577.654;1.63
546;1920.59;605.243;1.63
547;1957.51;557.878;1.63
548;1987.12;571.795;1.63
549;2002.07;593.524;1.64
550;2006.95;561.785;1.64
551;1984.68;577.654;1.64
552;1955.07;569.842;1.64
553;1942.87;591.571;1.64
554;1965.14;557.878;1.64
555;1974.91;575.701;1.64
556;1977.35;552.019;1.64
557;1970.03;603.29;1.64
558;1937.98;579.608;1.64
559;1900.75;561.785;1.64
560;1915.7;593.524;1.64
561;1947.75;577.654;1.64
562;1959.96;581.561;1.65
563;1967.59;561.785;1.65
564;1957.51;595.477;1.65
565;1932.79;577.654;1.65
566;1918.15;601.337;1.65
567;1957.51;552.019;1.65
568;1989.56;571.795;1.65
569;2004.51;591.571;1.65
570;2009.4;573.748;1.65
571;1989.56;573.748;1.65
572;1959.96;575.701;1.65
573;1945.31;589.618;1.65
574;1967.59;571.795;1.66
575;1979.79;571.795;1.66
576;1984.68;552.019;1.66
577;1970.03;581.561;1.66
578;1935.24;585.467;1.66
579;1900.75;561.785;1.66
580;1915.7;581.561;1.66
581;1945.31;579.608;1.66
582;1957.51;579.608;1.66
583;1965.14;559.832;1.66
584;1957.51;587.42;1.66
585;1932.79;579.608;1.66
586;1918.15;599.384;1.66
587;1957.51;573.748;1.67
588;1989.56;567.888;1.67
589;2004.51;591.571;1.67
590;2011.84;569.842;1.67
591;1992.31;573.748;1.67
592;1959.96;573.748;1.67
593;1945.31;589.618;1.67
594;1970.03;561.785;1.67
595;1982.23;573.748;1.67
596;1982.23;548.112;1.67
597;1972.47;583.514;1.67
598;1937.98;581.561;1.67
599;1900.75;557.878;1.67
600;1915.7;585.467;1.68
601;1947.75;579.608;1.68
602;1962.4;579.608;1.68
603;1970.03;559.832;1.68
604;1959.96;593.524;1.68
605;1937.98;575.701;1.68
606;1923.03;603.29;1.68
607;1957.51;567.888;1.68
608;1992.31;567.888;1.68
609;2006.95;593.524;1.68
610;2011.84;563.738;1.68
611;1994.75;573.748;1.68
612;1962.4;571.795;1.68
613;1945.31;589.618;1.69
614;1970.03;557.878;1.69
615;1982.23;569.842;1.69
616;1984.68;548.112;1.69
617;1972.47;585.467;1.69
618;1942.87;579.608;1.69
619;1905.63;557.878;1.69
620;1918.15;585.467;1.69
621;1950.19;577.654;1.69
622;1962.4;577.654;1.69
623;1970.03;559.832;1.69
624;1959.96;597.43;1.69
625;1937.98;575.701;1.69
626;1925.47;601.337;1.7
627;1959.96;563.738;1.7
628;1994.75;569.842;1.7
629;2009.4;591.571;1.7
630;2014.28;561.785;1.7
631;1997.19;573.748;1.7
632;1965.14;567.888;1.7
633;1952.63;589.618;1.7
634;1970.03;553.972;1.7
635;1984.68;571.795;1.7
636;1989.56;548.112;1.7
637;1977.35;593.524;1.7
638;1945.31;579.608;1.7
639;1910.82;557.878;1.71
640;1920.59;589.618;1.71
641;1952.63;575.701;1.71
642;1967.59;581.561;1.71
643;1974.91;557.878;1.71
644;1970.03;595.477;1.71
645;1945.31;577.654;1.71
646;1927.91;601.337;1.71
647;1962.4;553.972;1.71
648;1997.19;569.842;1.71
649;2011.84;589.618;1.71
650;2019.47;557.878;1.71
651;2002.07;571.795;1.71
652;1967.59;569.842;1.72
653;1955.07;591.571;1.72
654;1974.91;553.972;1.72
655;1987.12;573.748;1.72
656;1992.31;548.112;1.72
657;1977.35;599.384;1.72
658;1950.19;577.654;1.72
659;1910.82;557.878;1.72
660;1918.15;589.618;1.72
661;1955.07;575.701;1.72
662;1967.59;573.748;1.72
663;1974.91;559.832;1.72
664;1967.59;577.654;1.73
665;1947.75;573.748;1.73
666;1927.91;593.524;1.73
667;1965.14;573.748;1.73
668;1999.63;561.785;1.73
669;2014.28;587.42;1.73
670;2021.91;569.842;1.73
671;2004.51;567.888;1.73
672;1972.47;571.795;1.73
673;1959.96;587.42;1.73
674;1977.35;569.842;1.73
675;1987.12;567.888;1.73
676;1992.31;546.159;1.73
677;1982.23;579.608;1.73
678;1950.19;579.608;1.74
679;1910.82;553.972;1.74
680;1918.15;577.654;1.74
681;1955.07;577.654;1.74
682;1967.59;573.748;1.74
683;1977.35;555.925;1.74
684;1972.47;581.561;1.74
685;1950.19;575.701;1.74
686;1930.35;597.43;1.74
687;1965.14;571.795;1.74
688;1997.19;563.738;1.74
689;2014.28;591.571;1.74
690;2021.91;563.738;1.74
691;2006.95;569.842;1.75
692;1974.91;569.842;1.75
693;1957.51;587.42;1.75
694;1977.35;559.832;1.75
695;1989.56;567.888;1.75
696;1997.19;544.206;1.75
697;1987.12;581.561;1.75
698;1952.63;575.701;1.75
699;1918.15;555.925;1.75
700;1920.59;579.608;1.75
701;1957.51;575.701;1.75
702;1972.47;573.748;1.75
703;1979.79;553.972;1.75
704;1974.91;591.571;1.76
705;1952.63;573.748;1.76
706;1932.79;597.43;1.76
707;1967.59;565.935;1.76
708;2002.07;565.935;1.76
709;2016.72;591.571;1.76
710;2024.35;559.832;1.76
711;2009.4;571.795;1.76
712;1979.79;567.888;1.76
713;1959.96;587.42;1.76
714;1977.35;552.019;1.76
715;1992.31;569.842;1.76
716;1997.19;544.206;1.76
717;1989.56;585.467;1.77
718;1955.07;579.608;1.77
719;1918.15;553.972;1.77
720;1923.03;585.467;1.77
721;1959.96;573.748;1.77
722;1972.47;577.654;1.77
723;1984.68;555.925;1.77
724;1977.35;593.524;1.77
725;1955.07;573.748;1.77
726;1935.24;599.384;1.77
727;1967.59;559.832;1.77
728;2004.51;565.935;1.77
729;2019.47;587.42;1.77
730;2026.79;559.832;1.77
731;2014.28;571.795;1.78
732;1979.79;563.738;1.78
733;1965.14;587.42;1.78
734;1987.12;552.019;1.78
735;1997.19;569.842;1.78
736;2002.07;544.206;1.78
737;1994.75;591.571;1.78
738;1965.14;575.701;1.78
739;1925.47;555.925;1.78
740;1927.91;587.42;1.78
741;1965.14;571.795;1.78
742;1977.35;575.701;1.78
743;1984.68;555.925;1.78
744;1982.23;591.571;1.78
745;1959.96;571.795;1.79
746;1937.98;599.384;1.79
747;1967.59;552.019;1.79
748;2009.4;565.935;1.79
749;2024.35;587.42;1.79
750;2031.67;555.925;1.79
751;2019.47;571.795;1.79
752;1984.68;569.842;1.79
753;1965.14;587.42;1.79
754;1984.68;550.066;1.79
755;1999.63;567.888;1.79
756;2004.51;544.206;1.79
757;1997.19;585.467;1.79
758;1965.14;575.701;1.79
759;1930.35;553.972;1.8
760;1925.47;583.514;1.8
761;1962.4;573.748;1.8
762;1979.79;575.701;1.8
763;1987.12;553.972;1.8
764;1982.23;591.571;1.8
765;1965.14;573.748;1.8
766;1942.87;597.43;1.8
767;1970.03;561.785;1.8
768;2009.4;563.738;1.8
769;2024.35;587.42;1.8
770;2034.12;559.832;1.8
771;2019.47;569.842;1.8
772;1989.56;567.888;1.8
773;1967.59;585.467;1.81
774;1987.12;550.066;1.81
775;2002.07;567.888;1.81
776;2004.51;546.159;1.81
777;1999.63;585.467;1.81
778;1967.59;577.654;1.81
779;1930.35;555.925;1.81
780;1930.35;587.42;1.81
781;1967.59;571.795;1.81
782;1982.23;573.748;1.81
783;1989.56;553.972;1.81
784;1987.12;593.524;1.81
785;1965.14;571.795;1.81
786;1945.31;599.384;1.81
787;1974.91;555.925;1.82
788;2011.84;565.935;1.82
789;2029.23;587.42;1.82
790;2036.56;557.878;1.82
791;2024.35;571.795;1.82
792;1994.75;565.935;1.82
793;1974.91;587.42;1.82
794;1992.31;550.066;1.82
795;2004.51;567.888;1.82
796;2009.4;542.009;1.82
797;2004.51;595.477;1.82
798;1974.91;573.748;1.82
799;1935.24;553.972;1.82
800;1932.79;587.42;1.82
801;1970.03;577.654;1.83
802;1987.12;567.888;1.83
803;1992.31;553.972;1.83
804;1989.56;571.795;1.83
805;1967.59;571.795;1.83
806;1947.75;591.571;1.83
807;1974.91;573.748;1.83
808;2014.28;557.878;1.83
809;2029.23;585.467;1.83
810;2039;569.842;1.83
811;2026.79;563.738;1.83
812;1997.19;569.842;1.83
813;1974.91;585.467;1.83
814;1992.31;569.842;1.83
815;2006.95;563.738;1.84
816;2011.84;546.159;1.84
817;2004.51;571.795;1.84
818;1974.91;579.608;1.84
819;1937.98;555.925;1.84
820;1932.79;575.701;1.84
821;1972.47;575.701;1.84
822;1987.12;569.842;1.84
823;1994.75;552.019;1.84
824;1992.31;577.654;1.84
825;1972.47;573.748;1.84
826;1947.75;595.477;1.84
827;1974.91;571.795;1.84
828;2014.28;563.738;1.84
829;2031.67;585.467;1.85
830;2043.88;561.785;1.85
831;2029.23;565.935;1.85
832;1999.63;567.888;1.85
833;1977.35;583.514;1.85
834;1994.75;559.832;1.85
835;2011.84;567.888;1.85
836;2014.28;542.009;1.85
837;2009.4;577.654;1.85
838;1977.35;577.654;1.85
839;1940.42;553.972;1.85
840;1932.79;579.608;1.85
841;1970.03;575.701;1.85
842;1989.56;571.795;1.86
843;1997.19;552.019;1.86
844;1994.75;585.467;1.86
845;1972.47;571.795;1.86
846;1950.19;595.477;1.86
847;1977.35;565.935;1.86
848;2014.28;563.738;1.86
849;2034.12;587.42;1.86
850;2046.63;559.832;1.86
851;2031.67;567.888;1.86
852;2004.51;567.888;1.86
853;1979.79;585.467;1.86
854;1997.19;552.019;1.86
855;2011.84;567.888;1.86
856;2016.72;542.009;1.87
857;2011.84;581.561;1.87
858;1967.59;575.701;1.87
859;1935.24;553.972;1.87
860;1952.63;579.608;1.87
861;1982.23;571.795;1.87
862;1997.19;573.748;1.87
863;2002.07;552.019;1.87
864;1992.31;589.618;1.87
865;1967.59;571.795;1.87
866;1955.07;595.477;1.87
867;1999.63;561.785;1.87
868;2026.79;565.935;1.87
869;2043.88;587.42;1.88
870;2046.63;557.878;1.88
871;2026.79;567.888;1.88
872;1994.75;567.888;1.88
873;1982.23;583.514;1.88
874;2006.95;548.112;1.88
875;2014.28;565.935;1.88
876;2016.72;542.009;1.88
877;2006.95;587.42;1.88
878;1970.03;573.748;1.88
879;1937.98;552.019;1.88
880;1952.63;585.467;1.88
881;1984.68;571.795;1.88
882;1999.63;573.748;1.89
883;2006.95;553.972;1.89
884;1994.75;589.618;1.89
885;1967.59;569.842;1.89
886;1959.96;597.43;1.89
887;2002.07;553.972;1.89
888;2031.67;563.738;1.89
889;2049.07;583.514;1.89
890;2051.51;555.925;1.89
891;2029.23;569.842;1.89
892;1999.63;561.785;1.89
893;1987.12;583.514;1.89
894;2009.4;571.795;1.89
895;2021.91;561.785;1.9
896;2021.91;550.066;1.9
897;2011.84;569.842;1.9
898;1974.91;581.561;1.9
899;1940.42;555.925;1.9
900;1957.51;571.795;1.9
901;1992.31;575.701;1.9
902;2004.51;565.935;1.9
903;2009.4;552.019;1.9
904;2002.07;569.842;1.9
905;1974.91;571.795;1.9
906;1962.4;589.618;1.9
907;1999.63;573.748;1.9
908;2034.12;557.878;1.91
909;2049.07;583.514;1.91
910;2051.51;565.935;1.91
911;2031.67;561.785;1.91
912;1997.19;569.842;1.91
913;1989.56;583.514;1.91
914;2011.84;567.888;1.91
915;2019.47;563.738;1.91
916;2021.91;544.206;1.91
917;2014.28;573.748;1.91
918;1979.79;579.608;1.91
919;1945.31;552.019;1.91
920;1959.96;573.748;1.91
921;1992.31;573.748;1.92
922;2002.07;567.888;1.92
923;2011.84;552.019;1.92
924;2004.51;579.608;1.92
925;1977.35;571.795;1.92
926;1967.59;593.524;1.92
927;2004.51;567.888;1.92
928;2036.56;559.832;1.92
929;2051.51;585.467;1.92
930;2058.84;561.785;1.92
931;2036.56;565.935;1.92
932;2004.51;565.935;1.92
933;1992.31;583.514;1.92
934;2014.28;561.785;1.93
935;2026.79;563.738;1.93
936;2029.23;542.009;1.93
937;2016.72;575.701;1.93
938;1979.79;577.654;1.93
939;1945.31;553.972;1.93
940;1957.51;577.654;1.93
941;1994.75;571.795;1.93
942;2009.4;569.842;1.93
943;2011.84;553.972;1.93
944;2006.95;585.467;1.93
945;1979.79;569.842;1.93
946;1967.59;595.477;1.93
947;2006.95;561.785;1.94
948;2036.56;561.785;1.94
949;2053.95;587.42;1.94
950;2056.39;557.878;1.94
951;2041.44;565.935;1.94
952;2009.4;563.738;1.94
953;1994.75;583.514;1.94
954;2016.72;550.066;1.94
955;2029.23;563.738;1.94
956;2031.67;540.056;1.94
957;2019.47;581.561;1.94
958;1984.68;575.701;1.94
959;1952.63;550.066;1.94
960;1962.4;579.608;1.95
961;1997.19;571.795;1.95
962;2011.84;571.795;1.95
963;2016.72;550.066;1.95
964;2011.84;589.618;1.95
965;1984.68;569.842;1.95
966;1967.59;595.477;1.95
967;2006.95;559.832;1.95
968;2041.44;561.785;1.95
969;2056.39;585.467;1.95
970;2063.72;557.878;1.95
971;2043.88;567.888;1.95
972;2011.84;563.738;1.95
973;1999.63;585.467;1.96
974;2019.47;548.112;1.96
975;2031.67;565.935;1.96
976;2034.12;540.056;1.96
977;2026.79;587.42;1.96
978;1989.56;571.795;1.96
979;1955.07;552.019;1.96
980;1967.59;583.514;1.96
981;2002.07;569.842;1.96
982;2014.28;571.795;1.96
983;2021.91;552.019;1.96
984;2014.28;589.618;1.96
985;1992.31;569.842;1.96
986;1974.91;595.477;1.97
987;2011.84;565.935;1.97
988;2046.63;561.785;1.97
989;2063.72;587.42;1.97
990;2068.6;561.785;1.97
991;2049.07;565.935;1.97
992;2016.72;561.785;1.97
993;1999.63;585.467;1.97
994;2021.91;552.019;1.97
995;2036.56;563.738;1.97
996;2039;540.056;1.97
997;2026.79;577.654;1.97
998;1997.19;575.701;1.97
999;1957.51;552.019;1.98
1000;1970.03;577.654;1.98
1001;2006.95;571.795;1.98
1002;2019.47;571.795;1.98
1003;2024.35;550.066;1.98
1004;2016.72;587.42;1.98
1005;1997.19;569.842;1.98
1006;1977.35;595.477;1.98
1007;2014.28;559.832;1.98
1008;2049.07;559.832;1.98
1009;2063.72;585.467;1.98
1010;2073.79;557.878;1.98
1011;2053.95;567.888;1.98
1012;2019.47;563.738;1.99
1013;2006.95;583.514;1.99
1014;2024.35;548.112;1.99
1015;2041.44;563.738;1.99
1016;2041.44;540.056;1.99
1017;2031.67;581.561;1.99
1018;1999.63;571.795;1.99
1019;1959.96;552.019;1.99
1020;1970.03;579.608;1.99
1021;2004.51;569.842;1.99
1022;2019.47;571.795;1.99
1023;2026.79;550.066;1.99
1024;2019.47;589.618;1.99
1025;1994.75;569.842;2
1026;1977.35;595.477;2
1027;2014.28;557.878;2
1028;2051.51;561.785;2
1029;2068.6;587.42;2
1030;2076.23;555.925;2
1031;2056.39;567.888;2
1032;2024.35;559.832;2
1033;2006.95;579.608;2
1034;2026.79;571.795;2
1035;2041.44;561.785;2
1036;2046.63;550.066;2
1037;2034.12;563.738;2
1038;2004.51;581.561;2.01
1039;1967.59;555.925;2.01
1040;1972.47;567.888;2.01
1041;2009.4;575.701;2.01
1042;2024.35;565.935;2.01
1043;2031.67;553.972;2.01
1044;2026.79;565.935;2.01
1045;2002.07;571.795;2.01
1046;1984.68;585.467;2.01
1047;2016.72;573.748;2.01
1048;2056.39;553.972;2.01
1049;2071.04;581.561;2.01
1050;2078.67;565.935;2.01
1051;2061.28;561.785;2.02
1052;2029.23;567.888;2.02
1053;2014.28;581.561;2.02
1054;2029.23;571.795;2.02
1055;2046.63;561.785;2.02
1056;2046.63;542.009;2.02
1057;2039;569.842;2.02
1058;2009.4;577.654;2.02
1059;1970.03;552.019;2.02
1060;1979.79;571.795;2.02
1061;2014.28;573.748;2.02
1062;2029.23;565.935;2.02
1063;2036.56;552.019;2.02
1064;2029.23;571.795;2.03
1065;2006.95;569.842;2.03
1066;1989.56;591.571;2.03
1067;2019.47;567.888;2.03
1068;2058.84;557.878;2.03
1069;2076.23;585.467;2.03
1070;2083.56;561.785;2.03
1071;2066.16;561.785;2.03
1072;2034.12;563.738;2.03
1073;2016.72;581.561;2.03
1074;2036.56;563.738;2.03
1075;2051.51;563.738;2.03
1076;2053.95;538.102;2.03
1077;2046.63;573.748;2.03
1078;2014.28;575.701;2.04
1079;1974.91;552.019;2.04
1080;1979.79;575.701;2.04
1081;2016.72;573.748;2.04
1082;2031.67;569.842;2.04
1083;2041.44;550.066;2.04
1084;2034.12;577.654;2.04
1085;2009.4;567.888;2.04
1086;1989.56;593.524;2.04
1087;2021.91;561.785;2.04
1088;2061.28;559.832;2.04
1089;2078.67;583.514;2.04
1090;2086;559.832;2.04
1091;2071.04;563.738;2.05
1092;2036.56;561.785;2.05
1093;2016.72;583.514;2.05
1094;2039;553.972;2.05
1095;2053.95;559.832;2.05
1096;2058.84;540.056;2.05
1097;2051.51;579.608;2.05
1098;2019.47;575.701;2.05
1099;1982.23;548.112;2.05
1100;1984.68;577.654;2.05
1101;2019.47;569.842;2.05
1102;2034.12;569.842;2.05
1103;2041.44;550.066;2.05
1104;2034.12;585.467;2.06
1105;2009.4;569.842;2.06
1106;1997.19;595.477;2.06
1107;2036.56;559.832;2.06
1108;2071.04;559.832;2.06
1109;2086;585.467;2.06
1110;2090.88;553.972;2.06
1111;2071.04;567.888;2.06
1112;2039;561.785;2.06
1113;2021.91;583.514;2.06
1114;2049.07;546.159;2.06
1115;2058.84;565.935;2.06
1116;2058.84;540.056;2.07
1117;2046.63;583.514;2.07
1118;2014.28;571.795;2.07
1119;1977.35;548.112;2.07
1120;1989.56;579.608;2.07
1121;2026.79;567.888;2.07
1122;2039;571.795;2.07
1123;2046.63;552.019;2.07
1124;2036.56;587.42;2.07
1125;2014.28;567.888;2.07
1126;1999.63;583.514;2.07
1127;2036.56;577.654;2.07
1128;2073.79;553.972;2.07
1129;2090.88;573.748;2.08
1130;2095.76;569.842;2.08
1131;2073.79;555.925;2.08
1132;2041.44;565.935;2.08
1133;2026.79;579.608;2.08
1134;2049.07;569.842;2.08
1135;2058.84;559.832;2.08
1136;2063.72;548.112;2.08
1137;2051.51;563.738;2.08
1138;2016.72;579.608;2.08
1139;1982.23;553.972;2.08
1140;1992.31;567.888;2.08
1141;2029.23;575.701;2.09
1142;2043.88;563.738;2.09
1143;2046.63;550.066;2.09
1144;2041.44;565.935;2.09
1145;2016.72;569.842;2.09
1146;2002.07;585.467;2.09
1147;2041.44;571.795;2.09
1148;2078.67;553.972;2.09
1149;2090.88;579.608;2.09
1150;2100.95;565.935;2.09
1151;2078.67;559.832;2.09
1152;2046.63;563.738;2.09
1153;2029.23;581.561;2.1
1154;2056.39;567.888;2.1
1155;2068.6;559.832;2.1
1156;2071.04;542.009;2.1
1157;2056.39;569.842;2.1
1158;2024.35;579.608;2.1
1159;1987.12;552.019;2.1
1160;1999.63;567.888;2.1
1161;2034.12;573.748;2.1
1162;2049.07;565.935;2.1
1163;2053.95;552.019;2.1
1164;2046.63;571.795;2.1
1165;2021.91;569.842;2.11
1166;2006.95;589.618;2.11
1167;2043.88;567.888;2.11
1168;2078.67;557.878;2.11
1169;2098.2;583.514;2.11
1170;2103.39;561.785;2.11
1171;2083.56;563.738;2.11
1172;2051.51;565.935;2.11
1173;2031.67;579.608;2.11
1174;2058.84;559.832;2.11
1175;2071.04;559.832;2.11
1176;2071.04;540.056;2.11
1177;2063.72;571.795;2.12
1178;2026.79;577.654;2.12
1179;1992.31;550.066;2.12
1180;2002.07;571.795;2.12
1181;2036.56;569.842;2.12
1182;2053.95;567.888;2.12
1183;2058.84;548.112;2.12
1184;2053.95;581.561;2.12
1185;2029.23;567.888;2.12
1186;2011.84;593.524;2.12
1187;2049.07;561.785;2.12
1188;2083.56;557.878;2.12
1189;2103.39;585.467;2.13
1190;2108.28;557.878;2.13
1191;2088.44;561.785;2.13
1192;2056.39;563.738;2.13
1193;2039;581.561;2.13
1194;2063.72;552.019;2.13
1195;2076.23;561.785;2.13
1196;2078.67;540.056;2.13
1197;2068.6;575.701;2.13
1198;2036.56;573.748;2.13
1199;1997.19;548.112;2.13
1200;2006.95;577.654;2.13
1201;2041.44;569.842;2.14
1202;2056.39;571.795;2.14
1203;2063.72;548.112;2.14
1204;2058.84;585.467;2.14
1205;2034.12;569.842;2.14
1206;2016.72;593.524;2.14
1207;2051.51;559.832;2.14
1208;2090.88;559.832;2.14
1209;2105.83;581.561;2.14
1210;2113.16;555.925;2.14
1211;2093.32;565.935;2.14
1212;2061.28;559.832;2.14
1213;2041.44;581.561;2.15
1214;2066.16;546.159;2.15
1215;2078.67;563.738;2.15
1216;2086;536.149;2.15
1217;2073.79;577.654;2.15
1218;2041.44;577.654;2.15
1219;2002.07;548.112;2.15
1220;2006.95;571.795;2.15
1221;2046.63;571.795;2.15
1222;2061.28;567.888;2.15
1223;2068.6;548.112;2.15
1224;2058.84;575.701;2.16
1225;2036.56;569.842;2.16
1226;2019.47;591.571;2.16
1227;2053.95;563.738;2.16
1228;2093.32;557.878;2.16
1229;2110.72;583.514;2.16
1230;2118.04;559.832;2.16
1231;2100.95;561.785;2.16
1232;2063.72;561.785;2.16
1233;2046.63;579.608;2.16
1234;2068.6;555.925;2.16
1235;2083.56;561.785;2.16
1236;2086;536.149;2.17
1237;2078.67;575.701;2.17
1238;2041.44;573.748;2.17
1239;2006.95;548.112;2.17
1240;2011.84;577.654;2.17
1241;2051.51;569.842;2.17
1242;2063.72;569.842;2.17
1243;2073.79;548.112;2.17
1244;2068.6;581.561;2.17
1245;2041.44;567.888;2.17
1246;2024.35;595.477;2.17
1247;2058.84;559.832;2.18
1248;2095.76;557.878;2.18
1249;2115.6;585.467;2.18
1250;2120.48;557.878;2.18
1251;2103.39;561.785;2.18
1252;2068.6;559.832;2.18
1253;2046.63;581.561;2.18
1254;2071.04;548.112;2.18
1255;2086;561.785;2.18
1256;2090.88;538.102;2.18
1257;2083.56;579.608;2.18
1258;2049.07;573.748;2.18
1259;2011.84;548.112;2.19
1260;2014.28;577.654;2.19
1261;2051.51;569.842;2.19
1262;2068.6;569.842;2.19
1263;2076.23;552.019;2.19
1264;2068.6;587.42;2.19
1265;2043.88;569.842;2.19
1266;2024.35;579.608;2.19
1267;2058.84;577.654;2.19
1268;2098.2;548.112;2.19
1269;2115.6;573.748;2.19
1270;2122.92;567.888;2.2
1271;2105.83;555.925;2.2
1272;2071.04;563.738;2.2
1273;2051.51;579.608;2.2
1274;2076.23;571.795;2.2
1275;2090.88;557.878;2.2
1276;2095.76;548.112;2.2
1277;2086;561.785;2.2
1278;2051.51;581.561;2.2
1279;2014.28;553.972;2.2
1280;2016.72;563.738;2.2
1281;2053.95;577.654;2.21
1282;2071.04;563.738;2.21
1283;2081.11;550.066;2.21
1284;2073.79;563.738;2.21
1285;2049.07;567.888;2.21
1286;2029.23;583.514;2.21
1287;2058.84;569.842;2.21
1288;2100.95;550.066;2.21
1289;2120.48;577.654;2.21
1290;2128.11;563.738;2.21
1291;2110.72;557.878;2.21
1292;2083.56;567.888;2.22
1293;2056.39;579.608;2.22
1294;2078.67;567.888;2.22
1295;2095.76;557.878;2.22
1296;2098.2;542.009;2.22
1297;2093.32;563.738;2.22
1298;2058.84;577.654;2.22
1299;2016.72;552.019;2.22
1300;2016.72;567.888;2.22
1301;2058.84;575.701;2.22
1302;2076.23;565.935;2.22
1303;2083.56;552.019;2.22
1304;2078.67;567.888;2.23
1305;2053.95;567.888;2.23
1306;2034.12;587.42;2.23
1307;2063.72;567.888;2.23
1308;2105.83;553.972;2.23
1309;2122.92;583.514;2.23
1310;2135.44;561.785;2.23
1311;2118.04;557.878;2.23
1312;2081.11;565.935;2.23
1313;2058.84;581.561;2.23
1314;2078.67;563.738;2.23
1315;2095.76;559.832;2.24
1316;2100.95;538.102;2.24
1317;2093.32;569.842;2.24
1318;2063.72;573.748;2.24
1319;2019.47;548.112;2.24
1320;2021.91;569.842;2.24
1321;2061.28;569.842;2.24
1322;2078.67;565.935;2.24
1323;2086;548.112;2.24
1324;2081.11;575.701;2.24
1325;2056.39;567.888;2.24
1326;2036.56;591.571;2.25
1327;2063.72;563.738;2.25
1328;2108.28;555.925;2.25
1329;2128.11;585.467;2.25
1330;2135.44;557.878;2.25
1331;2120.48;561.785;2.25
1332;2086;561.785;2.25
1333;2063.72;581.561;2.25
1334;2086;553.972;2.25
1335;2098.2;559.832;2.25
1336;2103.39;538.102;2.25
1337;2098.2;575.701;2.26
1338;2066.16;571.795;2.26
1339;2026.79;546.159;2.26
1340;2024.35;573.748;2.26
1341;2063.72;567.888;2.26
1342;2081.11;567.888;2.26
1343;2090.88;550.066;2.26
1344;2086;583.514;2.26
1345;2061.28;567.888;2.26
1346;2039;593.524;2.26
1347;2068.6;555.925;2.26
1348;2113.16;555.925;2.27
1349;2130.55;583.514;2.27
1350;2137.88;553.972;2.27
1351;2125.37;561.785;2.27
1352;2093.32;561.785;2.27
1353;2068.6;581.561;2.27
1354;2088.44;548.112;2.27
1355;2105.83;561.785;2.27
1356;2110.72;536.149;2.27
1357;2103.39;553.972;2.27
1358;2071.04;585.467;2.27
1359;2029.23;559.832;2.28
1360;2029.23;559.832;2.28
1361;2068.6;579.608;2.28
1362;2086;561.785;2.28
1363;2093.32;550.066;2.28
1364;2093.32;561.785;2.28
1365;2066.16;571.795;2.28
1366;2043.88;577.654;2.28
1367;2071.04;573.748;2.28
1368;2115.6;544.206;2.28
1369;2133;573.748;2.28
1370;2142.76;567.888;2.29
1371;2130.55;553.972;2.29
1372;2095.76;565.935;2.29
1373;2071.04;577.654;2.29
1374;2088.44;569.842;2.29
1375;2108.28;559.832;2.29
1376;2113.16;546.159;2.29
1377;2103.39;559.832;2.29
1378;2076.23;579.608;2.29
1379;2034.12;553.972;2.29
1380;2029.23;563.738;2.29
1381;2073.79;577.654;2.3
1382;2090.88;563.738;2.3
1383;2098.2;548.112;2.3
1384;2095.76;563.738;2.3
1385;2073.79;567.888;2.3
1386;2046.63;585.467;2.3
1387;2073.79;569.842;2.3
1388;2118.04;552.019;2.3
1389;2137.88;579.608;2.3
1390;2147.64;561.785;2.3
1391;2135.44;557.878;2.3
1392;2100.95;565.935;2.31
1393;2076.23;579.608;2.31
1394;2093.32;567.888;2.31
1395;2110.72;557.878;2.31
1396;2118.04;544.206;2.31
1397;2113.16;563.738;2.31
1398;2081.11;579.608;2.31
1399;2039;552.019;2.31
1400;2031.67;567.888;2.31
1401;2073.79;571.795;2.31
1402;2093.32;563.738;2.31
1403;2103.39;548.112;2.32
1404;2098.2;565.935;2.32
1405;2073.79;567.888;2.32
1406;2051.51;587.42;2.32
1407;2076.23;565.935;2.32
1408;2118.04;552.019;2.32
1409;2140.32;579.608;2.32
1410;2150.09;561.785;2.32
1411;2137.88;557.878;2.32
1412;2103.39;563.738;2.32
1413;2078.67;579.608;2.32
1414;2095.76;563.738;2.33
1415;2115.6;557.878;2.33
1416;2120.48;536.149;2.33
1417;2115.6;569.842;2.33
1418;2086;575.701;2.33
1419;2041.44;546.159;2.33
1420;2036.56;569.842;2.33
1421;2076.23;569.842;2.33
1422;2095.76;565.935;2.33
1423;2108.28;548.112;2.33
1424;2103.39;573.748;2.33
1425;2078.67;567.888;2.34
1426;2051.51;589.618;2.34
1427;2078.67;561.785;2.34
1428;2122.92;555.925;2.34
1429;2142.76;581.561;2.34
1430;2155.27;557.878;2.34
1431;2140.32;561.785;2.34
1432;2108.28;559.832;2.34
1433;2078.67;579.608;2.34
1434;2100.95;553.972;2.34
1435;2120.48;557.878;2.34
1436;2125.37;536.149;2.35
1437;2118.04;571.795;2.35
1438;2088.44;573.748;2.35
1439;2049.07;546.159;2.35
1440;2039;575.701;2.35
1441;2081.11;567.888;2.35
1442;2098.2;567.888;2.35
1443;2110.72;548.112;2.35
1444;2108.28;581.561;2.35
1445;2083.56;567.888;2.35
1446;2058.84;591.571;2.35
1447;2083.56;557.878;2.35
1448;2128.11;557.878;2.36
1449;2147.64;585.467;2.36
1450;2160.16;559.832;2.36
1451;2145.2;557.878;2.36
1452;2113.16;561.785;2.36
1453;2086;579.608;2.36
1454;2105.83;565.935;2.36
1455;2122.92;557.878;2.36
1456;2128.11;538.102;2.36
1457;2125.37;565.935;2.36
1458;2093.32;575.701;2.36
1459;2051.51;546.159;2.37
1460;2043.88;569.842;2.37
1461;2086;569.842;2.37
1462;2105.83;563.738;2.37
1463;2115.6;546.159;2.37
1464;2113.16;569.842;2.37
1465;2090.88;567.888;2.37
1466;2063.72;587.42;2.37
1467;2086;563.738;2.37
1468;2130.55;553.972;2.37
1469;2152.53;579.608;2.37
1470;2162.6;557.878;2.38
1471;2152.53;559.832;2.38
1472;2120.48;561.785;2.38
1473;2090.88;577.654;2.38
1474;2110.72;555.925;2.38
1475;2128.11;559.832;2.38
1476;2135.44;536.149;2.38
1477;2130.55;569.842;2.38
1478;2100.95;573.748;2.38
1479;2056.39;546.159;2.38
1480;2046.63;571.795;2.38
1481;2086;569.842;2.39
1482;2110.72;565.935;2.39
1483;2118.04;546.159;2.39
1484;2115.6;575.701;2.39
1485;2095.76;565.935;2.39
1486;2068.6;591.571;2.39
1487;2088.44;561.785;2.39
1488;2137.88;555.925;2.39
1489;2157.72;581.561;2.39
1490;2169.92;553.972;2.39
1491;2160.16;559.832;2.39
1492;2128.11;559.832;2.4
1493;2098.2;581.561;2.4
1494;2110.72;548.112;2.4
1495;2133;559.832;2.4
1496;2137.88;536.149;2.4
1497;2135.44;553.972;2.4
1498;2105.83;583.514;2.4
1499;2066.16;557.878;2.4
1500;2051.51;557.878;2.4
1501;2088.44;579.608;2.4
1502;2113.16;561.785;2.4
1503;2122.92;548.112;2.41
1504;2122.92;557.878;2.41
1505;2098.2;569.842;2.41
1506;2071.04;575.701;2.41
1507;2090.88;577.654;2.41
1508;2137.88;542.009;2.41
1509;2162.6;569.842;2.41
1510;2172.36;567.888;2.41
1511;2162.6;552.019;2.41
1512;2133;563.738;2.41
1513;2103.39;573.748;2.42
1514;2115.6;567.888;2.42
1515;2137.88;553.972;2.42
1516;2142.76;546.159;2.42
1517;2137.88;555.925;2.42
1518;2113.16;581.561;2.42
1519;2068.6;553.972;2.42
1520;2053.95;561.785;2.42
1521;2093.32;575.701;2.42
1522;2118.04;561.785;2.42
1523;2130.55;548.112;2.42
1524;2130.55;559.832;2.43
1525;2105.83;569.842;2.43
1526;2078.67;579.608;2.43
1527;2095.76;571.795;2.43
1528;2145.2;548.112;2.43
1529;2167.48;571.795;2.43
1530;2177.25;563.738;2.43
1531;2169.92;553.972;2.43
1532;2137.88;561.785;2.43
1533;2108.28;575.701;2.43
1534;2118.04;567.888;2.43
1535;2140.32;555.925;2.44
1536;2147.64;542.009;2.44
1537;2145.2;561.785;2.44
1538;2115.6;579.608;2.44
1539;2076.23;550.066;2.44
1540;2058.84;561.785;2.44
1541;2095.76;573.748;2.44
1542;2120.48;557.878;2.44
1543;2133;546.159;2.44
1544;2130.55;561.785;2.44
1545;2110.72;565.935;2.44
1546;2081.11;585.467;2.45
1547;2098.2;565.935;2.45
1548;2147.64;550.066;2.45
1549;2172.36;575.701;2.45
1550;2184.88;557.878;2.45
1551;2174.81;557.878;2.45
1552;2142.76;563.738;2.45
1553;2113.16;577.654;2.45
1554;2122.92;563.738;2.45
1555;2145.2;555.925;2.45
1556;2155.27;536.149;2.46
1557;2150.09;563.738;2.46
1558;2122.92;573.748;2.46
1559;2081.11;548.112;2.46
1560;2063.72;567.888;2.46
1561;2100.95;569.842;2.46
1562;2128.11;561.785;2.46
1563;2140.32;546.159;2.46
1564;2137.88;567.888;2.46
1565;2115.6;567.888;2.46
1566;2088.44;587.42;2.46
1567;2103.39;561.785;2.47
1568;2152.53;550.066;2.47
1569;2174.81;577.654;2.47
1570;2187.32;555.925;2.47
1571;2179.69;557.878;2.47
1572;2145.2;557.878;2.47
1573;2115.6;577.654;2.47
1574;2128.11;557.878;2.47
1575;2152.53;557.878;2.47
1576;2157.72;534.196;2.47
1577;2157.72;569.842;2.48
1578;2130.55;571.795;2.48
1579;2086;544.206;2.48
1580;2068.6;569.842;2.48
1581;2105.83;565.935;2.48
1582;2133;563.738;2.48
1583;2142.76;542.009;2.48
1584;2142.76;575.701;2.48
1585;2110.72;563.738;2.48
1586;2090.88;589.618;2.48
1587;2125.37;557.878;2.48
1588;2169.92;553.972;2.49
1589;2189.76;581.561;2.49
1590;2192.2;567.888;2.49
1591;2177.25;546.159;2.49
1592;2140.32;561.785;2.49
1593;2120.48;567.888;2.49
1594;2145.2;569.842;2.49
1595;2160.16;552.019;2.49
1596;2165.04;552.019;2.49
1597;2155.27;550.066;2.49
1598;2118.04;583.514;2.49
1599;2078.67;555.925;2.5
1600;2086;557.878;2.5
1601;2122.92;579.608;2.5
1602;2142.76;561.785;2.5
1603;2150.09;546.159;2.5
1604;2145.2;557.878;2.5
1605;2113.16;571.795;2.5
1606;2093.32;573.748;2.5
1607;2130.55;573.748;2.5
1608;2174.81;542.009;2.5
1609;2189.76;569.842;2.51
1610;2199.53;563.738;2.51
1611;2179.69;550.066;2.51
1612;2145.2;561.785;2.51
1613;2125.37;571.795;2.51
1614;2150.09;567.888;2.51
1615;2167.48;553.972;2.51
1616;2172.36;544.206;2.51
1617;2162.6;553.972;2.51
1618;2128.11;581.561;2.51
1619;2086;552.019;2.51
1620;2090.88;559.832;2.52
1621;2130.55;573.748;2.52
1622;2147.64;559.832;2.52
1623;2157.72;544.206;2.52
1624;2152.53;559.832;2.52
1625;2122.92;567.888;2.52
1626;2098.2;577.654;2.52
1627;2137.88;569.842;2.52
1628;2182.44;544.206;2.52
1629;2199.53;571.795;2.52
1630;2206.85;563.738;2.53
1631;2189.76;553.972;2.53
1632;2155.27;559.832;2.53
1633;2130.55;573.748;2.53
1634;2157.72;565.935;2.53
1635;2172.36;553.972;2.53
1636;2179.69;536.149;2.53
1637;2169.92;557.878;2.53
1638;2133;575.701;2.53
1639;2093.32;548.112;2.53
1640;2093.32;561.785;2.53
1641;2137.88;571.795;2.54
1642;2155.27;561.785;2.54
1643;2165.04;544.206;2.54
1644;2160.16;561.785;2.54
1645;2133;565.935;2.54
1646;2108.28;581.561;2.54
1647;2145.2;565.935;2.54
1648;2187.32;546.159;2.54
1649;2206.85;573.748;2.54
1650;2214.48;557.878;2.54
